X-Data [Hz]	Laser (M - Filtered) [m/s]	Phase [Deg]	Laser (M - Filtered) [m/s]	Phase [Deg]	
	002: [07-10-24 08:50]		003: [07-10-24 08:53]	
          41	   0,0801193	76,0	   0,0927438	75,7
      41,002	   0,0829835	76,7	   0,0930444	75,8
     41,0039	   0,0872503	76,8	   0,0935173	75,5
     41,0059	   0,0892624	75,4	   0,0934954	75,2
     41,0078	   0,0905377	75,9	   0,0937866	75,8
     41,0098	   0,0912327	75,8	   0,0945894	75,9
     41,0117	   0,0924304	75,8	   0,0940832	76,2
     41,0137	   0,0925646	75,4	   0,0948259	75,3
     41,0156	   0,0929182	76,0	   0,0946999	76,3
     41,0176	   0,0932127	75,7	   0,0953044	76,1
     41,0196	   0,0932137	74,9	   0,0944789	76,7
     41,0215	   0,0934605	75,0	   0,0950241	76,3
     41,0235	   0,0940458	76,0	   0,0953884	76,2
     41,0254	   0,0940685	75,9	   0,0956564	75,9
     41,0274	   0,0942308	75,7	   0,0956818	76,4
     41,0293	   0,0940632	76,0	    0,095396	76,3
     41,0313	   0,0943907	76,2	   0,0955101	76,1
     41,0332	   0,0946504	76,0	   0,0963064	76,1
     41,0352	     0,09483	76,1	   0,0966684	75,7
     41,0371	   0,0944807	76,0	   0,0965914	76,5
     41,0391	   0,0946225	76,2	   0,0968376	75,8
     41,0411	   0,0950109	75,6	   0,0965844	76,2
      41,043	   0,0942278	75,5	   0,0970765	76,4
      41,045	   0,0953418	76,2	   0,0970294	76,1
     41,0469	   0,0956431	76,2	   0,0977072	76,4
     41,0489	   0,0955743	75,3	    0,097724	76,6
     41,0508	   0,0956514	75,9	   0,0974529	76,6
     41,0528	   0,0958809	76,2	   0,0977893	75,6
     41,0547	   0,0955908	76,3	   0,0980294	75,6
     41,0567	   0,0959074	75,7	   0,0979912	76,5
     41,0587	   0,0960133	75,8	    0,098624	76,7
     41,0606	   0,0964448	76,3	   0,0976853	76,4
     41,0626	   0,0967851	76,2	    0,097549	76,2
     41,0645	     0,09636	76,1	   0,0984565	76,5
     41,0665	   0,0970526	76,2	   0,0991257	77,0
     41,0684	   0,0970908	76,3	   0,0989969	76,9
     41,0704	   0,0964789	75,7	   0,0993015	76,6
     41,0723	   0,0974087	76,4	   0,0995932	76,9
     41,0743	   0,0974956	76,6	   0,0994429	76,6
     41,0762	    0,097908	76,5	   0,0990889	76,8
     41,0782	   0,0980409	76,3	   0,0998893	76,4
     41,0802	   0,0981562	76,2	    0,100139	77,1
     41,0821	   0,0984488	76,6	    0,100265	76,8
     41,0841	   0,0980936	76,3	    0,100336	77,4
      41,086	   0,0981064	76,4	    0,100614	77,2
      41,088	   0,0982154	75,9	    0,101303	76,9
     41,0899	   0,0983573	76,9	    0,101202	77,3
     41,0919	   0,0987179	76,2	   0,0997788	77,5
     41,0938	   0,0993963	76,4	    0,101667	77,5
     41,0958	   0,0989341	76,2	    0,101198	77,0
     41,0978	   0,0993054	76,7	    0,102085	76,9
     41,0997	   0,0988386	76,5	     0,10138	77,9
     41,1017	    0,100103	76,7	    0,102368	77,5
     41,1036	    0,100097	76,6	    0,102597	77,4
     41,1056	     0,09965	76,6	    0,102822	76,9
     41,1075	   0,0993465	76,6	    0,103345	77,6
     41,1095	   0,0995698	76,8	     0,10252	78,0
     41,1114	     0,10064	76,9	    0,102836	77,8
     41,1134	    0,100473	77,1	    0,102502	77,1
     41,1153	    0,101112	76,8	    0,104508	76,1
     41,1173	    0,100522	76,6	    0,106025	76,9
     41,1193	    0,100638	76,2	     0,10764	78,4
     41,1212	    0,100977	76,6	    0,105147	80,1
     41,1232	    0,101722	77,0	   0,0970211	79,2
     41,1251	    0,101357	76,7	   0,0994286	73,6
     41,1271	    0,101457	76,9	    0,124752	68,0
      41,129	    0,101721	76,9	    0,153624	70,2
      41,131	    0,101536	76,9	    0,191634	79,3
     41,1329	    0,101952	76,8	     0,21412	86,6
     41,1349	    0,102599	77,0	    0,237002	95,0
     41,1369	    0,102259	77,3	    0,249308	101,4
     41,1388	    0,102341	76,5	    0,262124	107,8
     41,1408	    0,102516	76,4	    0,269754	111,8
     41,1427	    0,103158	77,4	    0,276776	116,2
     41,1447	    0,102703	77,1	    0,281458	119,4
     41,1466	    0,103874	77,2	    0,284811	122,9
     41,1486	    0,103747	76,5	    0,289623	126,1
     41,1505	    0,103855	77,5	    0,292086	127,5
     41,1525	    0,104232	77,4	    0,294296	129,8
     41,1544	    0,104253	77,3	    0,295751	131,4
     41,1564	    0,104832	77,4	    0,294562	132,4
     41,1584	    0,103848	77,1	    0,295653	134,1
     41,1603	    0,104672	76,9	    0,297142	135,0
     41,1623	    0,105048	77,3	    0,296976	136,1
     41,1642	    0,105635	77,6	    0,298247	137,4
     41,1662	    0,105369	77,1	     0,29882	137,7
     41,1681	    0,105317	77,4	    0,300418	138,9
     41,1701	    0,105091	77,4	    0,300958	139,9
      41,172	    0,105882	77,0	    0,301698	140,7
      41,174	    0,106332	77,8	    0,300852	141,4
      41,176	    0,106069	77,5	     0,30179	141,6
     41,1779	     0,10631	77,1	    0,303088	142,6
     41,1799	    0,106128	77,2	    0,301919	143,0
     41,1818	    0,107068	78,4	    0,302814	143,8
     41,1838	    0,106888	77,7	    0,301349	143,7
     41,1857	    0,107119	78,2	    0,301732	144,8
     41,1877	    0,107989	77,7	    0,303681	145,3
     41,1896	    0,108188	78,3	     0,30276	145,4
     41,1916	    0,107763	77,5	     0,30216	146,0
     41,1936	     0,10791	78,6	    0,302914	146,4
     41,1955	    0,108222	78,0	    0,301401	147,1
     41,1975	    0,109156	78,3	    0,301882	146,7
     41,1994	    0,108301	78,5	    0,303041	147,5
     41,2014	     0,10852	78,0	     0,30168	147,4
     41,2033	    0,109215	78,1	    0,302596	148,2
     41,2053	    0,109617	78,2	    0,301928	148,4
     41,2072	    0,109409	78,4	    0,302998	148,8
     41,2092	    0,110115	78,2	    0,303562	149,5
     41,2111	    0,109532	78,2	    0,302172	149,5
     41,2131	    0,110558	78,2	     0,30396	149,8
     41,2151	    0,110295	78,5	    0,301251	150,3
      41,217	    0,110929	78,0	    0,302999	150,9
      41,219	    0,110605	78,2	    0,303478	151,1
     41,2209	    0,111559	78,7	     0,30351	151,3
     41,2229	     0,11168	78,9	    0,302398	151,9
     41,2248	    0,111653	79,1	    0,303436	152,2
     41,2268	    0,111191	78,3	    0,301665	152,4
     41,2287	    0,111723	78,3	    0,302346	152,4
     41,2307	    0,112237	78,4	    0,303183	153,1
     41,2327	    0,112699	79,1	    0,303322	153,3
     41,2346	    0,113385	79,1	    0,303278	153,8
     41,2366	    0,112416	78,7	    0,303146	153,6
     41,2385	    0,113008	79,0	    0,303564	153,9
     41,2405	     0,11361	79,0	    0,302897	154,4
     41,2424	    0,113564	78,5	    0,303434	154,5
     41,2444	    0,113514	78,8	    0,302581	154,5
     41,2463	    0,113928	79,0	    0,303119	154,4
     41,2483	    0,114558	79,6	    0,302606	155,3
     41,2502	    0,115278	79,4	    0,302322	155,7
     41,2522	    0,115659	79,3	    0,302279	155,6
     41,2542	    0,115629	79,5	    0,302409	155,5
     41,2561	    0,115602	79,6	    0,302407	155,9
     41,2581	    0,115914	79,2	    0,302731	156,4
       41,26	    0,115547	79,5	    0,302136	156,3
      41,262	     0,11597	79,4	    0,301245	156,5
     41,2639	    0,117105	79,2	     0,30155	156,9
     41,2659	    0,117536	79,4	    0,301717	157,2
     41,2678	    0,117391	79,5	    0,299985	157,1
     41,2698	    0,116508	79,7	    0,300864	157,6
     41,2718	    0,117377	79,8	    0,301645	157,6
     41,2737	    0,117749	79,9	    0,300897	158,3
     41,2757	    0,118708	79,8	    0,300542	158,2
     41,2776	    0,119155	80,0	    0,300581	158,0
     41,2796	    0,118301	79,8	    0,300131	158,5
     41,2815	     0,11973	80,2	    0,300113	158,9
     41,2835	     0,11975	79,4	    0,299494	158,9
     41,2854	    0,120191	79,9	    0,299835	159,2
     41,2874	    0,119226	80,3	    0,299872	159,2
     41,2893	    0,120001	80,0	    0,300117	159,7
     41,2913	    0,120691	79,8	    0,299524	159,9
     41,2933	    0,120546	79,8	    0,299306	160,1
     41,2952	    0,121649	80,3	    0,299195	159,7
     41,2972	    0,121407	80,1	    0,298203	160,1
     41,2991	    0,121834	80,6	    0,298717	160,1
     41,3011	    0,122157	80,5	     0,30035	160,7
      41,303	    0,122817	80,9	    0,298851	160,7
      41,305	    0,123504	80,6	    0,297784	160,9
     41,3069	    0,122778	80,5	    0,298175	161,6
     41,3089	    0,123497	80,5	    0,298992	161,1
     41,3109	    0,124023	81,0	     0,29816	161,6
     41,3128	    0,124458	81,2	    0,297458	161,8
     41,3148	     0,12363	80,9	    0,297384	161,7
     41,3167	    0,124778	80,9	    0,296943	162,3
     41,3187	     0,12506	81,1	    0,296718	162,1
     41,3206	    0,125677	81,2	    0,297002	161,9
     41,3226	    0,125905	81,5	    0,296802	162,7
     41,3245	     0,12606	81,4	    0,296965	162,7
     41,3265	    0,127089	81,2	     0,29557	163,0
     41,3284	    0,127134	81,6	     0,29617	163,0
     41,3304	    0,126514	81,5	    0,294708	163,6
     41,3324	    0,127507	81,5	    0,296509	163,4
     41,3343	    0,128061	81,5	    0,296038	163,6
     41,3363	    0,129506	81,8	    0,295531	163,9
     41,3382	    0,129733	81,8	    0,295846	163,8
     41,3402	    0,128877	81,9	     0,29504	164,3
     41,3421	     0,12991	82,0	    0,293554	164,1
     41,3441	     0,13037	82,2	    0,294807	164,3
      41,346	     0,13011	82,2	    0,295325	164,2
      41,348	    0,130564	82,2	    0,293174	164,5
       41,35	    0,131272	82,6	    0,293537	164,7
     41,3519	    0,132282	82,7	    0,294454	164,9
     41,3539	    0,133138	82,6	    0,292911	165,2
     41,3558	    0,133222	82,4	    0,293083	165,0
     41,3578	    0,132688	82,6	    0,294404	165,3
     41,3597	    0,134322	82,9	    0,293658	165,4
     41,3617	    0,134915	83,0	       0,294	166,0
     41,3636	    0,135149	83,0	    0,293037	165,8
     41,3656	    0,135438	82,9	    0,292585	166,0
     41,3675	    0,135494	82,9	    0,292604	166,0
     41,3695	    0,136387	83,3	    0,292431	165,9
     41,3715	    0,137848	83,6	     0,29227	166,2
     41,3734	    0,138294	83,8	    0,291623	166,4
     41,3754	    0,138252	83,3	    0,292623	166,6
     41,3773	    0,139249	83,6	    0,292515	167,0
     41,3793	    0,139821	83,9	    0,292266	167,0
     41,3812	    0,140634	84,3	    0,291712	167,1
     41,3832	    0,141251	84,2	    0,291566	167,4
     41,3851	    0,141766	84,1	    0,290647	166,8
     41,3871	     0,14247	84,4	    0,292302	167,4
     41,3891	    0,142946	84,6	    0,290667	167,8
      41,391	    0,143761	84,6	    0,290285	168,0
      41,393	    0,144275	84,8	     0,29023	167,8
     41,3949	    0,144286	84,9	    0,289585	168,1
     41,3969	    0,145365	84,9	    0,290172	168,1
     41,3988	    0,146365	85,5	    0,288513	167,9
     41,4008	    0,146655	85,3	    0,289401	168,6
     41,4027	    0,146219	85,2	    0,289574	168,5
     41,4047	    0,146666	85,2	    0,289901	169,0
     41,4066	    0,148713	86,1	    0,288906	168,9
     41,4086	    0,148969	86,2	    0,288502	169,3
     41,4106	    0,150759	86,3	    0,288399	168,9
     41,4125	    0,151563	86,4	    0,287541	169,1
     41,4145	    0,152169	86,4	    0,287806	169,6
     41,4164	    0,153325	86,9	    0,287787	169,5
     41,4184	    0,154405	87,0	    0,287812	169,7
     41,4203	      0,1552	87,3	    0,287517	169,3
     41,4223	    0,156224	87,3	    0,287876	169,8
     41,4242	    0,157069	87,4	    0,286981	169,8
     41,4262	    0,157882	87,9	     0,28618	170,2
     41,4282	    0,158928	88,0	     0,28667	170,1
     41,4301	    0,159894	88,2	    0,286231	170,0
     41,4321	    0,160867	88,4	    0,286875	170,8
      41,434	    0,162421	89,1	    0,286087	170,8
      41,436	    0,163354	89,2	    0,286505	170,8
     41,4379	    0,165452	89,9	    0,285332	171,0
     41,4399	    0,166416	90,0	    0,286076	171,0
     41,4418	    0,168321	90,3	    0,285755	171,4
     41,4438	    0,169589	91,0	     0,28606	171,4
     41,4457	    0,171457	91,2	    0,285625	171,4
     41,4477	    0,172578	91,8	    0,284218	171,3
     41,4497	     0,17524	92,4	    0,284767	171,8
     41,4516	    0,176908	92,6	    0,284385	171,6
     41,4536	    0,178894	93,4	    0,284273	172,0
     41,4555	    0,180204	93,9	     0,28459	171,7
     41,4575	    0,183673	95,3	    0,284329	172,3
     41,4594	    0,186264	95,8	    0,283821	172,4
     41,4614	     0,19018	97,0	    0,284367	172,4
     41,4633	    0,192792	97,8	    0,284547	172,7
     41,4653	    0,197429	99,6	     0,28388	172,2
     41,4673	     0,20045	101,5	    0,283515	172,8
     41,4692	    0,204661	102,7	    0,282518	172,6
     41,4712	    0,211656	105,1	    0,283301	172,8
     41,4731	     0,21676	107,3	    0,282248	172,7
     41,4751	    0,222722	110,5	    0,282251	172,8
      41,477	     0,23069	114,0	    0,281824	173,1
      41,479	    0,238172	118,9	    0,281801	173,1
     41,4809	     0,24657	123,3	    0,280656	173,4
     41,4829	    0,258634	130,3	    0,281754	173,7
     41,4848	    0,265028	136,6	    0,281474	173,5
     41,4868	    0,276483	146,4	     0,28079	173,3
     41,4888	    0,283704	153,5	    0,281208	174,2
     41,4907	    0,289705	162,8	    0,280859	174,0
     41,4927	    0,291162	168,6	    0,280401	174,5
     41,4946	    0,288469	174,1	    0,280143	174,3
     41,4966	    0,286909	176,3	    0,279751	174,1
     41,4985	    0,284516	177,6	    0,280552	174,7
     41,5005	    0,282151	177,2	    0,278258	174,4
     41,5024	    0,280485	176,3	    0,278429	174,7
     41,5044	    0,279916	175,6	    0,279048	174,2
     41,5064	     0,27929	175,2	    0,277585	174,6
     41,5083	    0,280009	175,0	    0,279252	175,3
     41,5103	    0,280212	175,0	    0,277973	175,0
     41,5122	    0,280513	175,3	     0,27705	175,3
     41,5142	    0,279262	175,2	    0,277261	174,7
     41,5161	    0,278591	174,9	    0,278313	175,2
     41,5181	    0,278353	175,5	     0,27689	175,4
       41,52	    0,279468	175,4	    0,277342	175,2
      41,522	     0,28088	176,1	    0,277176	175,5
     41,5239	    0,278271	175,8	    0,276441	175,7
     41,5259	    0,278367	176,4	    0,277211	175,8
     41,5279	    0,276157	176,6	    0,276317	175,6
     41,5298	    0,278717	176,7	    0,276384	176,3
     41,5318	    0,277049	176,7	    0,276043	176,2
     41,5337	    0,277234	176,7	    0,274684	176,0
     41,5357	    0,277847	177,0	    0,276228	176,3
     41,5376	    0,276393	176,5	    0,274961	176,1
     41,5396	     0,27571	176,8	     0,27398	176,3
     41,5415	    0,275467	176,7	    0,274537	176,5
     41,5435	    0,275757	176,2	    0,274141	177,0
     41,5455	    0,276233	175,8	    0,274757	176,6
     41,5474	    0,277225	176,8	    0,274728	176,7
     41,5494	    0,274884	177,3	    0,274081	176,9
     41,5513	    0,274695	177,4	    0,273751	177,2
     41,5533	    0,274954	177,3	    0,271937	176,9
     41,5552	    0,273413	177,4	    0,272029	177,0
     41,5572	    0,273396	177,4	    0,271419	177,0
     41,5591	    0,273264	177,4	    0,271554	177,6
     41,5611	     0,27411	178,1	    0,272262	177,7
      41,563	    0,274372	177,8	     0,27283	178,0
      41,565	    0,273924	178,0	    0,272489	177,9
      41,567	    0,272699	177,8	    0,270146	178,2
     41,5689	    0,272614	178,0	    0,270779	178,0
     41,5709	     0,27258	178,1	    0,271033	178,3
     41,5728	    0,273155	178,2	     0,27212	178,3
     41,5748	    0,272028	178,6	    0,270546	178,1
     41,5767	    0,272372	178,6	    0,271126	178,5
     41,5787	    0,272083	178,5	     0,27126	178,3
     41,5806	     0,27031	178,6	    0,270498	178,4
     41,5826	    0,270571	178,7	     0,26974	178,7
     41,5846	    0,271786	178,9	     0,27086	178,5
     41,5865	    0,271096	179,0	    0,267803	178,6
     41,5885	    0,269867	179,0	    0,268961	178,6
     41,5904	    0,270332	178,9	    0,268992	179,3
     41,5924	    0,271146	179,8	    0,268809	179,0
     41,5943	    0,270316	179,6	    0,267683	179,4
     41,5963	    0,270141	179,3	    0,268431	179,6
     41,5982	    0,269646	180,0	     0,26844	179,1
     41,6002	    0,268036	179,8	    0,268417	179,6
     41,6021	    0,268522	179,9	    0,267799	179,2
     41,6041	    0,269304	180,2	    0,268282	179,9
     41,6061	    0,269026	179,7	    0,267474	179,6
      41,608	    0,268224	180,2	     0,26612	179,7
       41,61	     0,26782	180,4	    0,265676	180,2
     41,6119	    0,268205	180,4	    0,266936	180,0
     41,6139	    0,267893	180,3	    0,265265	180,1
     41,6158	    0,267817	180,3	    0,266149	180,5
     41,6178	    0,267788	180,6	    0,264704	180,2
     41,6197	    0,268526	180,4	    0,265228	180,6
     41,6217	    0,266304	180,8	    0,264579	180,1
     41,6237	    0,267597	180,6	    0,263724	180,1
     41,6256	    0,267109	180,9	    0,264482	180,7
     41,6276	    0,264366	181,0	    0,263938	180,6
     41,6295	    0,265476	181,0	    0,263715	180,9
     41,6315	    0,265139	181,4	    0,264002	180,8
     41,6334	    0,266359	181,1	    0,263699	180,7
     41,6354	    0,263705	180,8	    0,263783	180,9
     41,6373	    0,265024	181,6	     0,26527	181,6
     41,6393	    0,263019	181,0	    0,263244	181,7
     41,6413	    0,263241	182,1	    0,262491	181,4
     41,6432	    0,264894	181,5	    0,262152	181,4
     41,6452	    0,263182	182,0	    0,262546	181,3
     41,6471	    0,263219	181,5	    0,262691	181,2
     41,6491	    0,264488	181,5	     0,26212	181,7
      41,651	    0,264481	182,2	    0,262864	181,9
      41,653	    0,264086	182,3	    0,261913	181,7
     41,6549	    0,262605	182,3	    0,261406	181,8
     41,6569	    0,261808	181,8	    0,262316	182,4
     41,6588	    0,262819	181,9	    0,261001	181,8
     41,6608	    0,261731	182,8	    0,262014	182,4
     41,6628	    0,263122	182,1	    0,260337	182,7
     41,6647	    0,261539	182,6	    0,261539	182,2
     41,6667	    0,260744	182,7	    0,259024	182,0
     41,6686	    0,260868	182,5	    0,259837	182,6
     41,6706	    0,261835	183,2	    0,259406	182,4
     41,6725	    0,259439	182,9	    0,260838	182,8
     41,6745	     0,25951	183,1	    0,261969	183,0
     41,6764	    0,261381	183,3	    0,259725	183,0
     41,6784	     0,26117	183,2	    0,258972	183,1
     41,6804	    0,260048	183,2	    0,258725	183,4
     41,6823	    0,260053	183,0	     0,25981	183,6
     41,6843	    0,259458	183,6	    0,257414	183,2
     41,6862	    0,259654	183,3	    0,257276	183,2
     41,6882	    0,258824	183,5	    0,257389	183,0
     41,6901	    0,258834	183,4	    0,257498	183,4
     41,6921	     0,25884	183,8	    0,256428	183,5
      41,694	    0,258517	184,0	    0,258084	183,3
      41,696	    0,257369	184,4	    0,257103	184,0
     41,6979	    0,257278	184,3	    0,257354	184,0
     41,6999	    0,258353	184,1	    0,257313	184,1
     41,7019	    0,257778	184,1	    0,256999	184,3
     41,7038	    0,257973	184,1	    0,256039	183,7
     41,7058	    0,256851	184,3	    0,257484	184,5
     41,7077	    0,255733	184,2	    0,256134	184,7
     41,7097	    0,255931	184,2	    0,255187	184,4
     41,7116	    0,256587	184,2	    0,254267	184,2
     41,7136	    0,256428	184,7	    0,255067	184,5
     41,7155	    0,253472	184,9	     0,25451	184,8
     41,7175	    0,256031	184,9	    0,255142	184,8
     41,7195	    0,254895	185,4	    0,255073	184,7
     41,7214	    0,254822	185,2	    0,254806	185,1
     41,7234	    0,253876	184,8	    0,253742	185,2
     41,7253	    0,253026	184,8	    0,252549	184,8
     41,7273	    0,255977	185,5	    0,252592	185,3
     41,7292	    0,252359	185,2	    0,252699	184,9
     41,7312	     0,25272	185,5	    0,252723	185,3
     41,7331	    0,252935	185,1	    0,252657	185,2
     41,7351	      0,2532	185,4	    0,252508	185,3
      41,737	     0,25324	185,8	    0,252254	185,5
      41,739	    0,251534	185,9	    0,252172	185,8
      41,741	    0,252233	186,0	    0,250963	185,5
     41,7429	    0,251312	185,1	    0,251659	185,5
     41,7449	    0,252176	185,7	    0,251484	186,0
     41,7468	    0,252487	186,2	    0,251737	186,2
     41,7488	    0,251928	186,1	    0,251728	186,1
     41,7507	    0,251235	185,9	    0,250972	186,3
     41,7527	    0,250383	186,5	    0,250923	185,9
     41,7546	    0,252153	186,5	     0,25058	186,1
     41,7566	     0,24993	185,8	    0,249403	186,4
     41,7586	    0,250481	186,6	    0,250129	186,7
     41,7605	    0,250238	186,9	    0,249137	186,7
     41,7625	    0,250718	186,7	    0,248497	186,4
     41,7644	    0,249894	186,9	    0,248469	186,4
     41,7664	    0,249693	186,7	    0,248636	186,9
     41,7683	    0,250363	186,7	    0,248671	186,9
     41,7703	    0,249224	186,8	    0,248099	186,6
     41,7722	    0,248435	187,6	    0,248115	187,3
     41,7742	    0,248818	187,4	    0,249432	186,9
     41,7761	    0,247645	187,8	    0,248091	187,6
     41,7781	     0,24776	187,4	    0,247355	187,2
     41,7801	    0,247716	187,7	    0,246456	186,9
      41,782	    0,245489	187,8	    0,246549	187,7
      41,784	    0,246305	187,3	    0,245997	187,4
     41,7859	    0,246637	187,6	    0,248606	187,9
     41,7879	    0,245693	187,8	    0,246942	187,4
     41,7898	    0,246358	188,0	    0,246764	187,7
     41,7918	    0,246729	188,2	     0,24701	187,8
     41,7937	    0,244825	187,4	    0,245449	188,0
     41,7957	    0,245971	187,8	    0,244888	187,9
     41,7977	    0,244096	188,1	    0,244989	188,0
     41,7996	    0,245293	188,5	    0,244631	187,9
     41,8016	    0,243267	188,4	    0,243715	188,1
     41,8035	    0,245419	188,3	    0,245479	188,5
     41,8055	    0,245466	188,8	    0,243053	188,0
     41,8074	    0,244182	188,2	    0,243898	188,1
     41,8094	    0,242943	188,5	    0,243101	188,1
     41,8113	    0,244221	188,9	    0,243896	188,3
     41,8133	    0,243951	188,6	    0,245405	188,9
     41,8153	    0,243389	188,8	     0,24403	188,9
     41,8172	    0,243948	188,8	    0,244723	189,2
     41,8192	    0,243096	189,1	    0,242652	189,0
     41,8211	    0,240715	189,1	    0,241912	189,0
     41,8231	    0,241779	189,1	    0,242405	189,4
      41,825	    0,241618	189,1	    0,243146	189,2
      41,827	    0,243616	189,6	    0,242452	188,9
     41,8289	    0,242312	189,5	    0,242885	189,5
     41,8309	    0,241104	189,5	    0,241353	189,3
     41,8328	    0,240843	189,3	    0,241409	189,4
     41,8348	    0,240841	189,4	     0,24281	189,7
     41,8368	    0,239528	189,4	    0,241706	189,7
     41,8387	     0,24009	189,6	     0,24134	189,7
     41,8407	    0,238916	189,3	    0,238899	189,4
     41,8426	    0,240766	190,1	    0,240075	189,6
     41,8446	    0,240617	190,4	    0,237978	189,9
     41,8465	    0,240456	190,0	    0,239383	189,9
     41,8485	    0,239649	189,9	    0,238141	190,0
     41,8504	    0,240949	190,0	    0,238092	190,0
     41,8524	    0,238375	190,2	    0,238797	189,9
     41,8544	    0,239345	190,7	    0,238448	190,2
     41,8563	    0,239211	190,3	    0,238479	190,5
     41,8583	    0,238786	190,6	    0,237194	190,0
     41,8602	    0,238153	191,0	    0,238264	190,7
     41,8622	    0,237565	190,3	    0,236144	190,1
     41,8641	     0,23824	191,4	    0,237797	190,5
     41,8661	    0,237333	190,6	    0,237067	190,9
      41,868	     0,23759	190,6	    0,236848	190,6
       41,87	    0,236503	190,8	    0,237466	190,9
     41,8719	    0,237303	191,0	    0,237839	191,1
     41,8739	    0,236889	190,8	    0,235745	190,4
     41,8759	     0,23763	191,6	    0,235495	191,0
     41,8778	     0,23764	191,1	    0,234379	191,2
     41,8798	    0,236267	191,1	    0,234149	190,8
     41,8817	    0,234053	191,3	     0,23674	191,4
     41,8837	    0,236855	191,4	    0,236118	191,4
     41,8856	     0,23593	191,9	    0,235743	191,7
     41,8876	    0,234074	191,8	    0,235742	191,4
     41,8895	     0,23417	191,9	    0,235084	191,7
     41,8915	    0,234546	192,3	    0,233149	191,2
     41,8935	    0,233471	191,8	    0,233968	191,8
     41,8954	    0,233375	191,6	    0,234031	191,5
     41,8974	    0,233757	192,0	    0,234607	191,9
     41,8993	    0,232669	191,6	    0,234035	192,0
     41,9013	    0,233071	191,3	     0,23318	192,5
     41,9032	    0,232943	192,4	    0,233482	192,3
     41,9052	    0,233051	192,0	    0,232886	192,1
     41,9071	    0,232553	192,5	    0,232238	192,3
     41,9091	    0,232416	192,8	     0,23303	192,7
      41,911	    0,230373	191,6	    0,232134	192,4
      41,913	    0,230505	192,4	     0,23213	192,9
      41,915	    0,231175	192,4	    0,232546	192,7
     41,9169	    0,231482	192,5	    0,232358	192,6
     41,9189	    0,231433	192,9	    0,229892	192,5
     41,9208	    0,232125	193,5	    0,230283	192,8
     41,9228	    0,231159	192,9	    0,229917	192,7
     41,9247	    0,229231	193,1	    0,229518	192,8
     41,9267	    0,229187	192,3	    0,229511	192,7
     41,9286	    0,228953	192,5	    0,230439	192,7
     41,9306	    0,229437	193,1	    0,230709	193,0
     41,9326	    0,229473	193,2	    0,230387	193,1
     41,9345	    0,229662	193,2	    0,229481	193,3
     41,9365	    0,228981	193,9	    0,229336	193,4
     41,9384	    0,227972	193,6	    0,228058	193,5
     41,9404	     0,22853	194,4	    0,227954	193,3
     41,9423	    0,227341	193,5	    0,228525	193,7
     41,9443	    0,227916	193,6	    0,228529	193,6
     41,9462	    0,227566	193,1	    0,228808	193,9
     41,9482	    0,227629	194,0	    0,228548	194,0
     41,9501	    0,227227	193,5	    0,226932	193,9
     41,9521	    0,227589	194,6	    0,226963	194,1
     41,9541	    0,227795	194,3	    0,226337	193,5
      41,956	    0,227727	193,8	    0,226675	194,0
      41,958	    0,227491	194,3	    0,226219	194,0
     41,9599	    0,227013	194,2	    0,226606	194,2
     41,9619	    0,225278	194,8	    0,226949	194,5
     41,9638	    0,226138	194,7	    0,227456	194,6
     41,9658	    0,224283	194,7	     0,22649	194,3
     41,9677	    0,223909	194,7	    0,226484	194,5
     41,9697	    0,225015	195,1	    0,224626	194,5
     41,9717	    0,224458	194,5	    0,224824	194,2
     41,9736	    0,225397	195,0	    0,225025	194,7
     41,9756	    0,224162	194,8	    0,225393	194,7
     41,9775	    0,223592	194,6	    0,225805	195,1
     41,9795	    0,221406	195,3	    0,223547	195,0
     41,9814	     0,22163	195,5	     0,22398	194,9
     41,9834	     0,22256	195,4	    0,224018	194,9
     41,9853	    0,222832	194,9	    0,224186	195,4
     41,9873	    0,223747	195,1	    0,224807	195,3
     41,9892	    0,222876	195,6	    0,223299	195,2
     41,9912	    0,221005	195,1	    0,222303	195,1
     41,9932	    0,222257	195,5	    0,223868	195,6
     41,9951	    0,222756	195,5	    0,222744	195,5
     41,9971	    0,221608	195,4	    0,223506	195,7
      41,999	    0,219426	196,1	    0,221884	195,8
      42,001	    0,220807	195,7	    0,220368	195,9
     42,0029	    0,220168	196,0	    0,222166	195,7
     42,0049	    0,219297	195,7	    0,221632	196,0
     42,0068	    0,219048	195,8	    0,220639	196,0
     42,0088	    0,221309	196,3	    0,220252	196,6
     42,0108	    0,220765	195,7	    0,221744	196,1
     42,0127	    0,218968	195,4	     0,22175	196,3
     42,0147	    0,219827	196,2	    0,218898	196,3
     42,0166	    0,218707	195,5	    0,219764	196,2
     42,0186	      0,2178	196,9	    0,219637	196,5
     42,0205	    0,219573	196,2	    0,218101	196,6
     42,0225	    0,219373	196,6	    0,219531	196,2
     42,0244	    0,218942	196,6	    0,219175	196,3
     42,0264	    0,217298	197,3	    0,218186	196,2
     42,0283	    0,217671	197,3	    0,219726	196,9
     42,0303	    0,216329	196,4	    0,219516	197,1
     42,0323	    0,216532	197,3	    0,217883	196,6
     42,0342	    0,216102	196,7	    0,217915	196,5
     42,0362	    0,216885	196,7	    0,217326	197,2
     42,0381	    0,216177	197,1	    0,216312	196,8
     42,0401	    0,216984	197,0	    0,216869	197,2
      42,042	    0,215443	197,4	    0,218084	197,3
      42,044	    0,216252	197,5	    0,215039	197,2
     42,0459	    0,216615	197,4	    0,216699	197,3
     42,0479	    0,216473	197,6	    0,216124	197,7
     42,0499	    0,214757	197,2	    0,216427	197,0
     42,0518	    0,214697	197,1	    0,216253	197,4
     42,0538	    0,213975	197,4	    0,216489	197,6
     42,0557	    0,214095	196,9	    0,215144	197,5
     42,0577	     0,21531	197,8	    0,215451	197,4
     42,0596	    0,213106	198,0	    0,215107	197,6
     42,0616	    0,212381	198,3	    0,214241	197,7
     42,0635	    0,214196	198,3	    0,214292	197,6
     42,0655	    0,212445	197,8	    0,214433	198,0
     42,0674	    0,212883	197,7	    0,214906	197,9
     42,0694	    0,212164	197,9	    0,214811	198,3
     42,0714	    0,211885	197,4	    0,213058	198,1
     42,0733	    0,213043	198,4	    0,213986	198,1
     42,0753	    0,212926	198,2	    0,214042	198,2
     42,0772	    0,211905	198,9	    0,212807	198,4
     42,0792	    0,212721	198,6	    0,212879	198,2
     42,0811	    0,210894	199,0	    0,210896	198,4
     42,0831	    0,210679	198,9	    0,213152	198,7
      42,085	    0,211246	198,7	    0,211707	198,1
      42,087	    0,210043	198,6	    0,211719	198,5
      42,089	    0,210962	198,7	     0,21253	199,0
     42,0909	    0,210042	198,5	    0,212287	198,8
     42,0929	    0,209045	198,7	    0,211027	198,7
     42,0948	    0,208258	198,9	    0,211592	199,0
     42,0968	    0,208381	199,1	    0,210632	199,1
     42,0987	    0,209733	198,9	    0,211139	199,0
     42,1007	     0,20864	199,0	    0,210717	199,3
     42,1026	    0,209334	199,4	    0,210851	199,3
     42,1046	    0,208631	199,2	    0,209325	198,8
     42,1065	    0,208442	199,1	    0,209117	199,5
     42,1085	    0,208265	199,5	    0,209599	199,3
     42,1105	    0,206925	199,3	      0,2093	199,5
     42,1124	    0,206959	199,1	    0,208358	199,7
     42,1144	    0,206542	199,6	    0,209375	199,5
     42,1163	    0,207014	199,6	    0,209011	199,6
     42,1183	    0,206475	199,4	    0,207703	200,0
     42,1202	    0,206054	199,3	    0,207463	199,8
     42,1222	    0,207479	-159,9	    0,207084	199,9
     42,1241	    0,206062	-160,6	    0,208132	199,8
     42,1261	    0,206613	-159,6	    0,207607	-159,8
     42,1281	    0,206393	-159,9	     0,20781	-160,2
       42,13	    0,206654	-160,2	    0,207602	-159,6
      42,132	    0,205893	-160,1	    0,207153	-159,6
     42,1339	    0,205227	-159,0	    0,205925	-159,9
     42,1359	    0,204838	-160,4	    0,206929	-159,6
     42,1378	    0,204054	-159,9	    0,206101	-159,8
     42,1398	    0,205378	-159,6	    0,206259	-159,6
     42,1417	    0,203584	-160,1	    0,204561	-159,2
     42,1437	    0,201441	-159,8	    0,204178	-159,2
     42,1456	    0,203826	-159,4	    0,204469	-159,4
     42,1476	    0,202229	-159,3	    0,204167	-159,5
     42,1496	    0,203405	-159,1	    0,205256	-159,1
     42,1515	    0,201897	-159,0	    0,205053	-159,1
     42,1535	    0,202256	-159,0	     0,20445	-159,0
     42,1554	    0,201501	-159,8	    0,204674	-158,8
     42,1574	    0,202822	-158,7	     0,20317	-159,1
     42,1593	    0,202508	-158,5	    0,204011	-159,1
     42,1613	    0,201451	-158,9	    0,202545	-158,8
     42,1632	    0,202223	-159,1	    0,202507	-158,8
     42,1652	    0,201965	-158,7	    0,202266	-158,9
     42,1672	    0,201437	-158,7	    0,201875	-158,9
     42,1691	     0,19947	-158,9	    0,202531	-158,3
     42,1711	     0,19957	-159,1	     0,20274	-158,9
      42,173	    0,199933	-158,5	    0,202515	-158,3
      42,175	     0,20019	-158,6	    0,202127	-158,3
     42,1769	    0,199695	-159,1	    0,201746	-158,4
     42,1789	     0,19906	-158,0	    0,201794	-158,2
     42,1808	    0,198846	-158,3	    0,201605	-157,9
     42,1828	    0,199632	-158,2	    0,201182	-158,1
     42,1847	    0,198395	-158,2	    0,200695	-158,2
     42,1867	    0,199761	-158,7	    0,200576	-157,9
     42,1887	    0,197504	-158,5	    0,199263	-158,2
     42,1906	    0,198956	-158,2	    0,199768	-157,9
     42,1926	    0,197197	-157,9	    0,199972	-157,7
     42,1945	    0,197515	-158,0	    0,198675	-157,7
     42,1965	    0,197389	-157,6	     0,19905	-157,6
     42,1984	    0,196406	-157,9	    0,198861	-157,8
     42,2004	    0,197441	-157,9	     0,19935	-157,5
     42,2023	    0,197035	-157,9	    0,198121	-157,6
     42,2043	    0,197342	-157,6	    0,198796	-157,7
     42,2063	    0,195551	-157,3	    0,197549	-157,3
     42,2082	    0,196095	-157,2	    0,197079	-156,9
     42,2102	    0,196486	-157,4	    0,197912	-157,5
     42,2121	    0,195942	-158,2	    0,197803	-157,1
     42,2141	    0,194609	-157,4	    0,197088	-157,4
      42,216	    0,194947	-157,4	    0,197156	-157,4
      42,218	    0,193698	-157,8	    0,196007	-156,7
     42,2199	    0,194296	-157,8	    0,195417	-156,7
     42,2219	    0,193051	-157,5	    0,195633	-157,0
     42,2239	    0,194588	-156,7	    0,195858	-156,8
     42,2258	    0,192616	-156,6	    0,196306	-156,8
     42,2278	    0,194014	-156,3	    0,195565	-156,6
     42,2297	    0,192688	-157,1	    0,195626	-156,5
     42,2317	    0,194124	-156,6	    0,195174	-156,3
     42,2336	    0,192835	-156,9	    0,194636	-156,7
     42,2356	    0,193258	-156,3	    0,194979	-156,6
     42,2375	    0,191972	-156,6	    0,194532	-156,3
     42,2395	    0,192504	-156,5	    0,193375	-156,7
     42,2414	    0,191508	-156,4	    0,194393	-156,4
     42,2434	    0,191461	-156,7	    0,192751	-156,3
     42,2454	    0,189179	-156,3	     0,19404	-156,1
     42,2473	    0,192027	-155,9	    0,192339	-156,1
     42,2493	    0,190494	-156,3	    0,192898	-156,4
     42,2512	    0,190327	-156,4	    0,191603	-155,8
     42,2532	    0,190478	-156,4	    0,192739	-155,8
     42,2551	    0,191014	-156,0	    0,190944	-155,9
     42,2571	    0,189911	-156,0	    0,192738	-155,7
      42,259	    0,190288	-155,8	    0,192406	-155,7
      42,261	    0,190734	-156,1	    0,191818	-155,8
      42,263	    0,189931	-155,6	    0,189917	-155,3
     42,2649	    0,189506	-156,0	    0,190899	-155,4
     42,2669	     0,18842	-155,8	    0,190073	-156,0
     42,2688	    0,188902	-155,0	     0,19082	-155,6
     42,2708	    0,188379	-156,4	     0,19009	-155,5
     42,2727	    0,188957	-155,5	      0,1904	-155,7
     42,2747	    0,188438	-155,5	    0,190061	-155,4
     42,2766	    0,189141	-155,6	    0,190459	-155,1
     42,2786	    0,188679	-155,2	    0,188744	-155,5
     42,2805	    0,188627	-155,4	    0,189743	-155,6
     42,2825	    0,187485	-155,3	    0,189172	-155,8
     42,2845	    0,186812	-155,5	    0,188797	-155,0
     42,2864	    0,187876	-154,9	    0,188687	-154,8
     42,2884	    0,186545	-155,8	    0,188361	-154,9
     42,2903	    0,187296	-155,3	    0,188802	-154,7
     42,2923	    0,186784	-154,7	     0,18806	-155,0
     42,2942	    0,185565	-155,1	     0,18811	-154,8
     42,2962	    0,186729	-154,8	    0,187551	-154,7
     42,2981	    0,186489	-154,7	    0,187612	-154,8
     42,3001	    0,184567	-154,5	    0,186761	-154,7
     42,3021	    0,184583	-155,2	    0,187482	-154,7
      42,304	    0,183331	-155,1	     0,18723	-154,6
      42,306	    0,184788	-154,3	    0,186999	-154,7
     42,3079	    0,185203	-154,5	    0,186666	-154,4
     42,3099	    0,184615	-154,6	     0,18592	-154,0
     42,3118	    0,183628	-154,6	     0,18478	-154,4
     42,3138	    0,184769	-154,2	    0,185614	-154,1
     42,3157	    0,184493	-154,2	    0,185289	-154,0
     42,3177	    0,183955	-154,2	    0,185406	-154,0
     42,3196	    0,182881	-154,1	    0,185001	-154,1
     42,3216	    0,182107	-154,8	    0,185112	-153,9
     42,3236	     0,18238	-154,5	    0,184875	-153,8
     42,3255	    0,181979	-154,5	    0,183722	-153,9
     42,3275	    0,182811	-154,3	    0,183747	-153,9
     42,3294	    0,182794	-153,8	    0,182667	-153,4
     42,3314	     0,18239	-154,0	    0,183848	-153,4
     42,3333	    0,180792	-154,1	    0,181839	-153,6
     42,3353	    0,180422	-154,3	     0,18351	-153,6
     42,3372	    0,180972	-154,0	    0,182793	-153,3
     42,3392	     0,18067	-153,4	    0,181712	-153,4
     42,3412	    0,180165	-153,9	    0,181806	-153,7
     42,3431	    0,180022	-154,1	    0,182231	-153,2
     42,3451	    0,180861	-153,9	    0,180946	-153,3
      42,347	    0,179906	-154,0	    0,181128	-153,3
      42,349	     0,18024	-153,3	    0,180113	-152,7
     42,3509	    0,179451	-153,2	    0,181534	-153,0
     42,3529	    0,179308	-153,9	    0,180796	-153,0
     42,3548	    0,179113	-153,1	    0,180903	-152,9
     42,3568	     0,17887	-152,7	    0,179824	-152,9
     42,3587	    0,179306	-153,0	    0,179331	-153,2
     42,3607	    0,179067	-152,9	     0,18054	-152,7
     42,3627	      0,1783	-152,7	    0,180244	-152,7
     42,3646	     0,17721	-152,5	    0,179377	-153,1
     42,3666	    0,178054	-152,7	    0,179271	-152,5
     42,3685	    0,176489	-152,6	    0,179399	-152,6
     42,3705	    0,177676	-152,5	    0,179332	-152,5
     42,3724	    0,177756	-152,9	    0,179062	-152,5
     42,3744	    0,176529	-152,8	    0,178773	-153,2
     42,3763	    0,177222	-152,8	    0,177354	-152,3
     42,3783	    0,176725	-152,7	     0,17803	-152,4
     42,3803	    0,175829	-152,9	    0,177421	-152,5
     42,3822	    0,175478	-152,7	    0,178087	-152,4
     42,3842	    0,176088	-152,7	    0,176793	-152,0
     42,3861	    0,174713	-152,3	    0,177339	-152,1
     42,3881	    0,175862	-152,1	    0,177483	-152,3
       42,39	    0,175302	-152,0	    0,176524	-152,3
      42,392	    0,174388	-152,2	    0,176921	-152,0
     42,3939	    0,173889	-152,1	    0,176038	-151,5
     42,3959	    0,173714	-152,4	     0,17605	-151,7
     42,3979	    0,173792	-151,9	    0,175017	-151,6
     42,3998	    0,174594	-151,8	    0,176017	-151,9
     42,4018	    0,173935	-151,8	    0,175901	-151,5
     42,4037	    0,172854	-151,6	    0,175329	-151,6
     42,4057	    0,173685	-151,8	    0,175407	-151,5
     42,4076	    0,173024	-151,9	    0,174241	-151,6
     42,4096	    0,172532	-151,5	    0,174655	-151,4
     42,4115	    0,171828	-151,7	    0,174361	-152,0
     42,4135	    0,171732	-151,2	    0,173623	-150,8
     42,4154	    0,171234	-151,5	    0,173458	-151,3
     42,4174	    0,170343	-151,1	    0,173642	-151,5
     42,4194	    0,171891	-150,8	    0,172655	-151,3
     42,4213	    0,171114	-151,3	    0,173378	-151,1
     42,4233	    0,171132	-151,0	     0,17307	-151,2
     42,4252	    0,170466	-150,9	    0,172826	-150,7
     42,4272	    0,170509	-150,7	    0,172246	-150,9
     42,4291	      0,1708	-151,4	    0,171716	-150,8
     42,4311	     0,17048	-151,3	    0,172372	-150,9
      42,433	    0,170702	-151,1	    0,172085	-151,0
      42,435	    0,170441	-151,0	    0,172024	-150,5
      42,437	    0,170126	-151,0	    0,171543	-151,2
     42,4389	     0,17024	-151,0	    0,171066	-150,9
     42,4409	     0,16993	-150,6	    0,170467	-150,3
     42,4428	    0,169669	-150,7	    0,171257	-150,5
     42,4448	    0,169132	-150,9	    0,171059	-150,5
     42,4467	      0,1683	-150,5	    0,170764	-150,6
     42,4487	    0,168701	-150,3	    0,169804	-150,6
     42,4506	    0,166818	-150,3	    0,169315	-150,8
     42,4526	    0,165896	-149,9	    0,169029	-149,9
     42,4545	    0,166621	-151,2	    0,168892	-149,8
     42,4565	     0,16822	-150,3	    0,169656	-150,1
     42,4585	    0,167467	-149,9	    0,168854	-149,9
     42,4604	    0,167704	-150,3	    0,168831	-150,4
     42,4624	    0,166802	-149,7	    0,168826	-150,1
     42,4643	    0,166359	-150,1	    0,168689	-150,0
     42,4663	    0,166027	-150,3	    0,168577	-149,8
     42,4682	    0,166658	-150,0	    0,168322	-150,0
     42,4702	    0,166609	-149,9	    0,167858	-149,9
     42,4721	    0,166463	-150,0	    0,167685	-149,8
     42,4741	    0,166359	-150,0	    0,167817	-149,9
     42,4761	    0,165677	-149,6	    0,167087	-150,0
      42,478	    0,165746	-149,5	    0,166926	-149,5
       42,48	    0,165159	-149,9	    0,166265	-149,8
     42,4819	    0,165075	-149,5	    0,166351	-149,9
     42,4839	    0,165234	-149,7	    0,166755	-149,8
     42,4858	    0,165046	-149,4	    0,166504	-149,5
     42,4878	    0,163966	-149,8	    0,165857	-149,3
     42,4897	    0,164217	-149,5	    0,164446	-149,2
     42,4917	    0,163288	-149,4	    0,165214	-149,4
     42,4936	    0,163171	-149,4	    0,165039	-149,1
     42,4956	    0,163455	-149,3	    0,164485	-149,2
     42,4976	    0,162298	-149,6	    0,165203	-149,2
     42,4995	    0,163131	-149,0	    0,164097	-149,3
     42,5015	    0,162524	-149,6	    0,164463	-148,8
     42,5034	    0,161542	-149,3	    0,163996	-148,5
     42,5054	    0,161671	-148,5	    0,163879	-148,9
     42,5073	    0,162053	-148,8	    0,163629	-148,9
     42,5093	    0,161906	-149,3	    0,163133	-148,9
     42,5112	    0,161906	-149,3	    0,162807	-148,5
     42,5132	    0,161515	-148,9	    0,163232	-148,7
     42,5152	    0,161161	-149,2	    0,162837	-149,0
     42,5171	    0,161338	-148,9	    0,162913	-148,3
     42,5191	    0,160724	-149,0	    0,162672	-148,6
      42,521	    0,160916	-148,4	    0,162353	-148,7
      42,523	    0,160576	-148,0	    0,161619	-147,7
     42,5249	    0,160399	-148,3	    0,162196	-148,3
     42,5269	    0,160038	-148,6	     0,16189	-148,3
     42,5288	    0,159785	-147,5	    0,161526	-148,3
     42,5308	    0,159892	-148,3	    0,161097	-148,0
     42,5327	    0,158692	-148,5	    0,160844	-147,9
     42,5347	    0,159091	-148,3	    0,160968	-148,2
     42,5367	    0,157803	-147,9	    0,160347	-148,4
     42,5386	    0,158478	-147,9	    0,159915	-147,9
     42,5406	    0,158405	-148,2	    0,160369	-147,9
     42,5425	    0,158657	-148,0	    0,160056	-148,3
     42,5445	    0,158308	-148,1	    0,159674	-147,5
     42,5464	    0,158148	-147,8	    0,159281	-147,6
     42,5484	    0,157873	-148,2	    0,159229	-147,7
     42,5503	    0,157685	-148,2	    0,159202	-148,2
     42,5523	    0,157244	-147,7	     0,15903	-147,9
     42,5543	    0,157333	-147,6	    0,158533	-147,7
     42,5562	    0,156728	-147,6	    0,158674	-147,6
     42,5582	    0,155778	-147,8	    0,158365	-147,8
     42,5601	    0,156108	-147,5	    0,157859	-148,0
     42,5621	    0,155349	-147,4	    0,157728	-147,4
      42,564	    0,155261	-147,3	      0,1576	-147,3
      42,566	    0,154953	-148,0	    0,156648	-147,7
     42,5679	    0,155793	-147,4	    0,156213	-147,4
     42,5699	    0,155517	-147,2	    0,156152	-147,1
     42,5718	    0,154857	-147,3	    0,155918	-147,3
     42,5738	    0,155042	-146,8	    0,156141	-147,3
     42,5758	    0,155069	-147,1	     0,15598	-147,3
     42,5777	    0,153673	-147,3	    0,156104	-146,9
     42,5797	    0,153635	-147,4	      0,1553	-146,9
     42,5816	    0,153767	-147,3	     0,15498	-146,9
     42,5836	    0,154229	-147,2	    0,155185	-147,0
     42,5855	    0,153032	-146,8	    0,154374	-147,0
     42,5875	    0,152069	-147,3	    0,153657	-146,8
     42,5894	    0,152563	-147,2	    0,154501	-147,0
     42,5914	    0,153179	-146,6	    0,153562	-146,7
     42,5934	    0,153073	-146,9	    0,154233	-147,0
     42,5953	     0,15285	-147,0	    0,154066	-146,7
     42,5973	    0,152322	-147,1	    0,153989	-146,8
     42,5992	    0,152345	-146,9	    0,153107	-146,6
     42,6012	    0,152036	-146,7	    0,153591	-146,9
     42,6031	    0,151523	-146,6	     0,15353	-146,4
     42,6051	    0,151659	-146,3	    0,153069	-146,4
      42,607	    0,151022	-146,7	    0,152426	-146,5
      42,609	     0,15128	-145,9	    0,152076	-146,0
     42,6109	    0,150917	-146,7	    0,151666	-145,9
     42,6129	    0,150985	-146,6	    0,151656	-146,1
     42,6149	      0,1502	-146,2	    0,151447	-146,5
     42,6168	    0,149475	-146,2	    0,151275	-146,0
     42,6188	    0,149653	-146,5	    0,150591	-146,2
     42,6207	    0,148936	-146,9	    0,151003	-146,0
     42,6227	    0,149648	-146,4	    0,151355	-146,2
     42,6246	     0,14898	-146,5	    0,150074	-146,0
     42,6266	    0,148289	-145,8	    0,150484	-145,3
     42,6285	    0,148881	-146,1	    0,149918	-146,0
     42,6305	    0,148319	-146,4	    0,150162	-146,1
     42,6325	    0,148005	-146,4	    0,150281	-145,9
     42,6344	    0,148298	-145,8	    0,149689	-145,5
     42,6364	     0,14807	-146,3	    0,149544	-145,2
     42,6383	    0,147511	-145,8	    0,148963	-145,8
     42,6403	     0,14801	-145,7	    0,148536	-145,7
     42,6422	    0,146742	-145,8	    0,149273	-145,3
     42,6442	    0,146904	-146,2	    0,148949	-145,2
     42,6461	    0,146883	-145,5	    0,148795	-145,6
     42,6481	    0,147145	-145,9	    0,148017	-145,3
       42,65	    0,146493	-145,3	    0,147891	-145,6
      42,652	    0,146833	-145,8	    0,148011	-145,2
      42,654	    0,146413	-145,6	     0,14778	-145,2
     42,6559	    0,145674	-145,4	    0,146916	-145,5
     42,6579	    0,146172	-145,3	    0,147408	-145,4
     42,6598	    0,145454	-145,1	    0,147417	-144,8
     42,6618	    0,145636	-145,1	    0,145956	-144,9
     42,6637	    0,145454	-145,5	    0,145777	-145,0
     42,6657	    0,145052	-144,6	    0,146101	-145,1
     42,6676	    0,145167	-144,7	    0,146159	-144,6
     42,6696	    0,144826	-145,2	    0,145907	-145,1
     42,6716	    0,144655	-145,3	    0,145824	-144,6
     42,6735	    0,143415	-144,8	    0,145465	-145,0
     42,6755	    0,143807	-144,9	    0,144846	-144,4
     42,6774	    0,143955	-145,2	    0,144818	-144,0
     42,6794	    0,143991	-145,3	    0,145419	-144,8
     42,6813	    0,143282	-144,6	    0,144694	-145,2
     42,6833	    0,143263	-144,5	    0,144465	-144,7
     42,6852	    0,142971	-144,7	    0,143549	-144,3
     42,6872	    0,142948	-145,0	     0,14422	-144,4
     42,6891	    0,142611	-144,4	    0,143818	-144,3
     42,6911	    0,142349	-144,5	    0,143248	-144,0
     42,6931	    0,142439	-144,4	    0,143651	-144,7
      42,695	    0,142007	-144,7	     0,14272	-144,0
      42,697	    0,141662	-144,5	    0,143606	-144,4
     42,6989	     0,14116	-144,2	    0,143304	-144,6
     42,7009	    0,141423	-143,8	     0,14244	-143,9
     42,7028	    0,141043	-144,8	    0,141846	-144,3
     42,7048	    0,141022	-144,0	    0,142484	-144,2
     42,7067	    0,140745	-144,4	    0,142359	-144,1
     42,7087	    0,140606	-144,4	    0,142438	-144,2
     42,7107	    0,140123	-144,1	      0,1416	-144,2
     42,7126	     0,14006	-144,0	    0,141567	-143,8
     42,7146	    0,139829	-144,0	    0,140701	-144,1
     42,7165	    0,140395	-144,3	    0,140751	-143,6
     42,7185	     0,13987	-143,6	     0,14082	-143,6
     42,7204	     0,13915	-143,8	    0,141047	-143,7
     42,7224	    0,139314	-143,6	    0,140637	-143,4
     42,7243	    0,139044	-144,0	    0,140136	-143,3
     42,7263	    0,138483	-143,9	    0,139831	-144,2
     42,7282	    0,138393	-143,9	    0,139841	-143,5
     42,7302	    0,138678	-143,6	    0,139587	-143,6
     42,7322	    0,138553	-144,0	    0,139073	-144,2
     42,7341	    0,137985	-143,6	    0,139007	-143,1
     42,7361	    0,138254	-143,5	    0,138825	-143,6
      42,738	    0,137502	-143,8	    0,138297	-143,3
       42,74	    0,137628	-143,2	    0,138837	-143,5
     42,7419	    0,137202	-143,1	    0,138256	-143,2
     42,7439	    0,137345	-142,7	    0,138272	-143,6
     42,7458	    0,136541	-143,6	    0,137761	-143,3
     42,7478	    0,136923	-143,3	    0,138063	-143,3
     42,7498	    0,136793	-143,0	     0,13784	-143,6
     42,7517	    0,136585	-142,9	    0,137035	-143,2
     42,7537	    0,135725	-143,1	    0,137618	-143,4
     42,7556	    0,135971	-142,7	    0,137279	-142,9
     42,7576	    0,135047	-143,2	    0,136068	-142,4
     42,7595	    0,136015	-143,0	    0,136729	-143,3
     42,7615	    0,135203	-142,4	    0,136526	-143,2
     42,7634	    0,135355	-142,8	    0,135946	-142,4
     42,7654	    0,134932	-142,6	    0,135992	-142,5
     42,7673	    0,134843	-142,7	    0,136042	-142,7
     42,7693	    0,134887	-142,5	    0,135504	-142,5
     42,7713	    0,134776	-142,3	    0,135392	-142,7
     42,7732	    0,134361	-142,4	    0,135305	-142,6
     42,7752	    0,134153	-142,1	    0,135219	-142,8
     42,7771	    0,134084	-142,8	    0,134766	-142,1
     42,7791	     0,13417	-142,5	    0,135165	-143,0
      42,781	    0,133457	-142,3	    0,133985	-142,6
      42,783	    0,133225	-142,2	    0,134563	-142,4
     42,7849	    0,133071	-142,0	    0,134354	-142,5
     42,7869	    0,132985	-142,0	    0,133663	-142,6
     42,7889	    0,132448	-142,2	    0,133717	-142,3
     42,7908	    0,132775	-142,1	    0,133916	-142,3
     42,7928	    0,132337	-142,3	    0,132966	-142,3
     42,7947	    0,132213	-142,2	    0,131896	-142,5
     42,7967	     0,13233	-142,2	     0,13081	-142,0
     42,7986	    0,131617	-142,1	    0,132757	-142,1
     42,8006	    0,131583	-141,9	     0,13237	-141,8
     42,8025	    0,131406	-142,4	    0,132068	-142,2
     42,8045	    0,131223	-142,6	    0,132066	-142,2
     42,8064	      0,1314	-141,8	    0,131534	-141,7
     42,8084	    0,130689	-141,9	    0,131397	-141,8
     42,8104	    0,130827	-142,2	    0,131051	-142,0
     42,8123	      0,1303	-142,0	    0,130182	-141,4
     42,8143	    0,130584	-141,7	    0,130502	-141,9
     42,8162	    0,129899	-142,0	    0,130537	-141,7
     42,8182	    0,130254	-141,6	    0,130758	-141,8
     42,8201	    0,129394	-142,1	    0,130063	-141,3
     42,8221	    0,129295	-142,1	    0,130515	-142,0
      42,824	    0,129201	-141,7	     0,12985	-142,1
      42,826	    0,128938	-142,1	     0,13035	-141,9
      42,828	    0,129541	-141,7	    0,129971	-141,3
     42,8299	    0,128846	-141,2	     0,12839	-142,0
     42,8319	    0,128452	-141,9	    0,129233	-141,3
     42,8338	    0,128627	-141,6	    0,128928	-141,7
     42,8358	    0,128318	-141,1	    0,129178	-141,4
     42,8377	    0,128338	-141,4	    0,128163	-141,6
     42,8397	     0,12768	-142,0	    0,127992	-141,2
     42,8416	    0,128019	-141,2	    0,127687	-141,7
     42,8436	    0,127287	-141,4	    0,127363	-141,7
     42,8456	    0,127487	-141,0	    0,127531	-141,5
     42,8475	    0,126916	-141,2	    0,128313	-141,1
     42,8495	    0,126854	-141,6	    0,127156	-140,5
     42,8514	    0,126922	-140,7	    0,127251	-140,9
     42,8534	     0,12682	-140,9	    0,127024	-141,4
     42,8553	    0,126706	-140,8	    0,127448	-141,1
     42,8573	    0,126737	-141,4	    0,126734	-141,1
     42,8592	    0,126354	-140,8	    0,126361	-141,2
     42,8612	    0,126054	-140,3	    0,126231	-140,5
     42,8631	    0,125454	-140,6	     0,12586	-140,7
     42,8651	    0,125934	-140,4	     0,12602	-140,7
     42,8671	    0,125119	-140,3	     0,12544	-140,8
      42,869	    0,125342	-140,7	    0,125861	-140,9
      42,871	    0,125331	-140,9	    0,124827	-140,5
     42,8729	    0,124977	-140,5	    0,124959	-140,9
     42,8749	    0,125046	-140,6	    0,124955	-140,6
     42,8768	    0,124579	-140,7	    0,125189	-140,4
     42,8788	     0,12473	-140,7	    0,124606	-140,5
     42,8807	    0,124081	-140,7	    0,123272	-140,5
     42,8827	    0,123522	-140,8	     0,12402	-140,7
     42,8847	     0,12341	-140,5	    0,124283	-140,4
     42,8866	    0,123322	-140,3	    0,124004	-140,7
     42,8886	    0,122633	-140,4	    0,122462	-140,3
     42,8905	    0,121799	-140,4	    0,123065	-140,2
     42,8925	    0,122997	-139,8	    0,122935	-140,9
     42,8944	    0,122839	-140,3	    0,122638	-140,5
     42,8964	    0,122739	-139,9	    0,122312	-140,2
     42,8983	    0,122445	-139,8	    0,122891	-140,6
     42,9003	    0,121873	-140,8	    0,122845	-140,1
     42,9022	    0,121939	-140,2	     0,12239	-140,5
     42,9042	    0,121157	-140,1	    0,122287	-139,6
     42,9062	    0,121765	-139,4	    0,121046	-139,7
     42,9081	     0,12172	-139,5	    0,122301	-140,1
     42,9101	     0,12075	-139,7	     0,12187	-139,9
      42,912	    0,120629	-140,0	    0,121682	-140,1
      42,914	    0,121342	-140,0	    0,121038	-140,2
     42,9159	    0,120972	-139,7	    0,121297	-139,8
     42,9179	    0,120351	-139,7	    0,121206	-139,2
     42,9198	    0,120439	-139,3	    0,120927	-139,8
     42,9218	    0,120322	-139,7	    0,120082	-140,0
     42,9238	    0,120485	-139,6	    0,120936	-139,8
     42,9257	    0,120134	-138,8	    0,119572	-139,3
     42,9277	    0,119847	-138,7	    0,119732	-139,6
     42,9296	    0,119637	-139,7	    0,120258	-139,9
     42,9316	    0,119268	-139,1	    0,119986	-139,8
     42,9335	    0,119376	-139,3	    0,118881	-139,7
     42,9355	    0,119198	-139,0	    0,119169	-139,3
     42,9374	    0,118907	-138,7	     0,11881	-139,1
     42,9394	    0,118633	-138,9	    0,119157	-139,9
     42,9413	    0,117987	-139,0	    0,118743	-140,0
     42,9433	    0,118664	-139,2	    0,118259	-140,0
     42,9453	    0,118371	-139,0	    0,118709	-139,7
     42,9472	    0,118412	-139,0	    0,118488	-139,1
     42,9492	    0,117677	-139,2	    0,118312	-139,1
     42,9511	    0,117927	-139,3	    0,118177	-139,2
     42,9531	    0,117774	-139,2	    0,118013	-139,4
      42,955	    0,117655	-139,4	     0,11768	-138,9
      42,957	    0,117675	-139,0	    0,116827	-139,2
     42,9589	    0,116721	-138,8	     0,11732	-138,5
     42,9609	    0,117135	-138,2	    0,116676	-139,1
     42,9629	    0,116516	-138,9	    0,116933	-139,0
     42,9648	    0,116119	-138,9	    0,116541	-138,9
     42,9668	    0,115893	-138,8	    0,116593	-139,1
     42,9687	    0,116135	-138,8	    0,116388	-138,9
     42,9707	    0,116416	-139,0	    0,116414	-138,9
     42,9726	    0,115945	-139,2	    0,115988	-139,1
     42,9746	    0,116196	-138,7	    0,115878	-139,2
     42,9765	    0,116019	-139,1	    0,115829	-138,9
     42,9785	    0,115467	-138,4	    0,115645	-139,1
     42,9804	    0,115019	-138,8	    0,115545	-138,7
     42,9824	    0,114531	-138,7	    0,115415	-139,1
     42,9844	    0,114861	-138,8	    0,115095	-139,1
     42,9863	      0,1142	-138,5	    0,114089	-139,2
     42,9883	    0,114649	-138,4	    0,114758	-138,8
     42,9902	    0,113981	-138,7	    0,114443	-138,5
     42,9922	    0,114225	-138,3	    0,114342	-138,8
     42,9941	    0,113384	-138,3	    0,114334	-138,5
     42,9961	    0,113375	-138,3	    0,113069	-138,6
      42,998	     0,11387	-138,2	    0,113025	-138,5
          43	    0,113867	-138,7	    0,112965	-138,1

