X-Data [Hz]	Laser (M - Filtered) [m/s]	Phase [Deg]	Laser (M - Filtered) [m/s]	Phase [Deg]	
	003: [06-27-24 10:57]		007: [06-27-24 11:02]	
         155	   0,0278667	56,7	   0,0275719	54,9
     155,044	   0,0288363	56,6	   0,0274132	55,5
     155,088	   0,0293897	56,0	   0,0280336	57,1
     155,132	   0,0289493	57,4	   0,0277447	57,5
     155,176	   0,0291959	56,6	   0,0277485	56,1
      155,22	   0,0301032	57,2	    0,028498	57,2
     155,264	   0,0298655	56,7	   0,0281204	55,1
     155,308	   0,0300593	59,5	    0,028636	57,1
     155,352	   0,0304661	57,6	   0,0287825	56,9
     155,396	   0,0296393	57,4	   0,0284701	59,1
      155,44	   0,0311779	54,4	   0,0291203	56,4
     155,484	   0,0306994	56,1	   0,0288026	57,1
     155,528	   0,0316779	55,4	   0,0293371	55,1
     155,572	   0,0316562	56,1	   0,0297281	57,0
     155,616	   0,0316831	56,8	   0,0299325	55,4
      155,66	   0,0318888	57,0	   0,0304487	56,2
     155,704	   0,0322556	57,4	   0,0303096	56,7
     155,748	   0,0325149	57,2	   0,0307815	56,4
     155,792	   0,0325744	59,3	   0,0306386	56,7
     155,836	   0,0328299	56,6	   0,0312569	57,2
      155,88	   0,0336713	59,4	   0,0310454	56,1
     155,924	    0,033229	56,4	   0,0314666	57,7
     155,968	   0,0342852	56,7	   0,0316352	56,6
     156,012	   0,0342648	57,4	   0,0320577	57,4
     156,056	   0,0349066	55,9	   0,0329366	56,6
       156,1	   0,0342673	54,8	   0,0326417	57,5
     156,144	   0,0354408	57,9	    0,033192	56,2
     156,188	   0,0351285	57,5	   0,0329545	55,4
     156,232	   0,0357133	57,1	    0,033112	60,0
     156,276	   0,0362814	56,0	   0,0339281	55,0
      156,32	   0,0361211	57,9	   0,0333623	57,1
     156,364	   0,0366498	54,8	   0,0347446	57,7
     156,408	   0,0374643	55,8	   0,0348075	57,6
     156,452	   0,0370772	59,2	   0,0344027	58,8
     156,496	    0,037938	55,3	   0,0347009	58,2
      156,54	   0,0384677	56,1	    0,035633	57,2
     156,584	   0,0379156	56,7	   0,0356343	56,2
     156,628	   0,0386662	56,7	   0,0358413	57,5
     156,672	   0,0394523	56,8	    0,036566	60,2
     156,716	   0,0396071	59,0	   0,0364956	57,7
      156,76	   0,0393265	58,6	   0,0370109	58,2
     156,804	   0,0405512	56,2	   0,0369973	58,6
     156,848	    0,040865	58,0	   0,0380285	59,4
     156,891	   0,0413921	56,2	   0,0382268	56,5
     156,935	   0,0413597	57,8	   0,0381843	55,5
     156,979	    0,041569	58,0	   0,0389792	57,1
     157,023	    0,042199	56,8	   0,0390828	58,6
     157,067	   0,0426256	55,9	   0,0393806	57,9
     157,111	   0,0433622	57,3	   0,0400656	57,3
     157,155	    0,043864	57,3	   0,0403127	57,2
     157,199	   0,0444713	57,6	   0,0410286	56,3
     157,243	   0,0447576	57,6	   0,0406101	56,1
     157,287	   0,0444622	59,0	   0,0412793	55,9
     157,331	   0,0454472	57,3	   0,0418643	58,3
     157,375	   0,0463033	58,6	   0,0423205	58,4
     157,419	   0,0466868	57,6	   0,0427501	58,8
     157,463	   0,0470719	60,0	   0,0436005	59,4
     157,507	   0,0477989	59,4	   0,0440221	57,4
     157,551	   0,0478052	59,4	   0,0443552	58,1
     157,595	   0,0482967	56,3	   0,0447674	57,8
     157,639	   0,0491034	57,7	   0,0453872	57,5
     157,683	   0,0495264	58,6	   0,0455479	58,5
     157,727	   0,0505335	58,7	   0,0456595	58,4
     157,771	   0,0509381	59,1	   0,0472556	56,3
     157,815	   0,0513838	59,2	   0,0472799	57,7
     157,859	    0,052204	57,5	   0,0476548	58,2
     157,903	   0,0523332	58,8	   0,0487185	57,3
     157,947	   0,0533264	60,1	   0,0489286	55,5
     157,991	   0,0548774	57,8	   0,0494758	59,2
     158,035	   0,0553986	57,6	   0,0497729	56,9
     158,079	   0,0556218	58,7	   0,0511519	58,3
     158,123	   0,0568907	56,9	   0,0516466	57,8
     158,167	   0,0571973	57,4	   0,0520468	56,9
     158,211	   0,0577198	57,1	    0,052668	57,9
     158,255	   0,0578349	59,2	   0,0535683	58,2
     158,299	   0,0591777	57,9	   0,0541427	56,7
     158,343	   0,0597801	57,2	   0,0554176	56,7
     158,387	   0,0610905	56,8	   0,0556564	59,8
     158,431	   0,0623674	58,9	   0,0564524	59,4
     158,475	   0,0628643	57,4	   0,0567475	58,1
     158,519	   0,0636833	58,6	   0,0579167	57,7
     158,563	    0,064801	58,1	    0,059176	58,6
     158,607	   0,0653549	59,7	   0,0592294	57,5
     158,651	   0,0663664	58,1	   0,0599754	58,6
     158,695	   0,0674718	58,5	   0,0608173	58,7
     158,739	    0,068575	58,6	   0,0621926	55,7
     158,783	   0,0697333	60,2	     0,06293	59,5
     158,827	   0,0702214	59,3	   0,0632669	57,8
     158,871	   0,0715562	59,5	   0,0650534	58,2
     158,915	    0,072907	59,8	   0,0658013	59,5
     158,959	   0,0740599	60,5	   0,0663907	60,7
     159,003	   0,0749012	58,3	   0,0685222	58,4
     159,047	   0,0762482	60,3	   0,0688589	60,5
     159,091	   0,0775992	60,7	   0,0693041	60,2
     159,135	   0,0798139	57,4	   0,0709849	59,3
     159,179	   0,0804701	59,5	   0,0714906	60,2
     159,223	    0,082061	58,5	    0,072787	57,8
     159,267	   0,0831679	60,1	    0,074165	59,5
     159,311	   0,0849185	60,3	   0,0746012	58,6
     159,355	   0,0858639	59,6	   0,0769232	58,6
     159,399	   0,0877307	59,4	   0,0774042	61,1
     159,443	   0,0893134	59,6	   0,0791872	58,8
     159,487	   0,0907239	61,9	   0,0795685	60,8
     159,531	   0,0924898	61,5	   0,0811512	58,6
     159,575	   0,0941357	60,8	   0,0823713	60,3
     159,619	   0,0963082	59,4	    0,083737	58,5
     159,663	   0,0970422	63,0	   0,0861239	60,0
     159,707	   0,0998223	60,4	   0,0874463	59,2
     159,751	    0,100836	61,1	   0,0884155	59,6
     159,795	    0,103001	61,7	   0,0908715	59,0
     159,839	    0,105436	59,5	   0,0926039	60,9
     159,883	     0,10727	62,5	   0,0935175	61,4
     159,927	    0,109296	60,2	   0,0960224	60,3
     159,971	    0,111513	63,0	   0,0972315	58,4
     160,015	    0,113276	64,3	   0,0984515	60,3
     160,059	     0,11588	60,2	    0,101785	60,6
     160,103	    0,116743	63,5	    0,103357	61,8
     160,147	    0,119814	61,7	    0,105429	59,5
     160,191	    0,122922	61,3	    0,107291	60,4
     160,235	    0,123999	62,8	    0,109332	61,2
     160,279	    0,126015	64,0	    0,111683	59,8
     160,323	    0,128382	62,4	    0,113702	61,0
     160,367	     0,13144	63,7	    0,115279	62,1
     160,411	    0,133417	64,3	    0,118231	59,8
     160,455	    0,135784	63,0	    0,119642	62,0
     160,499	    0,138667	61,5	    0,122039	61,5
     160,543	    0,140466	64,5	    0,124796	59,9
     160,587	    0,142584	64,3	    0,127439	61,2
      160,63	    0,145936	64,3	    0,129092	61,6
     160,674	     0,14849	63,2	    0,131845	63,1
     160,718	    0,151953	64,3	    0,135331	63,7
     160,762	    0,153236	62,3	    0,136504	63,7
     160,806	     0,15618	64,0	    0,139101	62,0
      160,85	    0,158524	66,5	    0,140743	63,3
     160,894	    0,161664	62,8	    0,144782	62,4
     160,938	    0,163214	64,6	    0,147448	63,2
     160,982	    0,166585	65,8	    0,149448	63,0
     161,026	    0,169221	64,7	    0,151112	63,0
      161,07	    0,172574	66,3	    0,154388	64,8
     161,114	    0,174372	65,0	    0,157185	61,8
     161,158	    0,175743	67,2	    0,158779	62,6
     161,202	     0,17967	65,5	    0,160957	64,6
     161,246	    0,181957	67,7	    0,164539	62,3
      161,29	    0,184657	68,4	    0,166574	65,9
     161,334	     0,18678	67,8	    0,169478	64,7
     161,378	    0,189926	67,7	    0,171119	65,1
     161,422	    0,191898	66,6	    0,174138	64,7
     161,466	    0,194563	66,9	    0,176376	65,5
      161,51	    0,196273	68,3	     0,17833	66,7
     161,554	     0,19994	67,9	      0,1817	63,6
     161,598	    0,202762	68,5	    0,184085	65,2
     161,642	    0,205633	67,3	    0,186425	66,4
     161,686	      0,2073	67,5	    0,189041	65,2
      161,73	    0,210379	67,0	    0,191558	66,2
     161,774	    0,213455	67,0	    0,194934	63,5
     161,818	    0,215209	68,2	    0,196271	66,3
     161,862	    0,217402	68,4	    0,199203	65,6
     161,906	    0,220495	66,8	    0,201643	65,2
      161,95	    0,222689	69,7	    0,203768	65,6
     161,994	    0,225422	69,0	    0,205435	67,1
     162,038	    0,227462	69,7	    0,208829	66,4
     162,082	    0,229887	68,9	    0,210225	67,4
     162,126	    0,232875	68,4	    0,212859	65,7
      162,17	    0,235303	70,0	    0,215717	67,6
     162,214	    0,236887	69,5	    0,218275	66,4
     162,258	    0,239565	70,0	    0,219968	67,1
     162,302	    0,241926	69,5	    0,222983	66,2
     162,346	    0,244751	70,3	    0,225094	66,9
      162,39	    0,246429	71,0	    0,227543	68,0
     162,434	    0,249844	70,4	    0,229971	66,0
     162,478	    0,251317	69,6	     0,23154	69,7
     162,522	    0,253566	71,5	    0,233525	66,7
     162,566	    0,255937	70,2	    0,236495	67,2
      162,61	     0,25869	70,6	    0,239239	68,9
     162,654	    0,260305	70,0	    0,240781	69,1
     162,698	    0,262193	71,5	    0,243592	69,8
     162,742	    0,264218	70,0	     0,24582	68,4
     162,786	    0,266913	69,7	    0,247555	69,9
      162,83	    0,268616	72,1	    0,250258	68,7
     162,874	     0,27151	68,5	    0,252023	69,3
     162,918	    0,274541	71,1	    0,253947	69,6
     162,962	    0,276521	69,7	    0,256666	69,7
     163,006	    0,278495	70,1	    0,259527	68,8
      163,05	     0,27999	72,8	    0,261086	69,5
     163,094	    0,282226	71,1	    0,262008	71,1
     163,138	    0,284368	72,2	    0,264487	70,4
     163,182	    0,286813	71,4	    0,267295	68,3
     163,226	    0,288651	72,8	    0,268824	70,4
      163,27	    0,290525	71,0	    0,270999	70,7
     163,314	    0,292818	72,8	    0,273072	72,6
     163,358	    0,294138	73,2	    0,227742	-150,9
     163,402	    0,296456	72,2	    0,225575	-147,4
     163,446	    0,298245	72,5	    0,231194	-157,6
      163,49	    0,300224	73,0	    0,216151	-146,7
     163,534	    0,302275	71,3	     0,19017	-142,0
     163,578	    0,304532	72,0	    0,164808	-138,4
     163,622	    0,306175	72,1	    0,146342	-136,8
     163,666	    0,308039	72,9	    0,133756	-136,9
      163,71	    0,309599	72,1	     0,12363	-135,4
     163,754	    0,311663	75,9	    0,119016	-133,0
     163,798	    0,314108	72,0	    0,116223	-134,2
     163,842	    0,315246	75,2	    0,112572	-131,6
     163,886	     0,31725	73,8	    0,108466	-131,8
      163,93	    0,319401	74,1	    0,103878	-132,7
     163,974	     0,32189	75,2	    0,100849	-133,2
     164,018	    0,323461	73,3	    0,098786	-129,3
     164,062	    0,325321	73,8	   0,0962889	-133,5
     164,106	    0,327624	72,6	   0,0930546	-132,6
      164,15	    0,329558	73,7	   0,0905788	-131,8
     164,194	    0,331654	74,5	   0,0891257	-129,8
     164,238	    0,332696	72,9	   0,0868895	-132,5
     164,282	    0,334818	74,3	   0,0842113	-131,5
     164,326	    0,337047	74,9	    0,084004	-130,7
      164,37	    0,339437	74,7	   0,0820989	-130,1
     164,413	    0,340727	75,9	   0,0794513	-132,5
     164,457	    0,342014	75,9	   0,0783273	-132,7
     164,501	    0,343667	75,1	    0,077304	-130,9
     164,545	    0,345615	75,8	   0,0756316	-130,0
     164,589	    0,347838	76,6	   0,0747101	-129,1
     164,633	    0,349016	74,3	   0,0737712	-129,6
     164,677	     0,35038	75,0	   0,0720046	-130,1
     164,721	     0,35182	78,1	   0,0708829	-131,6
     164,765	    0,354165	76,8	   0,0697493	-129,9
     164,809	    0,356282	76,5	   0,0685435	-130,7
     164,853	    0,357681	76,4	   0,0683147	-128,9
     164,897	    0,359207	75,0	   0,0659203	-129,6
     164,941	    0,361077	75,6	    0,065515	-131,0
     164,985	    0,363219	75,4	   0,0641322	-129,3
     165,029	    0,364906	75,2	   0,0638838	-128,7
     165,073	    0,366624	78,3	   0,0631071	-128,3
     165,117	    0,368359	77,0	   0,0620086	-128,2
     165,161	    0,370035	73,5	   0,0606929	-129,3
     165,205	    0,371337	75,7	   0,0598109	-128,8
     165,249	    0,373729	78,1	   0,0593871	-128,3
     165,293	    0,374769	73,1	   0,0589091	-127,7
     165,337	    0,376426	77,7	   0,0572821	-129,5
     165,381	    0,377879	76,4	   0,0564297	-128,9
     165,425	    0,379298	77,1	   0,0574985	-129,0
     165,469	    0,381483	77,6	   0,0561268	-128,6
     165,513	    0,383347	79,6	   0,0540076	-131,3
     165,557	    0,384807	76,7	   0,0545005	-128,4
     165,601	    0,385941	78,5	   0,0536914	-129,9
     165,645	    0,388246	77,2	   0,0528122	-127,4
     165,689	    0,389565	77,1	   0,0526419	-127,3
     165,733	    0,391644	78,2	   0,0529017	-128,5
     165,777	    0,393415	76,3	   0,0525329	-129,7
     165,821	    0,394697	78,8	   0,0505312	-129,9
     165,865	    0,396305	76,9	   0,0501173	-130,9
     165,909	    0,397526	79,3	   0,0497518	-129,7
     165,953	    0,399459	77,3	   0,0486111	-130,2
     165,997	    0,400857	79,7	   0,0487821	-128,7
     166,041	    0,402831	79,8	   0,0485621	-129,6
     166,085	    0,404491	79,3	   0,0484387	-129,8
     166,129	    0,406116	79,5	   0,0478962	-127,5
     166,173	    0,407242	77,7	   0,0467674	-127,8
     166,217	    0,409167	81,4	   0,0462621	-131,0
     166,261	    0,411152	79,2	   0,0460761	-129,0
     166,305	    0,412316	79,9	   0,0458901	-127,5
     166,349	    0,414305	80,9	   0,0455679	-129,0
     166,393	    0,416055	80,0	   0,0446125	-128,9
     166,437	      0,4179	78,6	   0,0446728	-128,6
     166,481	    0,418911	80,9	   0,0445457	-126,8
     166,525	     0,42075	79,1	   0,0441082	-127,7
     166,569	     0,42204	77,3	   0,0434752	-128,0
     166,613	    0,422957	80,4	   0,0425947	-127,6
     166,657	    0,425431	79,7	   0,0428855	-128,5
     166,701	    0,427118	79,4	   0,0426769	-126,2
     166,745	    0,428236	81,9	   0,0425015	-126,8
     166,789	     0,43012	79,6	   0,0420962	-129,3
     166,833	    0,431227	79,7	   0,0409749	-129,1
     166,877	    0,432514	79,9	   0,0412277	-129,1
     166,921	     0,43407	80,4	   0,0410472	-128,9
     166,965	    0,436144	79,8	   0,0401444	-128,8
     167,009	    0,437467	78,8	    0,040084	-128,1
     167,053	     0,43867	81,1	   0,0399807	-126,5
     167,097	    0,440207	80,3	   0,0400627	-125,0
     167,141	     0,44207	80,6	    0,039491	-128,4
     167,185	    0,443956	80,6	   0,0383845	-129,0
     167,229	    0,445406	80,2	   0,0385819	-129,6
     167,273	     0,44663	80,7	   0,0388927	-129,3
     167,317	    0,448058	80,1	   0,0377233	-129,0
     167,361	    0,449352	82,2	   0,0373218	-128,2
     167,405	    0,451131	82,1	   0,0370088	-125,7
     167,449	    0,451947	82,5	    0,036608	-130,1
     167,493	    0,454276	80,2	    0,036899	-127,0
     167,537	    0,455108	81,4	   0,0367302	-127,8
     167,581	     0,45687	79,3	   0,0362722	-129,5
     167,625	    0,458174	81,1	   0,0352394	-126,7
     167,669	    0,459754	79,6	   0,0351293	-129,7
     167,713	    0,461078	81,7	   0,0351932	-125,3
     167,757	    0,462463	80,5	   0,0350968	-127,2
     167,801	    0,463753	82,2	   0,0346699	-128,5
     167,845	    0,465617	82,7	   0,0347124	-127,8
     167,889	    0,466551	82,0	   0,0350504	-128,0
     167,933	    0,467594	81,6	   0,0339408	-126,6
     167,977	    0,469449	82,1	   0,0339135	-128,3
     168,021	    0,471132	82,1	   0,0335638	-128,5
     168,065	    0,472302	81,2	   0,0333228	-126,4
     168,109	    0,473863	81,2	   0,0331705	-131,0
     168,152	    0,475062	83,6	   0,0333631	-127,9
     168,196	    0,476503	84,9	   0,0324022	-128,4
      168,24	    0,477554	85,5	   0,0328491	-129,5
     168,284	    0,479166	82,9	   0,0318122	-125,9
     168,328	    0,481071	82,3	   0,0322722	-128,5
     168,372	    0,482283	82,7	   0,0321336	-129,8
     168,416	    0,483768	82,7	   0,0315101	-127,6
      168,46	    0,485696	84,0	   0,0316975	-126,9
     168,504	    0,486519	84,1	    0,031584	-127,0
     168,548	     0,48842	83,4	   0,0313313	-125,8
     168,592	    0,489009	83,9	   0,0308989	-125,4
     168,636	    0,491008	83,7	   0,0304858	-128,2
      168,68	    0,493319	82,3	   0,0308662	-128,4
     168,724	    0,493615	83,0	   0,0303074	-128,5
     168,768	    0,495069	84,3	   0,0304388	-128,4
     168,812	    0,496722	83,9	   0,0307073	-127,3
     168,856	    0,498268	81,5	   0,0294573	-126,9
       168,9	    0,498871	81,7	   0,0299652	-128,9
     168,944	    0,500861	83,7	   0,0300107	-129,9
     168,988	    0,501918	82,5	   0,0297761	-127,5
     169,032	    0,503595	85,4	   0,0289861	-129,2
     169,076	    0,504707	85,0	   0,0285078	-128,4
      169,12	    0,506362	84,0	   0,0289013	-127,1
     169,164	    0,507924	84,8	   0,0286697	-128,9
     169,208	    0,508428	83,2	   0,0285839	-127,3
     169,252	    0,510221	83,1	   0,0284426	-128,2
     169,296	    0,511712	83,4	    0,028424	-126,2
      169,34	    0,512737	83,9	   0,0277205	-128,0
     169,384	    0,514205	86,2	   0,0280783	-127,0
     169,428	    0,515411	84,8	   0,0281375	-125,9
     169,472	    0,517119	84,0	   0,0274797	-127,3
     169,516	    0,518182	84,2	   0,0269963	-125,4
      169,56	    0,519845	84,3	   0,0271424	-127,4
     169,604	    0,521777	83,9	   0,0272829	-126,7
     169,648	      0,5229	86,2	   0,0273565	-127,8
     169,692	    0,524289	85,0	   0,0273596	-127,1
     169,736	    0,526053	85,4	   0,0272931	-127,5
      169,78	    0,526803	85,7	   0,0269181	-124,5
     169,824	    0,527887	85,0	   0,0270922	-127,3
     169,868	    0,529718	86,8	    0,026812	-126,9
     169,912	    0,531046	86,2	   0,0266424	-127,8
     169,956	    0,532488	85,3	   0,0262109	-125,1
         170	    0,533417	86,6	   0,0258837	-129,1
     170,044	    0,535056	84,6	   0,0260255	-127,0
     170,088	    0,535893	85,6	   0,0258991	-126,9
     170,132	    0,537636	84,1	   0,0254288	-128,6
     170,176	    0,538842	85,6	   0,0253643	-127,3
      170,22	    0,540172	86,5	   0,0253968	-127,7
     170,264	    0,541682	85,8	   0,0249135	-126,5
     170,308	    0,542865	87,1	   0,0247968	-126,5
     170,352	      0,5444	85,1	   0,0247781	-125,9
     170,396	    0,545778	85,1	   0,0252012	-126,1
      170,44	    0,546336	86,0	   0,0248507	-128,9
     170,484	    0,548693	87,4	   0,0243708	-126,7
     170,528	    0,549152	86,4	     0,02447	-126,1
     170,572	    0,550676	88,7	   0,0243724	-127,8
     170,616	    0,552166	85,7	   0,0245982	-129,1
      170,66	    0,553663	86,9	   0,0246368	-126,9
     170,704	     0,55437	87,6	   0,0241151	-126,1
     170,748	    0,556417	88,4	   0,0244439	-127,5
     170,792	    0,557197	86,5	   0,0239059	-125,0
     170,836	    0,559147	87,3	    0,023967	-124,3
      170,88	    0,559657	88,5	   0,0236314	-129,7
     170,924	    0,561772	88,6	   0,0236025	-127,1
     170,968	    0,562303	87,8	   0,0240283	-126,3
     171,012	    0,563855	86,9	   0,0234489	-128,5
     171,056	    0,564753	89,3	   0,0236267	-126,1
       171,1	    0,566555	86,9	   0,0230353	-128,7
     171,144	    0,568161	86,8	   0,0237076	-124,9
     171,188	    0,568484	87,0	   0,0233708	-130,1
     171,232	    0,570704	86,5	   0,0230322	-128,2
     171,276	    0,571554	88,9	   0,0227228	-130,2
      171,32	    0,573215	89,8	   0,0230193	-127,1
     171,364	    0,575001	86,6	   0,0230114	-125,4
     171,408	    0,575937	88,8	   0,0223764	-128,0
     171,452	    0,576439	87,7	   0,0226673	-128,1
     171,496	    0,578813	86,8	   0,0226723	-124,1
      171,54	    0,579467	90,1	    0,022506	-130,0
     171,584	    0,581107	87,1	    0,022226	-126,4
     171,628	    0,582378	88,3	    0,022489	-128,9
     171,672	    0,583732	90,0	   0,0220002	-128,8
     171,716	    0,584314	87,4	   0,0221132	-127,8
      171,76	    0,586001	89,8	    0,021793	-124,6
     171,804	    0,587155	91,6	   0,0218551	-128,9
     171,848	    0,588476	88,0	   0,0212601	-128,7
     171,891	    0,589556	86,8	   0,0214008	-126,5
     171,935	    0,590599	88,4	   0,0218773	-126,2
     171,979	    0,592746	88,1	   0,0213319	-126,5
     172,023	    0,593148	90,6	   0,0213065	-129,5
     172,067	    0,595032	90,5	   0,0211663	-129,2
     172,111	    0,595777	88,0	   0,0212139	-126,0
     172,155	    0,597609	89,2	   0,0211594	-126,9
     172,199	    0,598248	89,4	   0,0209861	-127,9
     172,243	     0,60007	89,4	   0,0210137	-125,9
     172,287	    0,600992	89,7	   0,0210407	-128,7
     172,331	    0,602417	91,5	   0,0208178	-127,1
     172,375	    0,603932	88,9	    0,020972	-130,7
     172,419	    0,604433	88,9	   0,0208086	-126,4
     172,463	     0,60608	90,7	   0,0207547	-124,9
     172,507	    0,608268	87,4	    0,020668	-127,5
     172,551	    0,608868	89,3	   0,0210756	-125,0
     172,595	    0,610075	90,6	   0,0207572	-129,4
     172,639	    0,612169	90,5	   0,0204963	-128,7
     172,683	    0,612728	90,6	   0,0203363	-128,7
     172,727	    0,614631	88,6	   0,0204365	-126,0
     172,771	    0,615584	92,0	   0,0204369	-127,3
     172,815	    0,616649	90,9	   0,0201784	-126,8
     172,859	    0,617964	91,1	   0,0200232	-125,3
     172,903	    0,619454	90,7	   0,0201078	-126,3
     172,947	    0,620786	89,8	   0,0201991	-128,4
     172,991	    0,622192	90,3	   0,0201832	-125,5
     173,035	    0,623718	90,4	   0,0202127	-125,1
     173,079	    0,624402	91,2	   0,0197297	-129,7
     173,123	    0,626286	90,8	   0,0195865	-125,7
     173,167	    0,627327	89,4	   0,0198679	-129,2
     173,211	    0,628675	91,0	   0,0194862	-127,4
     173,255	    0,630926	91,3	   0,0196955	-126,5
     173,299	     0,63131	91,8	   0,0197824	-128,1
     173,343	      0,6323	92,5	    0,019606	-126,8
     173,387	    0,634312	90,4	   0,0193958	-126,4
     173,431	    0,635611	91,0	   0,0191378	-127,2
     173,475	    0,636864	92,0	   0,0191618	-128,1
     173,519	    0,638206	92,9	   0,0190938	-127,5
     173,563	    0,639527	89,6	   0,0193817	-127,4
     173,607	    0,640799	92,4	   0,0194199	-127,9
     173,651	    0,642115	93,2	   0,0189317	-128,1
     173,695	    0,643908	93,1	   0,0186996	-127,0
     173,739	    0,644441	93,6	   0,0191719	-125,4
     173,783	    0,646393	93,1	   0,0188285	-129,5
     173,827	     0,64704	92,9	   0,0189565	-130,7
     173,871	      0,6483	91,3	   0,0187226	-125,1
     173,915	    0,650069	91,0	   0,0187666	-127,6
     173,959	    0,650648	93,6	   0,0186613	-128,0
     174,003	    0,652471	93,5	   0,0185419	-127,0
     174,047	    0,653827	90,9	   0,0186772	-127,8
     174,091	    0,654919	93,1	   0,0186502	-127,8
     174,135	    0,656069	93,0	   0,0177624	-128,4
     174,179	    0,657226	91,7	   0,0180187	-126,9
     174,223	     0,65841	93,3	   0,0182246	-126,1
     174,267	    0,660152	96,1	    0,018061	-124,8
     174,311	    0,661212	91,5	   0,0185721	-127,4
     174,355	    0,662306	94,1	    0,018463	-127,1
     174,399	    0,663244	93,9	   0,0182418	-124,3
     174,443	    0,664886	92,7	   0,0181522	-126,5
     174,487	    0,665816	94,1	   0,0180105	-124,8
     174,531	    0,667378	95,6	   0,0179008	-127,9
     174,575	    0,667944	94,8	   0,0180297	-125,6
     174,619	    0,669518	93,6	   0,0180156	-128,9
     174,663	    0,670989	95,0	   0,0179933	-127,3
     174,707	    0,671878	93,9	   0,0176765	-130,4
     174,751	    0,673106	93,6	   0,0177714	-130,7
     174,795	    0,673953	93,6	   0,0178332	-129,8
     174,839	    0,675199	93,2	   0,0176619	-127,0
     174,883	    0,676327	93,9	   0,0176132	-127,8
     174,927	    0,677582	93,8	   0,0173156	-127,1
     174,971	    0,678729	96,2	   0,0174416	-127,9
     175,015	    0,680301	92,2	   0,0176062	-126,8
     175,059	    0,681511	92,7	   0,0171169	-127,5
     175,103	    0,682484	94,9	   0,0173089	-125,2
     175,147	    0,683717	95,7	   0,0173463	-125,8
     175,191	    0,684327	95,5	   0,0172185	-127,2
     175,235	    0,685923	94,3	   0,0173428	-126,9
     175,279	    0,687393	94,8	   0,0172802	-127,5
     175,323	    0,688318	93,7	    0,017443	-123,8
     175,367	    0,689773	95,8	   0,0173636	-125,6
     175,411	    0,690174	96,4	   0,0171281	-128,7
     175,455	    0,691805	95,7	   0,0169619	-127,7
     175,499	     0,69283	95,9	   0,0167562	-126,0
     175,543	     0,69385	93,8	   0,0171019	-125,2
     175,587	    0,694847	92,5	   0,0167539	-126,7
      175,63	    0,696388	97,1	   0,0168772	-128,6
     175,674	    0,696808	97,0	   0,0168913	-126,6
     175,718	    0,698883	93,7	   0,0170461	-126,7
     175,762	    0,699926	94,0	    0,016516	-125,2
     175,806	    0,700943	95,0	   0,0165649	-127,3
      175,85	    0,702041	95,9	   0,0165521	-128,9
     175,894	    0,703639	95,8	   0,0164062	-126,6
     175,938	    0,704298	96,0	   0,0166051	-123,4
     175,982	    0,705498	97,6	   0,0166893	-126,9
     176,026	    0,706679	96,4	   0,0165009	-126,8
      176,07	    0,707617	96,6	   0,0165772	-130,6
     176,114	    0,708977	93,5	   0,0166032	-126,2
     176,158	    0,710114	97,5	    0,016242	-126,0
     176,202	    0,710937	97,3	   0,0162847	-125,0
     176,246	    0,712576	93,8	   0,0158667	-127,4
      176,29	    0,713362	96,4	   0,0162138	-126,9
     176,334	    0,714889	96,4	   0,0163841	-125,4
     176,378	    0,715573	95,5	   0,0160458	-126,0
     176,422	    0,717403	95,0	   0,0160976	-124,8
     176,466	    0,718725	94,3	   0,0163391	-128,6
      176,51	    0,719773	96,6	   0,0158402	-130,5
     176,554	    0,720902	97,2	   0,0158578	-125,1
     176,598	    0,721685	96,3	   0,0161803	-126,1
     176,642	    0,723238	96,9	    0,015758	-128,6
     176,686	    0,724543	97,0	   0,0160273	-125,4
      176,73	    0,725953	95,3	   0,0158131	-126,8
     176,774	    0,727144	99,5	   0,0157591	-126,5
     176,818	    0,728074	95,3	   0,0156208	-127,0
     176,862	    0,729254	99,4	   0,0159108	-127,8
     176,906	    0,730437	98,4	   0,0156973	-125,2
      176,95	    0,732107	99,4	   0,0159511	-128,2
     176,994	    0,733446	94,0	   0,0155125	-126,9
     177,038	    0,734365	96,5	   0,0157637	-126,6
     177,082	     0,73572	96,8	   0,0157085	-126,1
     177,126	    0,736768	96,7	   0,0156871	-127,8
      177,17	    0,738134	99,0	   0,0156176	-126,3
     177,214	    0,739219	97,9	   0,0153603	-124,9
     177,258	    0,740606	98,3	   0,0153504	-128,5
     177,302	    0,742092	97,4	   0,0154041	-129,2
     177,346	    0,742829	96,8	   0,0155899	-127,9
      177,39	      0,7445	97,7	   0,0153814	-127,5
     177,434	    0,745866	98,6	   0,0153026	-124,4
     177,478	    0,746966	98,9	   0,0154809	-126,6
     177,522	    0,748022	97,8	   0,0148614	-126,8
     177,566	    0,749408	99,0	   0,0152451	-128,1
      177,61	     0,75047	99,6	   0,0150937	-124,1
     177,654	    0,751797	99,4	   0,0151952	-126,4
     177,698	     0,75309	96,9	   0,0153666	-126,3
     177,742	    0,754261	97,8	   0,0153438	-128,8
     177,786	    0,755442	97,8	   0,0152793	-125,1
      177,83	    0,756369	100,1	   0,0150769	-127,7
     177,874	    0,757389	95,2	   0,0150457	-128,0
     177,918	    0,758299	101,3	   0,0147546	-126,4
     177,962	    0,759948	96,5	   0,0150085	-129,7
     178,006	    0,760833	100,3	   0,0147975	-125,8
      178,05	    0,762437	100,0	   0,0147522	-124,5
     178,094	     0,76346	99,1	    0,014893	-126,1
     178,138	    0,764028	97,4	   0,0148515	-128,6
     178,182	    0,765595	99,4	   0,0150494	-128,6
     178,226	    0,767149	99,1	   0,0147613	-124,9
      178,27	    0,767675	100,5	   0,0147244	-128,2
     178,314	     0,76902	99,4	    0,014559	-129,1
     178,358	    0,770262	99,1	   0,0143883	-124,0
     178,402	    0,770898	102,5	   0,0145167	-126,4
     178,446	     0,77251	100,2	   0,0145183	-126,7
      178,49	    0,774294	101,6	   0,0145351	-128,1
     178,534	    0,775276	101,8	   0,0146812	-125,8
     178,578	    0,776126	101,9	   0,0146797	-127,7
     178,622	    0,777626	102,3	   0,0144797	-127,2
     178,666	    0,778891	101,3	    0,014345	-127,7
      178,71	    0,780266	99,6	     0,01432	-126,6
     178,754	    0,781173	100,1	   0,0143604	-127,6
     178,798	    0,781744	101,9	    0,014389	-126,3
     178,842	     0,78331	100,2	   0,0143162	-124,5
     178,886	     0,78441	99,3	   0,0142745	-127,4
      178,93	    0,785249	100,5	    0,014003	-127,3
     178,974	    0,786603	102,4	   0,0140078	-125,1
     179,018	     0,78771	100,8	   0,0142166	-128,2
     179,062	    0,789194	98,7	   0,0140702	-125,3
     179,106	     0,79015	100,7	   0,0139748	-126,6
      179,15	    0,791008	101,9	   0,0138779	-126,7
     179,194	    0,792083	100,6	   0,0139358	-125,5
     179,238	    0,793267	102,3	   0,0139077	-126,3
     179,282	    0,794553	100,3	   0,0137895	-127,6
     179,326	    0,795157	102,4	   0,0137629	-126,4
      179,37	    0,796426	103,6	   0,0139486	-128,6
     179,413	    0,797199	101,8	   0,0139856	-131,3
     179,457	    0,798875	102,8	   0,0139965	-127,0
     179,501	    0,799639	101,1	   0,0139633	-128,0
     179,545	    0,800739	102,7	   0,0139145	-126,2
     179,589	    0,802287	99,1	   0,0138609	-125,0
     179,633	    0,802967	101,0	   0,0140502	-126,8
     179,677	     0,80387	100,2	   0,0140308	-127,8
     179,721	    0,804754	101,1	   0,0137542	-125,4
     179,765	    0,806366	101,5	   0,0137813	-125,9
     179,809	    0,807487	101,4	   0,0138017	-128,8
     179,853	    0,808627	103,9	   0,0138292	-128,5
     179,897	    0,809387	102,3	   0,0136444	-128,3
     179,941	    0,810948	101,0	   0,0137307	-126,4
     179,985	    0,812401	102,6	   0,0137285	-128,8
     180,029	     0,81328	100,0	   0,0135375	-124,0
     180,073	    0,814255	105,6	    0,013238	-125,5
     180,117	    0,815619	102,2	   0,0136279	-126,6
     180,161	    0,816736	101,7	   0,0135248	-129,2
     180,205	    0,818038	103,3	   0,0134639	-125,1
     180,249	    0,819163	99,6	   0,0132936	-124,7
     180,293	     0,82038	101,3	    0,013293	-129,0
     180,337	    0,821689	100,1	   0,0133102	-128,1
     180,381	    0,822498	102,5	   0,0134133	-128,0
     180,425	     0,82368	103,4	   0,0134759	-125,2
     180,469	     0,82476	102,5	   0,0134008	-128,1
     180,513	    0,826304	102,8	   0,0129743	-123,9
     180,557	    0,827495	104,3	   0,0132033	-124,8
     180,601	    0,828322	104,9	   0,0131368	-124,3
     180,645	    0,829868	103,4	   0,0134005	-128,0
     180,689	    0,830832	105,3	    0,013119	-126,4
     180,733	    0,832384	103,6	   0,0134564	-126,6
     180,777	    0,833543	101,1	   0,0131327	-123,5
     180,821	    0,834648	104,8	   0,0130655	-127,8
     180,865	    0,836274	104,3	   0,0130538	-129,8
     180,909	    0,837059	104,1	    0,012889	-128,8
     180,953	    0,838361	102,4	   0,0128267	-124,0
     180,997	     0,83999	102,1	    0,012889	-128,3
     181,041	    0,841127	102,3	   0,0127842	-124,3
     181,085	    0,841511	104,1	   0,0129567	-129,2
     181,129	    0,843067	104,7	   0,0129972	-127,1
     181,173	     0,84445	104,2	   0,0132256	-126,3
     181,217	    0,845452	106,6	    0,012683	-126,3
     181,261	    0,846499	103,2	   0,0128019	-126,1
     181,305	    0,847702	105,2	   0,0127687	-124,7
     181,349	    0,849047	104,9	   0,0128972	-130,6
     181,393	    0,850223	103,9	   0,0127359	-124,5
     181,437	    0,852048	104,2	    0,012678	-127,2
     181,481	    0,853294	106,9	   0,0129364	-127,1
     181,525	    0,853891	105,6	   0,0127355	-126,0
     181,569	    0,855816	104,0	   0,0128067	-124,7
     181,613	    0,856609	105,6	   0,0128214	-129,4
     181,657	    0,857894	103,9	   0,0127158	-130,7
     181,701	    0,859481	104,7	   0,0125668	-125,2
     181,745	    0,860574	105,6	   0,0125394	-126,1
     181,789	     0,86176	106,8	   0,0127654	-130,9
     181,833	    0,862814	105,4	    0,012819	-130,5
     181,877	    0,863688	107,0	   0,0129418	-130,5
     181,921	    0,864864	106,0	   0,0126228	-126,2
     181,965	    0,866797	105,6	    0,012445	-128,2
     182,009	    0,868144	106,4	   0,0124762	-126,7
     182,053	     0,86931	105,1	   0,0122809	-129,4
     182,097	    0,870931	105,5	   0,0126046	-127,0
     182,141	    0,871655	108,7	   0,0126877	-126,5
     182,185	    0,872771	107,9	   0,0125668	-126,3
     182,229	    0,874131	107,2	   0,0124769	-130,3
     182,273	    0,875693	106,3	   0,0126959	-131,3
     182,317	    0,876131	107,2	   0,0124856	-128,5
     182,361	    0,877847	107,4	   0,0125683	-129,5
     182,405	     0,87939	108,4	   0,0126844	-126,8
     182,449	    0,880041	107,4	   0,0125165	-130,0
     182,493	    0,881959	104,7	   0,0125233	-126,8
     182,537	    0,882326	110,0	    0,012376	-128,7
     182,581	     0,88309	107,5	   0,0126011	-129,7
     182,625	    0,884543	107,6	   0,0126162	-129,9
     182,669	     0,88579	107,0	   0,0125406	-127,6
     182,713	    0,887337	105,0	   0,0124796	-124,5
     182,757	    0,887827	107,4	   0,0125578	-124,6
     182,801	    0,888352	108,2	   0,0123342	-125,2
     182,845	    0,890077	108,4	    0,012326	-123,7
     182,889	     0,89079	108,9	   0,0120074	-128,3
     182,933	    0,891736	106,9	   0,0124956	-127,6
     182,977	    0,892803	105,9	   0,0120865	-125,2
     183,021	    0,894158	110,4	    0,011897	-125,8
     183,065	    0,895096	107,3	   0,0121054	-127,9
     183,109	    0,896266	104,7	   0,0121716	-127,8
     183,152	    0,897143	107,4	   0,0120079	-126,5
     183,196	    0,897979	108,1	   0,0122018	-122,5
      183,24	    0,899256	107,9	   0,0123338	-128,3
     183,284	    0,900287	109,3	   0,0121244	-123,2
     183,328	    0,901261	108,1	   0,0121206	-127,1
     183,372	    0,902328	108,9	   0,0121492	-129,5
     183,416	    0,903823	104,9	   0,0121947	-128,2
      183,46	    0,904703	107,5	   0,0120156	-124,5
     183,504	    0,905641	108,4	   0,0121426	-127,0
     183,548	    0,907416	107,1	   0,0120551	-126,9
     183,592	     0,90845	105,9	   0,0119168	-126,0
     183,636	    0,909379	107,7	   0,0119408	-127,5
      183,68	    0,910806	108,7	   0,0118404	-128,8
     183,724	    0,911494	108,9	   0,0119527	-125,3
     183,768	     0,91241	110,6	   0,0120824	-127,2
     183,812	    0,914279	107,7	   0,0116343	-127,6
     183,856	    0,915543	107,3	   0,0118116	-127,1
       183,9	    0,916741	106,5	   0,0118316	-126,2
     183,944	    0,917691	109,5	    0,011852	-125,2
     183,988	    0,918518	108,4	   0,0119248	-129,2
     184,032	    0,920326	108,6	   0,0116399	-125,1
     184,076	    0,921635	109,1	   0,0120498	-126,0
      184,12	    0,922822	108,6	   0,0118513	-128,2
     184,164	    0,923255	110,2	   0,0118349	-124,7
     184,208	    0,925149	108,5	   0,0117632	-129,0
     184,252	    0,925989	110,8	   0,0114592	-127,4
     184,296	    0,927312	108,8	   0,0116744	-129,2
      184,34	     0,92841	110,1	   0,0115761	-122,4
     184,384	    0,929437	110,4	   0,0116766	-125,3
     184,428	    0,930708	107,7	   0,0114142	-126,9
     184,472	    0,931015	108,4	   0,0115861	-125,0
     184,516	      0,9323	108,8	   0,0119676	-126,4
      184,56	    0,933925	108,6	   0,0115485	-125,8
     184,604	     0,93455	109,3	   0,0118968	-128,2
     184,648	    0,936339	107,6	   0,0115834	-125,4
     184,692	    0,937104	108,9	   0,0116384	-127,0
     184,736	    0,938402	109,7	   0,0112654	-128,1
      184,78	    0,939022	112,7	   0,0114045	-124,3
     184,824	    0,939764	111,8	   0,0113114	-123,1
     184,868	    0,941452	111,5	   0,0115637	-126,9
     184,912	    0,942125	112,1	   0,0117965	-126,7
     184,956	    0,943447	110,1	   0,0114407	-122,4
         185	    0,944229	110,3	   0,0113118	-126,8
     185,044	    0,945272	110,8	   0,0115463	-131,2
     185,088	    0,946655	110,2	   0,0115565	-127,2
     185,132	     0,94787	112,3	   0,0115939	-128,5
     185,176	     0,94884	109,1	   0,0114818	-129,4
      185,22	    0,949636	111,7	   0,0117418	-126,1
     185,264	    0,950743	109,0	   0,0113025	-127,9
     185,308	    0,952177	110,4	   0,0114446	-127,0
     185,352	    0,953292	111,7	   0,0114039	-126,2
     185,396	     0,95418	110,3	   0,0111841	-127,8
      185,44	    0,954926	113,2	   0,0114589	-127,0
     185,484	    0,955735	113,5	   0,0111894	-125,2
     185,528	    0,957338	111,9	    0,011646	-129,1
     185,572	    0,958436	111,1	   0,0113754	-121,7
     185,616	    0,958992	109,6	   0,0109535	-125,5
      185,66	    0,960259	112,7	   0,0110724	-128,7
     185,704	    0,961758	108,1	   0,0112155	-127,5
     185,748	    0,962537	111,1	   0,0112351	-130,9
     185,792	    0,963645	111,0	    0,011281	-125,4
     185,836	    0,964026	111,3	    0,010945	-123,1
      185,88	     0,96534	112,8	   0,0111515	-130,7
     185,924	     0,96657	110,8	    0,011075	-124,4
     185,968	    0,967468	113,2	   0,0113021	-125,7
     186,012	    0,968876	108,9	   0,0107909	-124,3
     186,056	    0,969803	111,9	   0,0111738	-127,7
       186,1	    0,971187	111,6	   0,0111945	-130,5
     186,144	    0,971658	112,9	    0,011389	-125,3
     186,188	     0,97317	112,7	   0,0111392	-122,0
     186,232	    0,974585	111,9	   0,0110256	-127,1
     186,276	    0,974909	112,3	    0,011007	-127,2
      186,32	    0,975825	110,9	   0,0112011	-128,6
     186,364	    0,977075	111,7	   0,0111169	-124,8
     186,408	    0,978125	110,6	   0,0109622	-125,7
     186,452	    0,979428	111,4	   0,0111607	-126,3
     186,496	    0,980092	112,0	   0,0109607	-128,4
      186,54	    0,981183	109,8	   0,0108327	-131,1
     186,584	    0,982717	110,3	   0,0109607	-129,0
     186,628	    0,983172	111,7	   0,0108128	-124,6
     186,672	    0,984626	111,0	   0,0108594	-124,3
     186,716	     0,98585	112,2	   0,0108129	-123,4
      186,76	    0,986433	111,9	   0,0110721	-127,9
     186,804	    0,987296	113,1	   0,0109928	-130,7
     186,848	     0,98869	112,7	   0,0106563	-127,5
     186,891	    0,989984	111,8	   0,0108643	-123,7
     186,935	    0,990415	112,7	   0,0108087	-125,6
     186,979	    0,992383	109,0	   0,0107578	-124,6
     187,023	    0,992749	110,0	   0,0109359	-124,0
     187,067	    0,993947	112,5	   0,0107878	-127,2
     187,111	    0,995435	113,6	   0,0107886	-128,0
     187,155	    0,995788	112,1	   0,0106725	-128,6
     187,199	    0,997731	113,6	   0,0107484	-128,6
     187,243	    0,998373	114,6	   0,0106406	-123,4
     187,287	     1,00005	112,1	   0,0109036	-129,8
     187,331	     1,00119	113,3	    0,010963	-125,9
     187,375	     1,00177	114,0	   0,0110767	-127,6
     187,419	     1,00303	113,5	   0,0104961	-126,2
     187,463	     1,00416	111,8	   0,0107003	-127,7
     187,507	     1,00537	111,5	    0,010983	-129,5
     187,551	     1,00683	110,9	   0,0104479	-124,6
     187,595	     1,00686	114,0	   0,0105358	-126,2
     187,639	     1,00831	114,0	   0,0108711	-127,1
     187,683	     1,00889	112,9	   0,0109742	-128,0
     187,727	     1,01079	113,7	   0,0104457	-125,7
     187,771	     1,01187	111,1	   0,0109361	-127,9
     187,815	     1,01227	114,2	   0,0109344	-130,4
     187,859	     1,01323	112,5	    0,010367	-126,0
     187,903	     1,01414	115,0	   0,0104238	-129,1
     187,947	     1,01634	111,3	   0,0105706	-124,2
     187,991	     1,01637	114,3	   0,0108461	-128,9
     188,035	     1,01743	114,3	    0,010367	-126,1
     188,079	     1,01849	115,4	   0,0107191	-126,3
     188,123	     1,02018	111,0	   0,0102826	-127,8
     188,167	     1,02008	116,0	   0,0107729	-129,1
     188,211	     1,02201	109,3	    0,010413	-127,5
     188,255	     1,02338	112,0	   0,0107009	-127,4
     188,299	     1,02374	115,1	   0,0103855	-123,5
     188,343	     1,02553	114,0	   0,0106512	-127,3
     188,387	     1,02631	115,4	   0,0104925	-123,5
     188,431	     1,02731	114,0	   0,0107161	-130,3
     188,475	     1,02859	111,8	   0,0102352	-129,6
     188,519	     1,02973	115,3	   0,0105909	-126,4
     188,563	     1,03015	115,1	   0,0104339	-127,5
     188,607	       1,032	112,5	   0,0101797	-125,2
     188,651	     1,03248	116,1	   0,0102958	-127,3
     188,695	     1,03434	112,8	   0,0105011	-124,4
     188,739	      1,0351	113,1	   0,0103347	-126,9
     188,783	     1,03631	115,7	   0,0104834	-125,4
     188,827	     1,03768	114,2	   0,0102162	-127,0
     188,871	       1,039	114,3	    0,010762	-126,5
     188,915	     1,03973	117,0	   0,0103303	-127,4
     188,959	     1,04124	112,8	   0,0107797	-127,3
     189,003	     1,04184	116,8	   0,0106741	-126,2
     189,047	     1,04258	118,0	   0,0103194	-124,1
     189,091	     1,04367	115,1	   0,0107772	-126,5
     189,135	     1,04455	114,4	   0,0101443	-125,8
     189,179	      1,0458	115,6	    0,010002	-128,2
     189,223	     1,04713	116,9	   0,0107783	-129,5
     189,267	     1,04886	109,7	   0,0102373	-124,6
     189,311	     1,04973	114,2	    0,010082	-126,9
     189,355	     1,04957	114,9	   0,0101755	-130,7
     189,399	     1,05013	119,2	   0,0102824	-131,5
     189,443	     1,05239	113,3	   0,0102452	-124,5
     189,487	     1,05403	110,4	   0,0107429	-130,4
     189,531	     1,05526	113,8	   0,0102044	-127,4
     189,575	      1,0555	115,0	   0,0100167	-126,5
     189,619	     1,05608	115,6	   0,0099579	-128,8
     189,663	     1,05792	117,2	   0,0100441	-124,9
     189,707	     1,05861	117,7	   0,0103699	-128,6
     189,751	     1,05932	116,8	   0,0100617	-125,7
     189,795	     1,06092	116,7	   0,0103459	-128,4
     189,839	     1,06361	113,8	   0,0102924	-129,6
     189,883	     1,06202	114,9	   0,0105641	-131,3
     189,927	     1,06382	115,8	   0,0104925	-123,6
     189,971	     1,06572	115,1	   0,0102761	-125,2
     190,015	      1,0656	115,7	   0,0102611	-130,7
     190,059	     1,06702	114,1	   0,0103449	-127,8
     190,103	       1,069	115,5	   0,0102222	-125,3
     190,147	     1,06902	114,6	   0,0105096	-124,2
     190,191	     1,07107	117,1	  0,00994917	-122,7
     190,235	     1,07125	117,3	   0,0099484	-124,3
     190,279	     1,07312	116,3	   0,0101293	-124,4
     190,323	     1,07365	117,1	   0,0100117	-125,6
     190,367	     1,07516	115,1	   0,0102041	-127,1
     190,411	     1,07636	119,2	   0,0105034	-125,9
     190,455	     1,07669	116,6	    0,010416	-128,8
     190,499	     1,07808	117,4	   0,0102863	-127,7
     190,543	     1,07856	116,1	  0,00992221	-127,3
     190,587	     1,08022	115,0	   0,0103103	-125,1
      190,63	     1,08125	115,2	   0,0102473	-128,1
     190,674	       1,082	114,5	  0,00995472	-126,6
     190,718	     1,08376	114,7	  0,00994113	-128,3
     190,762	     1,08431	116,0	  0,00967446	-129,0
     190,806	      1,0854	117,2	   0,0100162	-127,9
      190,85	     1,08584	116,0	   0,0102627	-125,0
     190,894	     1,08761	119,1	   0,0100022	-128,5
     190,938	     1,08853	116,6	  0,00982471	-127,4
     190,982	     1,08925	116,3	   0,0096079	-125,1
     191,026	     1,09039	117,3	  0,00969215	-127,1
      191,07	     1,09163	116,9	   0,0100477	-126,1
     191,114	     1,09174	114,8	  0,00978044	-125,3
     191,158	     1,09379	114,9	   0,0103818	-127,3
     191,202	     1,09521	117,1	   0,0100632	-128,0
     191,246	      1,0957	115,4	  0,00969301	-127,6
      191,29	     1,09684	114,5	  0,00980162	-125,3
     191,334	     1,09829	118,7	   0,0102056	-125,0
     191,378	     1,09931	117,7	  0,00991936	-132,4
     191,422	     1,09981	119,1	  0,00965178	-126,8
     191,466	     1,10116	116,6	  0,00978188	-123,6
      191,51	     1,10301	117,0	  0,00978297	-128,7
     191,554	     1,10294	117,5	  0,00999569	-125,5
     191,598	     1,10377	118,7	  0,00968334	-127,9
     191,642	     1,10543	119,7	  0,00990691	-126,8
     191,686	       1,106	118,2	   0,0101331	-129,4
      191,73	     1,10746	120,3	  0,00965113	-127,5
     191,774	     1,10879	116,6	  0,00946296	-124,3
     191,818	     1,10979	117,7	   0,0093875	-123,5
     191,862	     1,11089	118,3	  0,00989852	-128,6
     191,906	     1,11137	119,3	  0,00966783	-126,4
      191,95	     1,11294	118,1	  0,00991405	-128,7
     191,994	     1,11351	119,4	  0,00959289	-126,8
     192,038	     1,11507	118,2	  0,00998427	-126,4
     192,082	     1,11688	117,5	  0,00972228	-126,6
     192,126	     1,11813	117,8	  0,00986587	-126,7
      192,17	     1,11904	118,3	  0,00967204	-127,9
     192,214	     1,12032	115,8	  0,00992445	-125,8
     192,258	     1,12149	117,7	  0,00946508	-123,6
     192,302	     1,12207	120,2	   0,0100389	-127,6
     192,346	     1,12335	120,4	   0,0100101	-125,6
      192,39	     1,12462	119,3	  0,00968886	-127,0
     192,434	     1,12565	119,0	  0,00992369	-126,5
     192,478	      1,1265	120,4	  0,00973048	-126,2
     192,522	     1,12754	121,8	  0,00989904	-126,4
     192,566	     1,12798	122,0	  0,00972918	-131,2
      192,61	     1,12889	122,0	  0,00976694	-127,0
     192,654	     1,12974	123,6	  0,00968847	-130,0
     192,698	     1,13067	121,0	  0,00995571	-124,2
     192,742	     1,13132	123,0	   0,0096103	-126,4
     192,786	     1,13193	128,0	  0,00983778	-131,2
      192,83	     1,13239	126,6	  0,00947605	-127,8
     192,874	       1,133	125,8	  0,00976192	-127,9
     192,918	     1,13363	130,4	  0,00987719	-127,4
     192,962	     1,13476	130,0	  0,00932162	-128,6
     193,006	     1,13426	130,5	  0,00993244	-125,7
      193,05	     1,13415	135,1	  0,00953531	-124,5
     193,094	     1,13358	138,8	  0,00971964	-126,2
     193,138	     1,13405	140,0	  0,00962136	-123,9
     193,182	     1,13373	148,3	  0,00971416	-127,7
     193,226	     1,13368	155,3	  0,00937451	-128,2
      193,27	     1,13186	166,8	  0,00965116	-127,1
     193,314	     1,11911	-145,1	  0,00963202	-124,3
     193,358	  0,00965864	-126,9	  0,00938452	-127,2
     193,402	   0,0093488	-126,2	  0,00966759	-129,4
     193,446	  0,00961827	-127,4	  0,00958058	-128,7
      193,49	  0,00911324	-124,9	  0,00958036	-127,3
     193,534	   0,0094015	-130,0	  0,00998114	-130,0
     193,578	  0,00969419	-128,7	  0,00954733	-122,6
     193,622	  0,00948052	-131,3	  0,00936696	-127,8
     193,666	   0,0092694	-125,3	  0,00950711	-127,8
      193,71	  0,00933864	-127,8	  0,00935079	-128,3
     193,754	  0,00918753	-130,6	  0,00944625	-131,4
     193,798	  0,00939051	-130,4	  0,00966915	-128,5
     193,842	  0,00919825	-126,3	  0,00938626	-130,1
     193,886	  0,00937881	-123,0	  0,00938118	-125,2
      193,93	  0,00950259	-127,6	  0,00935156	-133,7
     193,974	   0,0096591	-126,3	  0,00968513	-132,2
     194,018	  0,00975335	-128,4	  0,00937182	-128,5
     194,062	  0,00925824	-130,1	  0,00919084	-128,8
     194,106	  0,00960988	-125,8	  0,00992557	-130,1
      194,15	  0,00941761	-124,5	  0,00950713	-126,9
     194,194	  0,00949406	-125,5	  0,00938909	-129,5
     194,238	  0,00968639	-126,9	  0,00945301	-127,6
     194,282	  0,00945351	-130,4	  0,00920745	-126,1
     194,326	  0,00953108	-127,2	  0,00934581	-128,2
      194,37	  0,00955952	-122,8	  0,00925084	-128,2
     194,413	  0,00928129	-126,1	  0,00929498	-124,5
     194,457	  0,00947066	-128,0	  0,00943996	-124,2
     194,501	  0,00942142	-128,2	  0,00938403	-129,2
     194,545	  0,00941388	-127,1	  0,00938355	-128,2
     194,589	  0,00963757	-130,1	  0,00915868	-127,5
     194,633	  0,00935103	-125,9	   0,0087519	-129,6
     194,677	  0,00961715	-124,3	  0,00927176	-128,8
     194,721	  0,00926264	-124,7	  0,00923476	-127,0
     194,765	  0,00934171	-127,7	  0,00935588	-126,6
     194,809	  0,00935383	-129,1	  0,00938059	-124,6
     194,853	  0,00942394	-125,4	  0,00958265	-126,6
     194,897	  0,00908685	-126,3	  0,00909777	-129,6
     194,941	  0,00909095	-127,4	  0,00910208	-129,3
     194,985	  0,00919345	-127,1	  0,00930937	-127,5
     195,029	   0,0093942	-127,0	  0,00957535	-124,2
     195,073	  0,00953387	-128,3	  0,00938936	-127,9
     195,117	  0,00961753	-126,0	  0,00894431	-127,2
     195,161	   0,0092587	-125,9	  0,00942291	-127,9
     195,205	  0,00937882	-130,5	  0,00949265	-129,6
     195,249	  0,00972716	-125,2	  0,00924761	-128,5
     195,293	  0,00948706	-127,3	  0,00951358	-123,4
     195,337	  0,00925058	-127,3	  0,00950189	-131,8
     195,381	  0,00969568	-124,8	  0,00930464	-127,7
     195,425	  0,00878506	-127,2	  0,00914316	-128,6
     195,469	  0,00952011	-128,1	  0,00948107	-127,2
     195,513	  0,00900444	-128,2	  0,00928197	-130,1
     195,557	  0,00961898	-132,1	  0,00918783	-127,4
     195,601	  0,00936326	-128,2	  0,00934879	-125,6
     195,645	  0,00884574	-126,7	  0,00936416	-129,7
     195,689	  0,00946263	-128,7	  0,00922568	-125,3
     195,733	  0,00913412	-124,8	  0,00951431	-124,4
     195,777	  0,00920689	-125,7	  0,00919473	-127,8
     195,821	  0,00901576	-123,8	  0,00920665	-125,8
     195,865	   0,0091539	-127,1	  0,00942298	-125,0
     195,909	  0,00913283	-124,6	  0,00899753	-125,9
     195,953	  0,00921493	-123,9	  0,00936518	-126,0
     195,997	    0,009047	-127,9	  0,00929845	-131,3
     196,041	  0,00925389	-126,3	  0,00924127	-125,2
     196,085	  0,00939915	-128,8	  0,00895206	-127,3
     196,129	  0,00943682	-125,6	  0,00939819	-124,8
     196,173	  0,00930891	-129,2	  0,00875685	-128,3
     196,217	  0,00964391	-127,2	  0,00919165	-123,4
     196,261	  0,00897851	-128,6	  0,00929801	-127,4
     196,305	  0,00923422	-125,0	  0,00914968	-128,0
     196,349	   0,0091698	-123,2	  0,00933716	-127,0
     196,393	  0,00901824	-129,1	   0,0092481	-124,0
     196,437	  0,00912438	-126,6	  0,00937063	-128,8
     196,481	  0,00942446	-129,2	  0,00894142	-126,3
     196,525	  0,00899357	-128,2	  0,00897927	-123,7
     196,569	  0,00925492	-130,7	   0,0092265	-129,9
     196,613	  0,00887045	-126,2	  0,00895517	-125,5
     196,657	  0,00923623	-128,4	  0,00898564	-126,8
     196,701	  0,00897472	-128,2	  0,00884583	-128,0
     196,745	  0,00931505	-129,8	  0,00883531	-123,9
     196,789	  0,00917808	-122,8	  0,00927673	-127,7
     196,833	  0,00926365	-126,6	  0,00882789	-125,7
     196,877	  0,00924023	-126,3	   0,0094514	-125,7
     196,921	  0,00866049	-130,3	  0,00891998	-125,6
     196,965	  0,00918678	-126,5	  0,00926893	-126,6
     197,009	  0,00911402	-124,9	  0,00920299	-121,9
     197,053	  0,00942893	-124,6	  0,00883349	-130,7
     197,097	  0,00945567	-126,1	  0,00960095	-127,3
     197,141	  0,00908242	-129,7	  0,00895564	-123,0
     197,185	  0,00912096	-124,2	  0,00890144	-126,0
     197,229	  0,00915857	-123,0	  0,00908831	-125,6
     197,273	  0,00912123	-127,1	   0,0092326	-126,0
     197,317	  0,00927606	-126,9	  0,00909451	-129,0
     197,361	  0,00920125	-131,6	  0,00897203	-128,0
     197,405	  0,00902378	-130,0	   0,0095413	-123,8
     197,449	  0,00896995	-128,6	  0,00868013	-125,5
     197,493	  0,00898836	-126,6	  0,00884819	-126,6
     197,537	  0,00901447	-128,3	  0,00901197	-127,7
     197,581	  0,00893532	-126,7	  0,00903036	-128,7
     197,625	  0,00910601	-128,0	  0,00891313	-128,5
     197,669	  0,00923089	-125,5	  0,00919025	-123,6
     197,713	   0,0094691	-126,3	  0,00912716	-122,6
     197,757	  0,00912801	-125,5	  0,00899569	-129,6
     197,801	  0,00922623	-125,1	  0,00902603	-127,8
     197,845	  0,00903999	-127,3	  0,00890904	-120,7
     197,889	  0,00931349	-126,5	  0,00881624	-129,1
     197,933	   0,0088745	-128,0	  0,00893726	-127,1
     197,977	  0,00917744	-126,1	  0,00889952	-124,8
     198,021	  0,00858921	-126,3	  0,00879708	-125,3
     198,065	  0,00845633	-127,9	  0,00909527	-125,2
     198,109	  0,00889786	-127,1	   0,0091062	-125,1
     198,152	  0,00920714	-125,6	  0,00931678	-128,2
     198,196	  0,00929857	-123,8	  0,00875135	-129,7
      198,24	  0,00897862	-125,9	  0,00892929	-127,4
     198,284	  0,00899473	-123,5	  0,00898883	-128,1
     198,328	  0,00879294	-127,5	  0,00906529	-124,5
     198,372	  0,00910606	-126,6	  0,00883969	-125,3
     198,416	  0,00904638	-127,9	  0,00907839	-125,5
      198,46	  0,00903975	-123,5	  0,00871152	-126,9
     198,504	  0,00852279	-127,1	  0,00878405	-124,7
     198,548	  0,00877025	-128,2	  0,00867576	-126,7
     198,592	  0,00895615	-125,2	  0,00882703	-125,4
     198,636	  0,00917391	-128,9	  0,00862799	-123,5
      198,68	  0,00907954	-129,6	  0,00890469	-123,1
     198,724	  0,00884137	-125,1	  0,00910289	-125,5
     198,768	  0,00844706	-123,8	  0,00881543	-125,8
     198,812	  0,00833362	-127,5	  0,00880418	-126,0
     198,856	  0,00899895	-130,0	  0,00923794	-125,8
       198,9	  0,00907365	-125,1	  0,00930744	-130,0
     198,944	  0,00898756	-126,9	   0,0090819	-127,0
     198,988	  0,00909081	-125,7	  0,00909111	-127,0
     199,032	  0,00866933	-129,6	  0,00945641	-125,8
     199,076	  0,00882398	-127,0	   0,0090292	-127,1
      199,12	  0,00897413	-124,1	  0,00885337	-126,0
     199,164	  0,00903293	-126,6	  0,00903642	-123,9
     199,208	  0,00935056	-129,7	  0,00931544	-124,6
     199,252	  0,00884597	-127,6	  0,00915627	-126,2
     199,296	  0,00934215	-125,1	  0,00863515	-129,5
      199,34	  0,00864494	-121,4	  0,00859151	-127,4
     199,384	  0,00862261	-129,0	  0,00882727	-128,0
     199,428	    0,009025	-126,2	     0,00861	-130,0
     199,472	  0,00900286	-124,3	  0,00875668	-124,8
     199,516	    0,008595	-128,1	  0,00874682	-126,7
      199,56	  0,00895052	-125,2	  0,00912698	-126,2
     199,604	  0,00852278	-128,2	  0,00890716	-128,4
     199,648	  0,00907135	-126,6	  0,00869188	-125,9
     199,692	  0,00867802	-128,5	  0,00865374	-123,9
     199,736	  0,00894479	-125,5	  0,00877971	-128,4
      199,78	  0,00877602	-123,4	  0,00883056	-125,6
     199,824	  0,00883348	-128,0	  0,00863683	-126,6
     199,868	  0,00891887	-124,9	  0,00870155	-126,5
     199,912	  0,00925428	-125,1	  0,00905031	-127,5
     199,956	  0,00871174	-127,4	  0,00851556	-128,2
         200	   0,0087114	-125,1	  0,00868649	-122,8

