X-Data [Hz]	Laser (M - Filtered) [m/s]	Phase [Deg]	Laser (M - Filtered) [m/s]	Phase [Deg]	
	002: [07-10-24 10:34]		003: [07-10-24 10:37]	
        41,5	  0,00543454	81,6	   0,0053333	74,9
      41,502	  0,00532645	78,7	    0,005457	77,2
     41,5039	  0,00536673	82,0	   0,0055153	84,6
     41,5059	  0,00550018	76,7	  0,00547078	80,5
     41,5078	  0,00548017	79,0	  0,00544433	76,5
     41,5098	  0,00542808	77,9	  0,00548658	79,1
     41,5117	  0,00547376	80,5	  0,00541871	75,9
     41,5137	  0,00549921	74,7	  0,00543757	81,4
     41,5156	  0,00541038	76,9	  0,00546773	80,2
     41,5176	  0,00542789	79,2	  0,00557224	78,8
     41,5196	  0,00547531	76,2	  0,00555623	79,3
     41,5215	  0,00549346	79,4	  0,00554898	76,8
     41,5235	  0,00556978	76,7	  0,00548282	80,0
     41,5254	  0,00553567	74,8	  0,00552382	77,8
     41,5274	  0,00556364	76,9	  0,00551189	82,4
     41,5293	  0,00551742	74,2	  0,00554285	76,4
     41,5313	  0,00549617	80,2	  0,00556743	75,8
     41,5332	  0,00552819	77,6	  0,00553836	77,2
     41,5352	  0,00551434	79,5	  0,00547844	76,9
     41,5371	  0,00549244	78,4	  0,00542641	82,0
     41,5391	  0,00551333	80,1	  0,00535763	77,7
     41,5411	  0,00551718	82,0	  0,00559776	76,3
      41,543	   0,0054996	82,0	  0,00559059	77,8
      41,545	  0,00553495	82,0	   0,0056651	75,6
     41,5469	  0,00564267	74,5	  0,00552948	80,0
     41,5489	  0,00557838	78,3	  0,00552497	79,2
     41,5508	   0,0055944	77,9	  0,00554186	79,1
     41,5528	   0,0055771	80,1	  0,00552409	79,6
     41,5547	  0,00557815	77,1	  0,00557294	82,1
     41,5567	  0,00557551	76,5	   0,0055691	79,5
     41,5587	   0,0056728	81,4	  0,00562397	75,5
     41,5606	  0,00572913	78,2	  0,00567148	79,7
     41,5626	  0,00557364	81,1	  0,00561009	75,1
     41,5645	  0,00564574	76,8	  0,00567652	78,9
     41,5665	  0,00561065	79,3	  0,00569231	77,1
     41,5684	  0,00564711	81,2	  0,00569638	76,9
     41,5704	   0,0057076	80,4	  0,00568036	78,5
     41,5723	  0,00569352	80,6	   0,0056394	78,1
     41,5743	  0,00557631	75,1	  0,00556246	79,6
     41,5762	  0,00558157	78,2	  0,00564846	78,3
     41,5782	   0,0056947	77,1	  0,00579495	81,0
     41,5802	  0,00571715	78,9	  0,00568351	82,0
     41,5821	  0,00573371	83,0	  0,00565319	75,3
     41,5841	  0,00570181	76,1	  0,00575254	79,7
      41,586	  0,00559527	78,5	  0,00571198	77,2
      41,588	  0,00564785	75,8	  0,00566264	77,9
     41,5899	  0,00578939	78,6	  0,00562402	79,7
     41,5919	  0,00575915	79,5	  0,00565869	74,5
     41,5938	  0,00575515	77,2	  0,00582566	81,5
     41,5958	  0,00573984	80,8	  0,00577788	76,5
     41,5978	  0,00571818	78,0	  0,00567269	75,8
     41,5997	  0,00573769	79,2	  0,00572536	79,4
     41,6017	  0,00580007	79,9	  0,00585379	78,6
     41,6036	  0,00581092	80,1	  0,00578442	81,1
     41,6056	  0,00581371	82,0	  0,00577789	78,5
     41,6075	  0,00571348	77,8	  0,00585484	80,3
     41,6095	  0,00574162	79,0	  0,00589781	80,1
     41,6114	  0,00581312	78,1	  0,00585532	82,8
     41,6134	  0,00578871	80,7	  0,00574647	81,0
     41,6153	  0,00577775	82,1	  0,00568359	76,9
     41,6173	   0,0058376	77,2	  0,00580381	79,8
     41,6193	  0,00576857	79,8	  0,00591196	77,2
     41,6212	  0,00580586	77,3	  0,00586381	79,1
     41,6232	  0,00581991	79,2	  0,00583054	81,0
     41,6251	  0,00583045	78,3	  0,00581837	75,9
     41,6271	  0,00591406	76,5	  0,00584742	79,1
      41,629	  0,00590227	79,3	  0,00590132	78,2
      41,631	  0,00584695	76,1	  0,00590328	79,1
     41,6329	  0,00577261	80,4	  0,00600523	79,8
     41,6349	  0,00586091	81,3	   0,0059787	80,4
     41,6369	  0,00592748	82,2	  0,00590352	83,7
     41,6388	  0,00587345	83,0	  0,00594319	75,5
     41,6408	  0,00583539	79,9	  0,00592462	79,3
     41,6427	  0,00592482	80,5	  0,00591964	79,6
     41,6447	  0,00587886	82,2	  0,00589305	75,6
     41,6466	  0,00596329	79,5	   0,0059606	81,5
     41,6486	  0,00600077	79,4	   0,0060037	79,6
     41,6505	  0,00596524	77,8	  0,00610248	79,9
     41,6525	  0,00596191	79,2	  0,00604943	81,2
     41,6544	  0,00596458	77,4	   0,0059608	77,9
     41,6564	  0,00601439	76,9	  0,00595599	80,4
     41,6584	  0,00600167	80,7	  0,00594854	80,6
     41,6603	  0,00609641	79,8	  0,00599754	83,3
     41,6623	  0,00590266	80,7	  0,00607243	80,7
     41,6642	  0,00590605	79,9	  0,00612347	76,9
     41,6662	  0,00598047	81,0	  0,00605854	80,4
     41,6681	   0,0060656	79,4	  0,00594182	79,2
     41,6701	  0,00597719	80,6	  0,00599782	80,3
      41,672	   0,0060212	83,1	  0,00607684	78,8
      41,674	  0,00603873	78,2	  0,00612129	75,4
      41,676	  0,00598632	81,8	  0,00596848	80,1
     41,6779	  0,00606712	82,4	  0,00601934	76,5
     41,6799	  0,00611648	80,4	  0,00607901	81,6
     41,6818	  0,00610326	81,2	  0,00618351	82,6
     41,6838	  0,00617491	76,3	  0,00621039	80,5
     41,6857	  0,00617858	79,8	  0,00613176	82,3
     41,6877	  0,00610335	80,9	  0,00615931	75,2
     41,6896	  0,00609001	78,7	  0,00621544	78,1
     41,6916	  0,00617056	82,4	  0,00617345	82,2
     41,6936	  0,00609765	80,6	  0,00620744	81,8
     41,6955	  0,00613969	82,5	  0,00615006	79,6
     41,6975	  0,00619692	83,2	  0,00624535	77,7
     41,6994	  0,00615405	78,3	  0,00616617	78,5
     41,7014	  0,00614524	80,9	  0,00607912	82,4
     41,7033	  0,00619122	79,9	  0,00600914	79,1
     41,7053	  0,00618624	80,8	  0,00607258	83,0
     41,7072	  0,00614685	79,6	  0,00609327	81,5
     41,7092	  0,00606558	81,0	  0,00615585	80,9
     41,7111	  0,00621884	82,5	    0,006145	84,1
     41,7131	  0,00631163	75,6	  0,00616823	78,7
     41,7151	  0,00621301	82,2	  0,00626613	80,8
      41,717	  0,00623184	79,8	  0,00619385	78,2
      41,719	  0,00622363	80,0	  0,00623483	79,8
     41,7209	  0,00628692	83,5	  0,00623316	84,0
     41,7229	  0,00618496	83,2	  0,00623172	82,6
     41,7248	  0,00622633	80,0	  0,00613191	85,6
     41,7268	  0,00630529	81,4	  0,00612275	83,6
     41,7287	  0,00636658	77,6	  0,00619212	81,1
     41,7307	  0,00625694	82,2	  0,00626547	82,2
     41,7327	  0,00630133	77,8	  0,00637999	78,1
     41,7346	  0,00623355	82,3	  0,00635156	80,3
     41,7366	  0,00636436	81,1	  0,00626818	85,4
     41,7385	   0,0063415	76,7	  0,00636903	80,5
     41,7405	  0,00634449	82,1	  0,00640217	77,3
     41,7424	  0,00633622	82,3	  0,00638261	79,1
     41,7444	  0,00623769	82,1	   0,0063866	76,8
     41,7463	  0,00627816	85,4	  0,00633785	81,5
     41,7483	  0,00631091	78,9	  0,00641934	81,5
     41,7502	  0,00625718	79,5	  0,00645502	82,2
     41,7522	  0,00633492	82,0	  0,00639022	83,8
     41,7542	  0,00640703	78,2	  0,00640945	77,8
     41,7561	  0,00637712	82,0	  0,00629708	80,3
     41,7581	  0,00636332	79,9	  0,00635456	82,6
       41,76	   0,0064961	82,4	  0,00640109	80,1
      41,762	  0,00641392	81,6	  0,00647064	83,1
     41,7639	  0,00638183	84,0	  0,00647048	79,5
     41,7659	  0,00627834	85,5	  0,00644338	83,0
     41,7678	  0,00635884	78,8	  0,00639295	83,9
     41,7698	  0,00633926	80,9	  0,00652362	83,6
     41,7718	  0,00647703	80,6	  0,00650353	82,6
     41,7737	  0,00653988	79,6	  0,00660832	77,2
     41,7757	  0,00656218	80,7	  0,00653092	81,0
     41,7776	  0,00652335	80,6	   0,0064286	82,7
     41,7796	  0,00651858	83,3	  0,00649473	77,0
     41,7815	  0,00652261	83,6	  0,00643235	80,3
     41,7835	  0,00655953	84,9	  0,00657753	80,3
     41,7854	  0,00656385	82,2	  0,00667729	81,9
     41,7874	  0,00652907	84,8	   0,0066734	84,0
     41,7893	  0,00658112	79,2	  0,00660797	83,7
     41,7913	   0,0065084	81,9	   0,0065142	81,6
     41,7933	  0,00650353	80,2	  0,00654576	82,5
     41,7952	  0,00648815	80,1	  0,00658701	81,1
     41,7972	  0,00657727	80,3	  0,00666877	82,1
     41,7991	  0,00658268	80,3	  0,00665501	79,5
     41,8011	  0,00658263	83,0	  0,00661872	78,6
      41,803	  0,00658009	78,7	  0,00656684	82,0
      41,805	  0,00663992	82,9	  0,00662257	80,1
     41,8069	  0,00666695	85,1	  0,00665124	84,1
     41,8089	  0,00664487	82,7	  0,00666029	83,1
     41,8109	  0,00669579	82,5	  0,00677478	79,1
     41,8128	  0,00662926	77,1	  0,00670154	86,7
     41,8148	  0,00669979	76,5	  0,00676739	77,2
     41,8167	  0,00673241	82,9	  0,00676679	80,9
     41,8187	   0,0067755	81,8	  0,00670307	80,4
     41,8206	  0,00677832	83,6	  0,00688699	77,8
     41,8226	  0,00676435	84,5	   0,0068124	80,0
     41,8245	   0,0067245	83,4	   0,0067562	81,4
     41,8265	  0,00669736	81,8	  0,00679175	82,8
     41,8284	  0,00671637	85,9	  0,00663715	88,4
     41,8304	  0,00681637	79,7	  0,00676444	80,3
     41,8324	  0,00678372	83,8	  0,00679545	79,8
     41,8343	  0,00674901	81,0	  0,00668794	87,6
     41,8363	  0,00678202	84,9	  0,00673443	80,0
     41,8382	  0,00682716	83,8	  0,00680693	84,1
     41,8402	  0,00679261	79,0	  0,00684066	82,5
     41,8421	  0,00678925	80,4	  0,00683616	79,9
     41,8441	  0,00679296	80,3	  0,00700485	81,7
      41,846	  0,00684929	83,4	  0,00709435	82,4
      41,848	  0,00689325	82,9	  0,00698958	81,2
       41,85	  0,00683212	79,7	   0,0069362	83,1
     41,8519	  0,00683379	83,2	  0,00691033	79,0
     41,8539	   0,0068608	83,4	  0,00694122	79,6
     41,8558	  0,00687289	80,2	  0,00701083	81,7
     41,8578	  0,00688698	85,7	  0,00692447	81,0
     41,8597	  0,00693608	82,9	  0,00699957	85,9
     41,8617	  0,00693265	80,7	  0,00705181	81,8
     41,8636	  0,00697807	83,2	  0,00693655	78,4
     41,8656	  0,00698401	84,1	  0,00693807	85,2
     41,8675	  0,00699025	82,5	  0,00708427	81,4
     41,8695	  0,00693146	84,5	  0,00705532	84,0
     41,8715	  0,00693733	78,4	   0,0069481	84,3
     41,8734	  0,00698883	84,4	  0,00701283	80,1
     41,8754	  0,00700239	84,2	  0,00695878	82,0
     41,8773	  0,00704807	83,1	  0,00706653	81,2
     41,8793	  0,00701105	86,4	  0,00716403	78,0
     41,8812	  0,00699845	78,5	  0,00721335	83,8
     41,8832	  0,00698462	80,2	  0,00724872	80,3
     41,8851	  0,00700587	83,6	  0,00719306	83,5
     41,8871	  0,00705035	80,9	  0,00711507	87,4
     41,8891	  0,00711803	80,7	  0,00707665	81,3
      41,891	  0,00706803	85,1	  0,00725452	80,5
      41,893	  0,00711534	81,5	  0,00723206	81,6
     41,8949	  0,00708629	84,4	  0,00709983	80,7
     41,8969	   0,0071544	86,0	  0,00715038	85,2
     41,8988	  0,00723033	81,3	  0,00710024	88,1
     41,9008	  0,00722011	82,0	  0,00723546	84,4
     41,9027	  0,00711785	82,3	  0,00727447	83,4
     41,9047	  0,00711313	79,5	  0,00733796	79,0
     41,9066	  0,00721888	86,4	  0,00726445	84,1
     41,9086	  0,00732885	82,5	  0,00732182	83,1
     41,9106	  0,00729401	84,3	  0,00730754	77,6
     41,9125	  0,00720993	85,2	  0,00737031	85,4
     41,9145	  0,00712352	82,7	  0,00734186	87,7
     41,9164	  0,00718203	82,7	   0,0073875	83,4
     41,9184	  0,00734325	82,5	  0,00741444	83,6
     41,9203	  0,00733991	79,5	  0,00726923	84,1
     41,9223	  0,00721935	85,9	  0,00737165	80,9
     41,9242	  0,00723089	86,1	  0,00750118	80,7
     41,9262	  0,00734793	82,9	  0,00744776	81,3
     41,9282	  0,00731943	86,9	  0,00745585	79,1
     41,9301	  0,00731535	79,9	   0,0073609	83,9
     41,9321	  0,00729772	79,8	  0,00734802	85,8
      41,934	   0,0073061	84,5	  0,00741145	84,6
      41,936	  0,00733564	82,5	    0,007497	88,8
     41,9379	  0,00734486	86,6	  0,00747663	83,5
     41,9399	  0,00743862	87,0	   0,0074513	82,1
     41,9418	  0,00748276	82,0	  0,00735865	87,7
     41,9438	  0,00748457	84,8	  0,00756308	79,9
     41,9457	  0,00742791	80,6	  0,00755607	85,1
     41,9477	  0,00735339	81,3	  0,00753307	86,7
     41,9497	  0,00747781	86,5	  0,00747949	84,4
     41,9516	  0,00747123	83,5	  0,00754642	85,6
     41,9536	  0,00744899	84,5	  0,00751588	84,8
     41,9555	  0,00740982	87,1	  0,00753319	81,3
     41,9575	  0,00747505	88,2	  0,00759887	85,3
     41,9594	  0,00756301	84,2	  0,00762916	85,6
     41,9614	  0,00760986	85,9	   0,0076803	82,5
     41,9633	  0,00762112	82,1	   0,0077016	86,5
     41,9653	   0,0075613	82,1	  0,00753027	87,4
     41,9673	  0,00756286	86,5	  0,00755924	84,2
     41,9692	  0,00755987	84,8	  0,00761545	87,2
     41,9712	  0,00756542	90,1	  0,00771376	82,7
     41,9731	  0,00767777	86,5	  0,00764292	82,0
     41,9751	  0,00767535	83,3	   0,0076536	83,7
      41,977	  0,00759487	85,5	  0,00778999	81,1
      41,979	  0,00752221	86,4	  0,00785918	82,4
     41,9809	  0,00764697	84,3	  0,00786408	83,8
     41,9829	  0,00775016	84,8	  0,00778854	83,9
     41,9848	  0,00780002	84,8	  0,00779062	88,1
     41,9868	  0,00776249	85,5	  0,00781462	87,4
     41,9888	  0,00776095	89,0	  0,00783068	82,4
     41,9907	  0,00770987	86,7	  0,00786328	81,2
     41,9927	    0,007664	84,1	  0,00781741	89,1
     41,9946	  0,00772083	87,3	  0,00779222	86,1
     41,9966	  0,00783197	83,1	    0,007792	82,4
     41,9985	  0,00788101	84,5	  0,00771231	85,0
     42,0005	  0,00797639	85,6	  0,00781943	83,0
     42,0024	  0,00794643	83,5	  0,00792769	87,5
     42,0044	  0,00783641	88,1	  0,00791428	87,8
     42,0064	  0,00786529	86,5	  0,00798144	86,1
     42,0083	  0,00788473	89,7	  0,00804672	86,7
     42,0103	  0,00774508	87,3	  0,00788214	83,6
     42,0122	   0,0077466	88,1	  0,00786975	82,5
     42,0142	  0,00785979	85,8	  0,00788139	85,1
     42,0161	  0,00781554	80,0	  0,00795638	86,0
     42,0181	  0,00770511	84,9	  0,00802842	84,1
       42,02	  0,00782894	82,6	  0,00810259	85,9
      42,022	  0,00779147	89,8	  0,00804146	86,0
     42,0239	  0,00798856	90,5	  0,00801319	86,2
     42,0259	  0,00805297	80,2	  0,00800026	88,0
     42,0279	  0,00798591	84,8	  0,00814215	87,6
     42,0298	  0,00794837	83,4	  0,00813719	85,5
     42,0318	  0,00805139	85,4	  0,00795322	83,1
     42,0337	  0,00805993	87,7	   0,0079583	85,6
     42,0357	  0,00812173	85,4	  0,00818769	86,3
     42,0376	  0,00803161	84,7	  0,00823906	90,7
     42,0396	  0,00810707	89,4	  0,00819296	86,4
     42,0415	  0,00817941	87,5	  0,00828278	84,2
     42,0435	    0,008228	86,7	  0,00814672	88,6
     42,0455	  0,00822308	86,9	  0,00821221	85,6
     42,0474	  0,00826135	84,7	  0,00817053	82,6
     42,0494	  0,00829214	86,9	  0,00815132	85,8
     42,0513	  0,00830531	85,2	  0,00818788	88,7
     42,0533	   0,0083226	89,8	  0,00835528	82,9
     42,0552	  0,00832115	88,4	  0,00830119	85,5
     42,0572	  0,00832376	87,5	   0,0081971	87,2
     42,0591	  0,00838483	85,0	  0,00836182	87,1
     42,0611	  0,00845483	87,8	  0,00846805	87,3
      42,063	  0,00837954	85,4	  0,00840628	86,7
      42,065	  0,00833152	83,3	  0,00837957	86,1
      42,067	   0,0082845	89,0	  0,00839212	90,1
     42,0689	  0,00840345	88,6	  0,00843115	89,6
     42,0709	  0,00849171	86,0	  0,00856679	85,4
     42,0728	  0,00853468	86,7	  0,00844185	82,9
     42,0748	  0,00852958	86,9	  0,00847267	83,9
     42,0767	  0,00854874	85,1	  0,00849352	87,3
     42,0787	  0,00852242	88,7	  0,00847357	83,2
     42,0806	  0,00850462	89,1	  0,00839873	92,3
     42,0826	  0,00842955	86,4	  0,00846832	88,6
     42,0846	  0,00847749	85,5	  0,00849721	91,2
     42,0865	  0,00848939	85,9	  0,00862773	86,7
     42,0885	  0,00848353	83,5	  0,00856941	85,6
     42,0904	  0,00854218	86,2	  0,00856465	87,3
     42,0924	   0,0086732	87,6	  0,00863812	90,1
     42,0943	  0,00865547	84,5	  0,00869393	83,4
     42,0963	  0,00854368	88,4	  0,00860518	86,0
     42,0982	  0,00852992	90,2	  0,00858109	91,2
     42,1002	  0,00862963	88,3	  0,00867618	86,1
     42,1021	   0,0087362	87,9	  0,00871019	86,4
     42,1041	  0,00871659	89,5	  0,00877708	88,3
     42,1061	  0,00872881	87,7	  0,00874258	91,2
      42,108	  0,00870055	89,9	  0,00900548	95,5
       42,11	  0,00876826	92,6	  0,00904938	89,2
     42,1119	   0,0087717	86,9	  0,00892567	83,2
     42,1139	  0,00883628	86,8	   0,0087799	87,6
     42,1158	  0,00879003	85,6	  0,00882524	95,4
     42,1178	  0,00882546	89,4	  0,00898559	85,1
     42,1197	   0,0087891	87,4	  0,00885758	85,5
     42,1217	  0,00890395	91,3	  0,00892362	90,4
     42,1237	  0,00880268	83,1	  0,00900097	91,8
     42,1256	    0,008842	87,9	  0,00897272	83,2
     42,1276	  0,00880258	85,2	  0,00914961	87,6
     42,1295	  0,00891871	87,2	    0,009039	91,5
     42,1315	  0,00914789	82,9	   0,0092125	89,7
     42,1334	  0,00918404	92,3	  0,00917089	89,0
     42,1354	  0,00938574	86,2	  0,00916155	85,4
     42,1373	  0,00935229	90,4	   0,0092238	86,5
     42,1393	  0,00922737	92,7	   0,0092522	90,6
     42,1413	  0,00916442	88,0	   0,0092505	86,3
     42,1432	  0,00916975	88,8	  0,00907281	85,2
     42,1452	  0,00920768	93,6	  0,00905398	89,9
     42,1471	  0,00931501	93,2	  0,00921591	91,5
     42,1491	  0,00908682	90,2	   0,0092593	90,2
      42,151	   0,0091292	90,4	  0,00932345	89,4
      42,153	  0,00920349	87,2	  0,00924203	93,3
     42,1549	  0,00922727	87,0	  0,00932241	87,6
     42,1569	  0,00918749	89,2	  0,00929412	83,0
     42,1588	  0,00918349	93,2	   0,0092854	85,7
     42,1608	  0,00915309	87,8	  0,00927117	91,7
     42,1628	  0,00905594	92,7	  0,00938762	91,4
     42,1647	  0,00904711	90,9	  0,00929554	91,0
     42,1667	  0,00909136	89,1	  0,00929223	93,4
     42,1686	  0,00932413	93,2	  0,00941029	86,3
     42,1706	  0,00946686	94,0	  0,00939317	87,4
     42,1725	  0,00960515	89,9	  0,00942789	91,7
     42,1745	  0,00954514	90,5	  0,00953272	88,4
     42,1764	  0,00956555	93,5	    0,009561	91,7
     42,1784	   0,0095723	89,0	  0,00968273	88,9
     42,1804	  0,00950375	94,0	  0,00960577	88,5
     42,1823	   0,0095236	91,4	  0,00956869	91,0
     42,1843	  0,00959533	87,5	  0,00953888	97,3
     42,1862	  0,00972569	87,9	  0,00958415	90,4
     42,1882	  0,00965871	94,5	  0,00951884	87,1
     42,1901	  0,00980841	91,2	  0,00952257	93,4
     42,1921	  0,00970672	86,7	  0,00965723	90,2
      42,194	  0,00987284	90,9	  0,00971826	86,2
      42,196	  0,00998717	86,2	  0,00974057	93,9
     42,1979	  0,00989386	88,8	  0,00973754	91,8
     42,1999	  0,00985289	91,9	   0,0098218	88,5
     42,2019	  0,00990385	93,5	  0,00979457	90,1
     42,2038	  0,00985586	91,0	  0,00980715	94,5
     42,2058	  0,00988402	89,9	  0,00987054	92,2
     42,2077	  0,00996439	89,8	  0,00995999	91,9
     42,2097	  0,00999711	88,5	  0,00976677	95,0
     42,2116	  0,00984405	87,9	  0,00998351	92,4
     42,2136	    0,010003	92,3	   0,0100125	88,7
     42,2155	  0,00988059	91,0	   0,0100119	88,2
     42,2175	  0,00989946	92,4	  0,00995878	90,6
     42,2195	  0,00995608	94,2	  0,00994845	90,8
     42,2214	   0,0101075	92,1	   0,0100468	96,0
     42,2234	   0,0100379	88,5	    0,010156	90,7
     42,2253	   0,0102143	91,9	   0,0101121	89,8
     42,2273	   0,0102559	91,0	   0,0102891	91,8
     42,2292	   0,0103461	88,0	   0,0101491	90,1
     42,2312	   0,0103849	93,7	   0,0100687	93,1
     42,2331	    0,010161	92,4	   0,0100965	91,8
     42,2351	   0,0101741	91,0	   0,0102497	95,4
      42,237	    0,010207	86,8	   0,0102537	89,9
      42,239	   0,0102479	91,4	   0,0103623	89,9
      42,241	   0,0102005	92,0	   0,0103637	95,0
     42,2429	    0,010152	90,9	   0,0104839	89,9
     42,2449	   0,0101265	94,7	   0,0103148	92,9
     42,2468	   0,0100468	86,5	   0,0104187	94,0
     42,2488	  0,00994531	92,0	   0,0103935	94,1
     42,2507	  0,00998472	94,9	   0,0104694	90,7
     42,2527	   0,0101443	94,4	   0,0104552	93,4
     42,2546	   0,0101449	92,2	   0,0104696	96,9
     42,2566	   0,0103369	91,0	   0,0104907	93,5
     42,2586	   0,0104243	94,5	   0,0105849	89,0
     42,2605	   0,0103982	88,8	   0,0105708	93,7
     42,2625	   0,0103459	91,1	   0,0106266	96,3
     42,2644	   0,0103682	94,5	   0,0106425	91,0
     42,2664	   0,0105587	90,4	   0,0106195	93,3
     42,2683	   0,0105357	94,2	   0,0106195	95,2
     42,2703	   0,0105696	97,2	    0,010648	91,7
     42,2722	   0,0105921	95,3	   0,0106029	92,2
     42,2742	   0,0106434	91,4	   0,0106603	96,2
     42,2761	   0,0106876	99,2	   0,0106776	94,9
     42,2781	   0,0106967	98,7	   0,0107793	91,9
     42,2801	   0,0107528	95,0	   0,0108543	92,7
      42,282	    0,010543	89,9	    0,010819	97,5
      42,284	     0,01078	93,4	   0,0108694	92,5
     42,2859	   0,0107932	91,4	   0,0108208	94,2
     42,2879	   0,0107954	90,8	   0,0108647	96,5
     42,2898	   0,0109661	99,8	   0,0109232	91,5
     42,2918	   0,0109966	96,6	   0,0110376	94,3
     42,2937	   0,0111006	93,1	   0,0110405	97,2
     42,2957	   0,0111117	95,0	   0,0110297	97,4
     42,2977	   0,0112219	96,5	   0,0111126	95,4
     42,2996	   0,0110468	93,8	   0,0111487	93,2
     42,3016	   0,0110589	92,6	   0,0110752	96,1
     42,3035	   0,0110342	101,0	    0,011115	94,5
     42,3055	   0,0110521	96,0	   0,0112465	95,0
     42,3074	   0,0108911	91,4	   0,0113343	94,0
     42,3094	    0,011074	95,6	   0,0112987	94,4
     42,3113	   0,0109232	97,4	   0,0112685	95,4
     42,3133	   0,0108327	95,4	   0,0113974	100,6
     42,3153	    0,010845	95,6	   0,0113956	96,1
     42,3172	   0,0109263	96,8	   0,0113118	94,7
     42,3192	   0,0109297	96,2	    0,011472	92,0
     42,3211	   0,0110498	91,0	    0,011431	95,5
     42,3231	   0,0110714	95,2	   0,0115148	99,4
      42,325	   0,0112493	97,3	    0,011654	97,8
      42,327	   0,0113262	95,3	   0,0116859	96,3
     42,3289	   0,0115635	93,4	   0,0117083	95,3
     42,3309	   0,0116212	100,5	   0,0116649	95,6
     42,3328	   0,0118165	97,8	   0,0115942	99,2
     42,3348	   0,0117852	96,3	   0,0115397	99,9
     42,3368	   0,0116897	98,0	   0,0117332	96,3
     42,3387	   0,0116791	96,2	    0,011846	94,3
     42,3407	   0,0116716	96,5	   0,0118355	99,3
     42,3426	   0,0116426	99,8	   0,0118049	98,6
     42,3446	   0,0115185	99,2	   0,0118166	95,2
     42,3465	   0,0115797	95,6	    0,011932	96,5
     42,3485	   0,0113902	97,4	   0,0119855	99,1
     42,3504	   0,0114551	97,8	   0,0120447	97,0
     42,3524	   0,0114409	97,6	   0,0121035	94,8
     42,3544	   0,0117113	95,4	   0,0121126	101,0
     42,3563	   0,0118178	98,8	   0,0119846	96,9
     42,3583	   0,0118974	98,0	   0,0120221	100,4
     42,3602	   0,0118494	99,1	   0,0121144	98,8
     42,3622	   0,0118353	100,2	   0,0122053	95,8
     42,3641	   0,0118904	97,0	   0,0121016	95,8
     42,3661	   0,0118032	102,1	   0,0121006	95,6
      42,368	   0,0118838	100,1	   0,0122413	97,4
       42,37	    0,011964	97,9	    0,012135	101,8
     42,3719	    0,012094	100,0	   0,0122571	101,8
     42,3739	   0,0121439	99,5	   0,0125193	98,3
     42,3759	   0,0121767	97,2	   0,0124897	99,4
     42,3778	   0,0122213	102,0	   0,0125112	101,5
     42,3798	   0,0123442	105,3	   0,0125134	92,4
     42,3817	   0,0124144	103,1	   0,0125694	100,1
     42,3837	   0,0123765	99,7	   0,0126733	102,8
     42,3856	   0,0123818	99,0	   0,0126726	97,5
     42,3876	    0,012547	97,0	   0,0125973	96,7
     42,3895	   0,0125364	95,8	   0,0126119	102,2
     42,3915	   0,0126182	100,2	   0,0125297	104,3
     42,3935	   0,0125357	102,0	   0,0124078	101,1
     42,3954	   0,0125046	101,0	   0,0128058	97,0
     42,3974	   0,0124904	99,6	   0,0127525	91,7
     42,3993	   0,0124952	101,4	   0,0127258	100,8
     42,4013	   0,0125378	101,3	   0,0128722	98,4
     42,4032	   0,0125595	100,9	   0,0128136	102,6
     42,4052	   0,0126253	103,3	   0,0129865	112,2
     42,4071	   0,0126632	103,6	   0,0132177	99,1
     42,4091	   0,0127465	99,6	   0,0130601	96,5
      42,411	   0,0126523	99,5	   0,0130092	108,6
      42,413	   0,0127937	105,7	   0,0131235	110,4
      42,415	   0,0128664	105,7	   0,0131567	101,5
     42,4169	   0,0128829	99,6	   0,0131197	102,8
     42,4189	   0,0129229	101,5	    0,013233	100,7
     42,4208	   0,0130117	104,3	   0,0131677	99,2
     42,4228	   0,0130522	103,4	   0,0133512	103,4
     42,4247	   0,0130306	101,7	   0,0135312	101,7
     42,4267	   0,0130722	104,9	   0,0134252	102,7
     42,4286	   0,0130836	101,3	   0,0135456	105,8
     42,4306	   0,0130994	102,0	   0,0136589	101,0
     42,4326	   0,0131522	103,9	   0,0135573	103,0
     42,4345	   0,0131887	104,8	   0,0135474	109,1
     42,4365	   0,0132434	99,8	   0,0135602	105,3
     42,4384	   0,0132106	103,1	   0,0133529	102,3
     42,4404	   0,0133178	105,1	   0,0134792	108,8
     42,4423	   0,0133152	105,0	   0,0136389	102,2
     42,4443	   0,0133581	102,0	   0,0137988	109,0
     42,4462	   0,0133764	100,7	   0,0138083	103,8
     42,4482	   0,0133547	106,0	   0,0138772	107,2
     42,4501	   0,0133984	106,1	   0,0139902	101,5
     42,4521	   0,0134604	105,3	   0,0139925	99,6
     42,4541	   0,0135812	102,7	   0,0141483	104,2
      42,456	    0,013639	106,4	   0,0140747	105,2
      42,458	   0,0138657	105,5	   0,0140721	107,5
     42,4599	   0,0138476	104,1	    0,013983	104,2
     42,4619	   0,0138712	105,0	    0,014044	102,4
     42,4638	   0,0138687	106,9	   0,0142429	103,8
     42,4658	   0,0139865	104,7	   0,0142548	99,2
     42,4677	   0,0139909	105,4	   0,0141162	103,6
     42,4697	   0,0139508	108,6	    0,014254	110,5
     42,4717	    0,014039	111,0	   0,0144291	107,5
     42,4736	   0,0140452	105,6	   0,0143438	105,4
     42,4756	   0,0141133	105,6	   0,0146143	106,0
     42,4775	   0,0141221	109,7	    0,014559	106,4
     42,4795	   0,0141315	109,4	   0,0146315	107,8
     42,4814	    0,014185	107,0	   0,0146158	104,7
     42,4834	   0,0141769	108,9	   0,0144742	104,1
     42,4853	   0,0142972	105,6	   0,0146265	110,0
     42,4873	    0,014369	108,5	   0,0147817	111,9
     42,4892	   0,0143827	107,6	   0,0147696	105,6
     42,4912	   0,0144628	107,3	   0,0149976	106,6
     42,4932	   0,0144613	109,3	   0,0150656	108,4
     42,4951	   0,0145207	107,0	   0,0148782	109,3
     42,4971	   0,0145737	106,5	   0,0150071	111,5
      42,499	   0,0146067	109,2	   0,0151268	108,1
      42,501	   0,0147024	107,8	   0,0150591	112,9
     42,5029	   0,0147829	107,8	   0,0151435	111,0
     42,5049	   0,0147955	107,6	   0,0151588	110,3
     42,5068	   0,0148112	109,4	   0,0153006	108,2
     42,5088	   0,0148749	111,3	   0,0153081	112,2
     42,5108	   0,0149497	108,2	   0,0154627	112,3
     42,5127	   0,0149642	107,3	   0,0153157	110,0
     42,5147	   0,0149875	112,0	   0,0154461	113,5
     42,5166	   0,0150566	112,0	   0,0154673	112,3
     42,5186	   0,0151011	109,0	   0,0154223	109,9
     42,5205	   0,0151099	108,7	   0,0156252	111,9
     42,5225	   0,0151596	111,5	   0,0157058	108,5
     42,5244	   0,0150828	111,6	    0,015662	110,8
     42,5264	   0,0152045	111,9	   0,0156888	109,9
     42,5283	   0,0151564	109,3	   0,0158784	112,6
     42,5303	   0,0152863	109,8	   0,0159291	109,1
     42,5323	   0,0153856	115,7	   0,0158353	114,8
     42,5342	   0,0154709	114,1	   0,0158318	114,4
     42,5362	   0,0155061	110,5	   0,0158596	112,4
     42,5381	   0,0155561	116,8	   0,0159484	118,8
     42,5401	   0,0156838	114,9	   0,0160237	117,3
      42,542	   0,0157261	113,3	    0,016046	112,0
      42,544	   0,0157449	112,9	   0,0161474	111,6
     42,5459	   0,0158057	113,6	   0,0161997	115,0
     42,5479	   0,0158493	113,7	   0,0162339	117,2
     42,5499	   0,0158076	113,8	   0,0162598	113,2
     42,5518	   0,0158002	115,1	   0,0165212	108,2
     42,5538	   0,0158678	117,4	   0,0165503	109,1
     42,5557	   0,0159814	116,8	   0,0165212	116,3
     42,5577	   0,0160388	117,6	   0,0166045	114,3
     42,5596	    0,016048	113,9	   0,0166125	110,5
     42,5616	   0,0161416	116,2	     0,01669	117,9
     42,5635	   0,0162105	119,4	   0,0167346	117,1
     42,5655	   0,0162109	115,4	   0,0165646	118,7
     42,5674	   0,0162645	115,5	   0,0166351	115,8
     42,5694	   0,0163432	119,9	   0,0167443	109,1
     42,5714	   0,0163829	120,9	   0,0167187	117,6
     42,5733	   0,0164811	117,4	   0,0168669	119,7
     42,5753	   0,0164581	116,3	   0,0169695	114,6
     42,5772	   0,0165075	119,9	   0,0169346	112,9
     42,5792	   0,0165495	119,0	   0,0170854	120,8
     42,5811	   0,0165646	119,2	    0,017232	120,4
     42,5831	    0,016585	119,2	   0,0172976	115,9
      42,585	   0,0167164	119,2	   0,0172904	120,5
      42,587	   0,0168041	120,8	    0,017469	119,7
      42,589	   0,0167814	118,9	   0,0172699	117,3
     42,5909	   0,0168096	117,7	   0,0174009	117,8
     42,5929	   0,0168522	120,5	    0,017473	112,7
     42,5948	   0,0169454	119,8	   0,0173528	119,9
     42,5968	   0,0170351	120,3	   0,0175734	125,2
     42,5987	   0,0171238	118,8	   0,0176041	121,2
     42,6007	   0,0171454	122,9	    0,017488	118,4
     42,6026	   0,0172094	122,1	   0,0176064	125,4
     42,6046	   0,0172627	120,4	   0,0177265	123,1
     42,6065	   0,0173127	118,9	   0,0175957	121,9
     42,6085	   0,0173002	122,7	   0,0176514	121,8
     42,6105	   0,0174035	122,3	   0,0177806	125,0
     42,6124	   0,0173958	123,2	   0,0178023	123,6
     42,6144	   0,0175199	121,3	   0,0179687	126,7
     42,6163	   0,0174554	122,8	   0,0179491	118,3
     42,6183	   0,0174532	125,4	   0,0177925	125,2
     42,6202	   0,0174992	121,3	   0,0179192	123,8
     42,6222	   0,0174844	122,4	   0,0177251	124,6
     42,6241	   0,0176442	122,0	   0,0179451	124,9
     42,6261	   0,0177062	125,3	   0,0181293	119,7
     42,6281	   0,0177176	126,4	   0,0181415	126,3
       42,63	    0,017757	120,6	   0,0182868	131,7
      42,632	   0,0177819	120,3	   0,0184858	123,2
     42,6339	   0,0178589	127,0	   0,0182816	123,0
     42,6359	   0,0178796	127,2	   0,0184508	129,6
     42,6378	   0,0178724	123,1	   0,0187298	129,6
     42,6398	   0,0178994	121,3	   0,0186497	126,5
     42,6417	   0,0179867	127,5	   0,0185689	129,0
     42,6437	   0,0180347	129,7	     0,01865	130,9
     42,6456	   0,0180923	125,2	   0,0186565	133,4
     42,6476	   0,0180624	125,8	   0,0184862	127,9
     42,6496	   0,0182284	129,0	    0,018691	126,4
     42,6515	   0,0182906	129,0	   0,0187562	123,2
     42,6535	    0,018311	131,5	   0,0187684	128,6
     42,6554	   0,0183419	126,0	   0,0189866	132,9
     42,6574	    0,018285	130,5	   0,0189681	128,7
     42,6593	   0,0183257	132,8	   0,0188269	133,2
     42,6613	   0,0184161	129,4	   0,0187181	129,9
     42,6632	   0,0184216	124,4	   0,0186433	131,5
     42,6652	   0,0184367	128,9	   0,0190051	130,5
     42,6672	   0,0185268	132,9	   0,0189892	126,9
     42,6691	    0,018607	130,8	   0,0191037	137,2
     42,6711	   0,0186891	127,5	   0,0189901	129,0
      42,673	   0,0187409	130,0	   0,0187767	133,7
      42,675	   0,0188286	131,9	   0,0190408	133,1
     42,6769	   0,0188743	131,3	   0,0189009	128,9
     42,6789	    0,018889	133,3	    0,018794	132,0
     42,6808	   0,0189107	130,3	   0,0189702	139,3
     42,6828	   0,0189321	132,4	   0,0191363	128,9
     42,6847	   0,0190717	132,5	   0,0190814	130,2
     42,6867	   0,0190118	138,0	   0,0194681	134,7
     42,6887	   0,0189802	133,9	   0,0195054	134,3
     42,6906	   0,0189742	133,4	    0,019538	133,2
     42,6926	   0,0189824	138,9	   0,0195315	136,6
     42,6945	   0,0190549	138,3	   0,0196088	131,5
     42,6965	   0,0191074	135,4	   0,0192198	133,5
     42,6984	   0,0191955	135,9	   0,0192254	145,3
     42,7004	   0,0192087	138,0	   0,0191694	136,8
     42,7023	   0,0192636	138,8	   0,0192615	137,3
     42,7043	   0,0192675	132,7	   0,0194635	141,3
     42,7063	   0,0192425	135,1	   0,0193231	138,1
     42,7082	   0,0192179	139,1	   0,0193699	138,7
     42,7102	    0,019257	141,0	   0,0195924	140,2
     42,7121	   0,0193197	137,4	   0,0196981	138,5
     42,7141	   0,0193902	136,7	   0,0195985	141,1
      42,716	   0,0194545	138,4	   0,0197432	146,1
      42,718	   0,0194921	140,3	   0,0198002	142,8
     42,7199	   0,0195229	139,8	   0,0195711	133,6
     42,7219	   0,0195396	139,9	   0,0196016	140,2
     42,7239	   0,0195818	139,3	   0,0196031	139,4
     42,7258	   0,0196111	142,4	   0,0196565	143,7
     42,7278	   0,0196342	142,6	   0,0199327	141,2
     42,7297	   0,0196371	142,3	   0,0200327	139,6
     42,7317	   0,0196492	140,6	   0,0199526	146,0
     42,7336	   0,0196907	141,9	   0,0200974	148,1
     42,7356	   0,0197676	145,0	   0,0199703	139,3
     42,7375	   0,0197331	144,4	     0,01976	141,7
     42,7395	   0,0198141	140,6	   0,0200428	149,1
     42,7414	   0,0197659	141,9	   0,0198893	141,9
     42,7434	   0,0197276	144,9	   0,0201438	146,5
     42,7454	    0,019766	147,0	   0,0198623	143,4
     42,7473	   0,0197658	141,0	   0,0199888	150,4
     42,7493	   0,0198211	143,0	   0,0198609	144,7
     42,7512	   0,0197934	142,5	   0,0198942	143,8
     42,7532	   0,0198696	146,5	    0,020033	151,5
     42,7551	   0,0197794	149,8	   0,0198807	145,7
     42,7571	   0,0198556	145,9	   0,0200158	151,5
      42,759	     0,01994	144,8	   0,0199575	141,8
      42,761	   0,0199122	149,1	   0,0198942	147,2
      42,763	   0,0199388	149,9	   0,0200925	147,3
     42,7649	   0,0199695	148,9	   0,0200708	146,3
     42,7669	   0,0200124	148,0	   0,0199819	151,9
     42,7688	   0,0200396	144,7	   0,0202366	155,8
     42,7708	   0,0199941	149,4	   0,0199154	146,5
     42,7727	   0,0200561	149,6	   0,0198519	153,4
     42,7747	   0,0200468	147,9	   0,0200702	149,5
     42,7766	   0,0200223	149,0	   0,0196704	148,8
     42,7786	   0,0199976	150,4	   0,0198295	156,5
     42,7805	   0,0199689	152,5	   0,0199116	150,6
     42,7825	   0,0199779	150,8	   0,0197865	144,6
     42,7845	   0,0199637	149,5	   0,0200623	158,3
     42,7864	   0,0199294	149,1	   0,0197749	150,9
     42,7884	   0,0199563	148,7	   0,0197599	155,1
     42,7903	    0,020043	153,3	   0,0198008	149,3
     42,7923	   0,0200472	150,9	   0,0196872	147,7
     42,7942	   0,0200273	150,3	   0,0198593	151,9
     42,7962	   0,0199828	149,3	   0,0199737	155,9
     42,7981	   0,0200222	153,9	   0,0199216	151,5
     42,8001	   0,0199296	153,8	    0,020145	153,6
     42,8021	   0,0199482	152,3	   0,0200974	151,1
      42,804	    0,019841	153,7	   0,0199063	156,1
      42,806	   0,0198824	154,7	   0,0199259	160,0
     42,8079	   0,0199267	155,8	   0,0197071	150,9
     42,8099	   0,0199822	155,3	    0,019781	159,0
     42,8118	   0,0200276	151,7	   0,0200056	151,7
     42,8138	   0,0199618	152,1	   0,0200252	153,0
     42,8157	   0,0199964	153,8	    0,020019	160,9
     42,8177	   0,0200877	158,2	   0,0197041	151,8
     42,8196	   0,0199865	159,6	   0,0198161	163,5
     42,8216	   0,0198526	156,7	    0,019942	159,6
     42,8236	   0,0198278	155,8	   0,0198178	162,0
     42,8255	   0,0197709	160,3	   0,0199009	161,1
     42,8275	   0,0197855	160,9	   0,0196171	159,2
     42,8294	   0,0197654	164,3	    0,019543	159,8
     42,8314	   0,0198231	157,9	   0,0194828	156,7
     42,8333	   0,0197897	156,5	   0,0194801	161,1
     42,8353	   0,0197544	158,9	   0,0196981	167,1
     42,8372	   0,0197635	161,3	   0,0195814	156,6
     42,8392	   0,0197053	160,6	   0,0195565	163,0
     42,8412	   0,0197252	159,9	   0,0193659	157,6
     42,8431	   0,0196472	160,2	   0,0192422	159,3
     42,8451	   0,0196432	159,6	   0,0194862	167,1
      42,847	   0,0196433	165,2	   0,0193864	156,5
      42,849	   0,0196236	164,4	   0,0196224	163,9
     42,8509	    0,019509	163,0	   0,0195914	161,7
     42,8529	   0,0195246	159,3	   0,0193109	160,9
     42,8548	   0,0195319	166,5	   0,0192501	164,7
     42,8568	   0,0195484	163,4	   0,0192186	158,8
     42,8587	   0,0195026	161,6	   0,0194385	162,8
     42,8607	   0,0195143	161,5	   0,0193963	161,6
     42,8627	   0,0194728	162,6	   0,0193014	165,4
     42,8646	   0,0193961	163,7	   0,0192809	167,9
     42,8666	   0,0193968	165,4	   0,0191825	164,4
     42,8685	   0,0193316	165,4	   0,0189893	166,0
     42,8705	   0,0193603	164,2	   0,0190881	168,0
     42,8724	   0,0193638	162,4	   0,0189308	162,5
     42,8744	    0,019332	166,7	   0,0188815	167,0
     42,8763	   0,0192653	166,9	    0,018996	174,1
     42,8783	   0,0192414	170,1	   0,0188975	162,6
     42,8803	   0,0192055	165,5	   0,0189997	168,9
     42,8822	   0,0191836	165,7	   0,0189438	162,7
     42,8842	   0,0191597	169,1	   0,0190143	166,2
     42,8861	   0,0191891	170,2	   0,0190617	168,5
     42,8881	   0,0190811	170,9	   0,0188833	165,1
       42,89	   0,0190444	166,6	   0,0189911	168,2
      42,892	   0,0190325	167,5	   0,0187199	170,4
     42,8939	   0,0190439	166,2	   0,0187148	170,7
     42,8959	   0,0189791	172,0	   0,0185852	171,4
     42,8979	   0,0189456	173,1	   0,0185055	168,3
     42,8998	   0,0188728	168,1	   0,0184748	163,2
     42,9018	   0,0189006	167,4	   0,0186879	165,8
     42,9037	   0,0188623	171,5	   0,0184299	171,4
     42,9057	   0,0188304	171,2	   0,0185142	173,6
     42,9076	   0,0188063	171,1	   0,0183319	167,7
     42,9096	   0,0188287	171,1	   0,0185169	171,2
     42,9115	   0,0187513	168,3	    0,018417	168,1
     42,9135	   0,0187417	167,9	    0,018453	171,3
     42,9154	   0,0186624	172,8	   0,0183209	175,7
     42,9174	   0,0185279	173,9	   0,0180967	172,6
     42,9194	   0,0185815	172,0	   0,0181165	173,7
     42,9213	   0,0185743	171,4	   0,0179884	172,1
     42,9233	   0,0185778	172,8	   0,0178295	170,8
     42,9252	   0,0185046	175,2	    0,017908	180,9
     42,9272	   0,0184477	174,5	   0,0180119	176,9
     42,9291	   0,0183488	175,7	   0,0179743	170,7
     42,9311	   0,0182862	176,8	   0,0181541	175,2
      42,933	   0,0182703	175,5	   0,0180606	174,9
      42,935	   0,0182561	174,0	   0,0179482	175,0
      42,937	    0,018136	178,1	   0,0178669	178,7
     42,9389	   0,0181961	176,5	   0,0177304	171,5
     42,9409	   0,0181362	174,7	   0,0177948	175,8
     42,9428	   0,0182047	173,5	    0,017857	176,2
     42,9448	   0,0181276	176,1	   0,0178669	171,5
     42,9467	   0,0180744	176,6	   0,0178847	174,8
     42,9487	   0,0178472	177,1	   0,0177114	181,4
     42,9506	   0,0178671	174,0	   0,0176442	170,1
     42,9526	   0,0179059	173,7	   0,0176077	176,8
     42,9545	    0,017845	173,1	   0,0175964	174,6
     42,9565	   0,0177748	178,9	   0,0176192	180,5
     42,9585	     0,01774	179,3	   0,0174685	177,0
     42,9604	   0,0176865	177,1	   0,0172544	180,7
     42,9624	   0,0176816	175,2	   0,0173225	180,1
     42,9643	    0,017651	176,7	   0,0172921	176,2
     42,9663	   0,0176032	178,2	    0,017333	178,1
     42,9682	   0,0175879	181,9	   0,0174987	180,2
     42,9702	   0,0174375	181,0	   0,0172714	177,7
     42,9721	   0,0173931	175,9	   0,0173056	179,9
     42,9741	   0,0173746	179,2	   0,0171748	175,8
     42,9761	   0,0172834	179,4	   0,0170475	178,8
      42,978	   0,0172843	184,5	   0,0170622	176,0
       42,98	   0,0173093	181,6	   0,0170178	176,8
     42,9819	   0,0171877	182,5	    0,017044	186,0
     42,9839	   0,0172061	178,7	   0,0168421	177,4
     42,9858	   0,0171141	178,7	   0,0167773	182,2
     42,9878	    0,017068	176,5	   0,0168179	183,4
     42,9897	    0,017108	180,1	     0,01672	178,3
     42,9917	   0,0170873	180,1	   0,0169308	180,8
     42,9936	   0,0168933	182,3	     0,01688	187,9
     42,9956	   0,0168275	181,7	   0,0167616	184,6
     42,9976	   0,0168093	182,7	   0,0166163	184,9
     42,9995	   0,0167761	184,6	   0,0165392	179,8
     43,0015	   0,0167073	185,9	   0,0165322	182,6
     43,0034	   0,0167049	186,9	   0,0164686	183,5
     43,0054	   0,0166052	183,0	   0,0163945	180,0
     43,0073	    0,016576	182,4	   0,0163415	176,4
     43,0093	   0,0164982	185,0	   0,0162668	177,8
     43,0112	   0,0164914	185,3	   0,0162684	179,3
     43,0132	    0,016448	185,0	   0,0161396	181,7
     43,0152	   0,0164158	184,8	   0,0160178	187,1
     43,0171	    0,016368	182,8	   0,0160135	185,5
     43,0191	   0,0163569	180,0	   0,0161026	186,2
      43,021	   0,0163431	184,8	   0,0160157	178,9
      43,023	   0,0163009	183,5	   0,0160246	184,3
     43,0249	   0,0162912	185,7	   0,0160438	190,4
     43,0269	   0,0161748	189,5	   0,0158572	189,0
     43,0288	   0,0160622	183,2	    0,015842	186,8
     43,0308	   0,0160272	183,1	   0,0157839	184,3
     43,0327	   0,0159538	188,6	   0,0157537	179,8
     43,0347	     0,01589	190,1	   0,0156661	181,4
     43,0367	   0,0159997	188,7	   0,0155423	187,7
     43,0386	   0,0159742	188,5	   0,0154081	186,3
     43,0406	   0,0158744	188,0	   0,0156019	189,2
     43,0425	   0,0157459	187,3	   0,0157585	186,3
     43,0445	   0,0157439	187,2	   0,0156141	183,6
     43,0464	   0,0157114	189,4	   0,0154734	186,5
     43,0484	   0,0156715	190,1	   0,0153106	188,6
     43,0503	   0,0156671	186,5	   0,0151457	188,7
     43,0523	    0,015635	186,6	   0,0153686	189,1
     43,0543	   0,0154978	187,9	   0,0152534	184,7
     43,0562	   0,0154548	190,4	    0,015178	188,0
     43,0582	   0,0153958	190,8	   0,0151993	186,7
     43,0601	   0,0153137	193,8	   0,0151277	186,7
     43,0621	   0,0152581	190,2	   0,0150639	190,3
      43,064	    0,015283	189,3	   0,0150993	190,6
      43,066	   0,0152338	189,6	   0,0149611	189,4
     43,0679	   0,0152871	188,3	   0,0148986	189,1
     43,0699	    0,015224	193,2	   0,0150586	190,2
     43,0718	   0,0152382	191,6	   0,0151014	191,6
     43,0738	   0,0151088	189,0	   0,0150246	190,8
     43,0758	   0,0150239	190,2	   0,0148143	192,7
     43,0777	   0,0150063	191,7	   0,0148016	195,9
     43,0797	   0,0149264	189,8	   0,0147222	190,9
     43,0816	   0,0148963	190,8	   0,0147552	190,6
     43,0836	   0,0148868	191,7	   0,0147397	194,0
     43,0855	   0,0148949	195,4	   0,0146303	190,6
     43,0875	   0,0148695	193,0	   0,0144767	192,4
     43,0894	   0,0147429	191,9	   0,0146005	193,9
     43,0914	   0,0146827	190,7	    0,014511	192,5
     43,0934	    0,014623	196,0	    0,014442	187,3
     43,0953	   0,0146386	195,6	   0,0144565	190,0
     43,0973	   0,0145285	192,6	   0,0145133	191,4
     43,0992	   0,0144904	192,7	   0,0144812	193,6
     43,1012	   0,0144378	192,0	   0,0143338	195,4
     43,1031	   0,0144833	190,7	   0,0142262	193,5
     43,1051	    0,014421	194,5	    0,014118	191,9
      43,107	   0,0143371	195,1	   0,0142273	192,4
      43,109	   0,0143697	195,3	   0,0142934	192,8
     43,1109	   0,0143339	193,1	   0,0142374	192,6
     43,1129	    0,014277	194,3	    0,014105	196,9
     43,1149	   0,0141653	194,1	   0,0140521	196,6
     43,1168	   0,0140717	194,4	   0,0140355	194,6
     43,1188	   0,0140486	197,5	   0,0142514	193,4
     43,1207	   0,0140513	199,0	   0,0140303	193,3
     43,1227	   0,0140215	196,5	   0,0138706	196,9
     43,1246	   0,0140357	196,2	   0,0140049	195,3
     43,1266	   0,0139238	193,7	   0,0138835	-159,9
     43,1285	    0,013806	194,6	   0,0136294	-165,8
     43,1305	     0,01383	196,7	   0,0135869	-164,6
     43,1325	    0,013703	198,5	   0,0135629	-168,0
     43,1344	   0,0136597	192,5	   0,0135225	-165,8
     43,1364	   0,0136313	196,5	   0,0136547	-167,3
     43,1383	   0,0136158	198,0	   0,0137441	-161,6
     43,1403	   0,0137314	-159,7	   0,0135963	-163,3
     43,1422	   0,0136858	-165,6	   0,0134397	-166,1
     43,1442	   0,0136722	-158,4	   0,0133197	-164,2
     43,1461	   0,0136226	-160,7	   0,0131401	-164,2
     43,1481	   0,0134532	-162,2	    0,013234	-162,7
       43,15	   0,0134566	-163,7	    0,013172	-158,2
      43,152	   0,0133473	-164,8	   0,0131364	-160,8
      43,154	   0,0133548	-165,8	   0,0131943	-161,8
     43,1559	   0,0133659	-159,7	   0,0132261	-164,2
     43,1579	    0,013361	-159,9	   0,0131843	-166,5
     43,1598	   0,0132511	-159,4	   0,0131962	-165,5
     43,1618	   0,0132556	-163,0	   0,0130964	-164,6
     43,1637	   0,0131136	-161,6	   0,0131509	-162,1
     43,1657	   0,0130505	-161,8	   0,0131118	-159,4
     43,1676	   0,0130048	-163,6	   0,0129642	-159,0
     43,1696	   0,0130016	-160,6	   0,0129448	-158,5
     43,1716	   0,0130593	-159,6	   0,0128542	-162,8
     43,1735	   0,0129494	-161,5	   0,0127865	-161,9
     43,1755	   0,0129883	-160,1	   0,0127715	-161,8
     43,1774	   0,0129499	-164,7	   0,0128155	-164,5
     43,1794	   0,0128693	-162,5	   0,0128368	-161,0
     43,1813	   0,0128157	-159,2	   0,0127798	-157,9
     43,1833	   0,0127411	-157,3	    0,012707	-162,7
     43,1852	   0,0127755	-160,1	   0,0127017	-160,3
     43,1872	    0,012716	-157,5	   0,0125821	-162,2
     43,1891	   0,0126147	-157,8	   0,0124535	-163,1
     43,1911	   0,0125452	-162,1	   0,0124673	-157,2
     43,1931	   0,0125838	-161,6	   0,0124626	-156,6
      43,195	   0,0126345	-158,7	   0,0124125	-159,0
      43,197	   0,0125645	-159,4	   0,0124471	-157,1
     43,1989	    0,012513	-156,6	   0,0124119	-161,4
     43,2009	   0,0124851	-159,4	   0,0123129	-162,5
     43,2028	   0,0124248	-156,0	   0,0123621	-160,2
     43,2048	   0,0123681	-159,6	   0,0123486	-156,4
     43,2067	   0,0123606	-159,7	   0,0123263	-156,1
     43,2087	   0,0123338	-156,2	    0,012285	-157,0
     43,2107	   0,0123303	-157,4	   0,0122292	-157,6
     43,2126	   0,0122521	-155,5	   0,0121925	-158,9
     43,2146	   0,0122268	-157,8	   0,0120015	-162,1
     43,2165	   0,0122023	-163,2	   0,0119674	-163,6
     43,2185	    0,012095	-159,4	   0,0119643	-157,6
     43,2204	   0,0119936	-159,2	   0,0119012	-159,7
     43,2224	    0,011979	-159,1	   0,0118803	-157,1
     43,2243	   0,0120247	-156,7	   0,0119208	-155,2
     43,2263	   0,0119902	-155,4	   0,0118625	-158,7
     43,2282	   0,0118902	-155,1	   0,0117477	-158,1
     43,2302	   0,0118468	-154,3	   0,0117133	-157,3
     43,2322	   0,0118152	-158,6	   0,0117885	-158,2
     43,2341	   0,0118318	-159,0	    0,011858	-153,0
     43,2361	   0,0117925	-156,6	   0,0118266	-157,6
      43,238	   0,0117251	-156,4	   0,0118091	-158,9
       43,24	   0,0117256	-156,0	   0,0117925	-156,9
     43,2419	   0,0116644	-152,1	   0,0116713	-161,6
     43,2439	   0,0115798	-155,3	   0,0115623	-159,4
     43,2458	   0,0115387	-156,0	   0,0114493	-157,8
     43,2478	    0,011486	-156,1	   0,0114677	-155,5
     43,2498	    0,011526	-154,5	   0,0113513	-150,9
     43,2517	   0,0115636	-158,1	    0,011431	-153,5
     43,2537	   0,0115786	-155,0	   0,0114061	-156,2
     43,2556	   0,0114458	-153,8	   0,0114132	-156,8
     43,2576	   0,0113526	-155,3	   0,0113398	-157,9
     43,2595	   0,0113311	-158,1	   0,0112913	-158,9
     43,2615	   0,0113647	-157,9	   0,0112565	-155,6
     43,2634	   0,0113232	-157,1	   0,0111855	-153,8
     43,2654	   0,0113042	-153,8	   0,0111838	-154,3
     43,2673	   0,0112904	-155,0	   0,0111391	-151,1
     43,2693	   0,0112617	-152,5	   0,0110636	-154,0
     43,2713	   0,0113044	-154,9	   0,0110425	-156,0
     43,2732	   0,0112171	-154,9	   0,0109797	-155,8
     43,2752	   0,0111504	-155,5	   0,0110167	-159,2
     43,2771	   0,0111273	-157,5	   0,0110512	-155,1
     43,2791	   0,0110124	-157,4	   0,0110378	-155,0
      43,281	   0,0110827	-154,7	   0,0109832	-153,2
      43,283	   0,0110597	-152,4	   0,0109096	-150,8
     43,2849	   0,0110487	-152,6	   0,0109187	-152,5
     43,2869	   0,0109792	-150,7	   0,0109799	-154,6
     43,2889	    0,010955	-151,6	   0,0109311	-157,8
     43,2908	   0,0108916	-156,7	   0,0108864	-157,6
     43,2928	   0,0108474	-156,5	   0,0107974	-155,8
     43,2947	   0,0108436	-155,8	   0,0106924	-156,0
     43,2967	   0,0107898	-154,0	    0,010685	-152,2
     43,2986	   0,0107443	-151,7	   0,0107192	-151,0
     43,3006	    0,010715	-149,9	   0,0107287	-150,7
     43,3025	   0,0106826	-148,7	   0,0106596	-155,3
     43,3045	   0,0106009	-150,0	    0,010606	-156,2
     43,3064	   0,0106481	-156,5	   0,0105687	-153,8
     43,3084	   0,0106502	-154,2	   0,0105558	-155,1
     43,3104	    0,010666	-156,1	    0,010477	-151,2
     43,3123	   0,0106073	-155,1	    0,010493	-150,5
     43,3143	   0,0105643	-152,0	   0,0105163	-152,2
     43,3162	   0,0105047	-151,8	   0,0105001	-149,6
     43,3182	   0,0104781	-148,3	   0,0104013	-153,8
     43,3201	   0,0103846	-150,0	    0,010336	-151,7
     43,3221	   0,0103688	-151,3	   0,0102976	-153,0
      43,324	    0,010267	-153,1	   0,0102722	-152,8
      43,326	   0,0102697	-156,1	   0,0102801	-156,1
      43,328	    0,010313	-152,6	   0,0101704	-150,5
     43,3299	   0,0102915	-153,9	   0,0101336	-149,8
     43,3319	   0,0102564	-151,8	   0,0101102	-150,8
     43,3338	   0,0102252	-147,5	   0,0100938	-148,1
     43,3358	   0,0101589	-149,2	   0,0100693	-153,6
     43,3377	   0,0101883	-149,6	   0,0101151	-153,5
     43,3397	   0,0101025	-150,8	    0,010143	-150,5
     43,3416	   0,0100844	-153,0	   0,0102443	-155,8
     43,3436	   0,0102185	-154,5	   0,0101217	-150,4
     43,3456	   0,0102132	-154,2	   0,0100534	-151,8
     43,3475	    0,010163	-152,4	   0,0100195	-151,7
     43,3495	   0,0100816	-147,3	  0,00993635	-148,3
     43,3514	   0,0100356	-147,5	  0,00987435	-148,9
     43,3534	  0,00989652	-148,2	  0,00992841	-151,1
     43,3553	   0,0098656	-150,9	  0,00992861	-151,8
     43,3573	   0,0098534	-152,5	  0,00989845	-154,2
     43,3592	  0,00982875	-153,4	   0,0098834	-150,4
     43,3612	  0,00990135	-152,9	  0,00981148	-151,0
     43,3631	   0,0098598	-151,9	  0,00975803	-150,8
     43,3651	  0,00988063	-152,0	  0,00971278	-147,6
     43,3671	  0,00978806	-147,4	  0,00964825	-151,8
      43,369	  0,00975786	-147,9	  0,00972241	-149,5
      43,371	  0,00972279	-148,3	  0,00967754	-149,5
     43,3729	  0,00962226	-149,7	  0,00973696	-152,4
     43,3749	  0,00966126	-153,2	  0,00961578	-150,0
     43,3768	  0,00966492	-154,0	    0,009594	-150,3
     43,3788	  0,00962903	-150,6	  0,00958348	-149,6
     43,3807	  0,00959745	-149,3	  0,00957057	-148,0
     43,3827	  0,00947718	-146,4	  0,00953182	-146,9
     43,3847	  0,00943315	-146,4	  0,00944573	-148,4
     43,3866	  0,00948057	-148,8	  0,00947067	-149,3
     43,3886	  0,00953604	-148,5	  0,00932013	-152,7
     43,3905	  0,00950961	-150,5	  0,00933649	-152,4
     43,3925	  0,00943712	-150,8	  0,00937173	-151,9
     43,3944	   0,0093689	-152,3	  0,00935789	-149,0
     43,3964	  0,00933425	-150,6	  0,00930703	-149,4
     43,3983	   0,0093419	-144,9	  0,00925609	-147,3
     43,4003	   0,0092413	-147,8	   0,0091966	-144,7
     43,4022	  0,00926756	-145,7	  0,00922506	-145,9
     43,4042	  0,00930582	-146,9	  0,00925619	-149,7
     43,4062	  0,00924905	-146,5	  0,00926366	-149,2
     43,4081	  0,00919619	-147,5	  0,00915382	-152,2
     43,4101	  0,00915574	-150,8	  0,00904821	-150,8
      43,412	  0,00913197	-148,7	  0,00912405	-146,7
      43,414	  0,00907626	-148,8	  0,00913011	-146,6
     43,4159	  0,00905149	-148,6	  0,00911435	-145,8
     43,4179	  0,00913456	-146,7	  0,00911682	-147,1
     43,4198	  0,00922045	-148,7	  0,00906175	-147,1
     43,4218	  0,00911553	-148,1	  0,00897321	-150,9
     43,4238	  0,00904957	-147,0	  0,00898718	-148,8
     43,4257	  0,00906847	-145,2	  0,00893626	-150,3
     43,4277	  0,00905596	-147,6	   0,0089443	-148,9
     43,4296	  0,00901356	-145,7	  0,00892805	-146,2
     43,4316	  0,00891548	-146,4	  0,00885107	-147,1
     43,4335	  0,00895293	-150,5	  0,00887217	-144,8
     43,4355	  0,00894777	-149,0	  0,00880069	-144,9
     43,4374	  0,00885079	-149,7	  0,00871918	-149,1
     43,4394	  0,00881043	-146,0	  0,00871818	-147,8
     43,4413	  0,00875752	-145,4	   0,0087523	-147,9
     43,4433	  0,00874097	-146,2	  0,00877905	-148,4
     43,4453	   0,0087781	-146,2	  0,00875612	-147,4
     43,4472	  0,00872791	-146,7	  0,00867407	-147,5
     43,4492	   0,0087514	-146,8	  0,00871853	-149,0
     43,4511	  0,00875545	-148,7	  0,00873329	-146,0
     43,4531	  0,00864636	-146,3	  0,00867638	-147,9
      43,455	  0,00856911	-145,2	  0,00870882	-146,0
      43,457	  0,00855439	-147,1	  0,00862784	-143,6
     43,4589	  0,00855417	-144,3	  0,00854273	-145,4
     43,4609	  0,00856522	-146,9	  0,00863462	-145,5
     43,4629	  0,00861746	-146,9	  0,00854092	-147,3
     43,4648	  0,00862401	-143,9	  0,00844961	-150,7
     43,4668	  0,00859108	-148,2	  0,00843433	-147,1
     43,4687	  0,00856641	-144,9	  0,00834047	-149,7
     43,4707	  0,00848956	-149,7	  0,00840662	-143,8
     43,4726	  0,00840355	-145,2	  0,00839422	-144,4
     43,4746	  0,00838342	-147,2	  0,00842261	-143,4
     43,4765	  0,00837813	-148,0	  0,00843249	-144,5
     43,4785	  0,00834732	-149,0	  0,00840151	-145,1
     43,4804	  0,00837923	-145,8	  0,00839935	-146,4
     43,4824	  0,00836673	-143,5	  0,00832518	-143,6
     43,4844	  0,00831974	-142,3	  0,00834539	-147,8
     43,4863	  0,00836788	-141,5	  0,00823367	-145,2
     43,4883	  0,00824179	-146,0	  0,00820949	-146,0
     43,4902	  0,00833621	-145,6	   0,0081747	-147,8
     43,4922	  0,00830386	-147,7	  0,00822362	-143,6
     43,4941	  0,00819622	-147,3	  0,00818717	-148,8
     43,4961	  0,00821878	-144,7	  0,00815903	-144,6
      43,498	  0,00812003	-145,6	   0,0081422	-142,4
        43,5	  0,00820641	-144,3	  0,00811592	-142,9

