X-Data [Hz]	Laser (M - Filtered) [m/s]	Phase [Deg]	Laser (M - Filtered) [m/s]	Phase [Deg]	
	003: [06-04-24 20:36]		006: [06-04-24 20:42]	
         100	  0,00540868	67,6	  0,00667461	69,7
     100,108	  0,00594859	64,5	  0,00612541	65,0
     100,215	  0,00581032	67,8	  0,00606672	67,0
     100,323	  0,00604571	70,9	  0,00631091	67,2
      100,43	  0,00637704	68,6	  0,00630597	64,8
     100,538	  0,00610602	69,8	  0,00633774	69,5
     100,645	  0,00630459	66,5	  0,00607918	68,5
     100,753	   0,0065969	67,7	  0,00617529	71,0
      100,86	  0,00597875	71,6	  0,00682514	65,9
     100,968	  0,00616178	65,6	  0,00641816	65,0
     101,075	  0,00640582	67,9	  0,00609101	70,4
     101,183	  0,00640662	67,5	  0,00658417	66,2
      101,29	  0,00643623	68,6	  0,00636858	68,2
     101,398	  0,00636397	65,6	  0,00602923	68,3
     101,505	  0,00650858	70,2	  0,00658934	65,7
     101,613	  0,00635052	67,9	  0,00648215	65,9
      101,72	  0,00608067	64,6	  0,00653842	70,4
     101,828	  0,00624915	69,5	  0,00642344	65,8
     101,935	  0,00672422	68,4	  0,00671056	66,1
     102,043	  0,00613273	67,5	  0,00619836	69,1
     102,151	  0,00669211	66,5	  0,00652323	65,9
     102,258	   0,0066146	64,7	  0,00636513	66,0
     102,366	  0,00663185	64,3	  0,00659512	66,6
     102,473	  0,00635854	68,0	  0,00681768	68,2
     102,581	  0,00682869	65,1	  0,00622018	65,9
     102,688	  0,00671395	67,6	  0,00624402	65,2
     102,796	   0,0068011	65,9	  0,00663977	62,4
     102,903	  0,00662054	66,4	  0,00667379	64,9
     103,011	  0,00690466	66,9	  0,00685182	64,8
     103,118	  0,00685122	67,6	  0,00659082	65,2
     103,226	  0,00654684	65,6	  0,00692365	64,4
     103,333	   0,0062068	67,5	  0,00653527	64,8
     103,441	  0,00659455	62,7	  0,00694415	64,3
     103,548	  0,00746196	61,5	  0,00670752	65,1
     103,656	  0,00730448	68,8	  0,00707199	64,9
     103,763	   0,0074155	72,0	  0,00719535	66,1
     103,871	  0,00666099	70,4	  0,00685166	64,5
     103,978	  0,00668539	64,5	  0,00666054	62,2
     104,086	  0,00730696	69,1	  0,00697552	71,0
     104,194	  0,00644225	65,0	  0,00724165	67,7
     104,301	  0,00667456	60,6	  0,00741479	67,0
     104,409	  0,00735899	64,5	  0,00703641	64,5
     104,516	  0,00672634	69,1	  0,00728792	66,9
     104,624	  0,00722058	67,4	  0,00699281	66,8
     104,731	  0,00749471	65,6	  0,00715654	66,3
     104,839	   0,0069244	65,4	  0,00732657	66,1
     104,946	  0,00706604	64,8	  0,00709506	66,7
     105,054	  0,00687579	65,1	   0,0071496	68,3
     105,161	  0,00739256	64,7	  0,00726987	64,8
     105,269	  0,00695113	64,8	  0,00711736	65,2
     105,376	  0,00770491	65,3	  0,00715588	63,2
     105,484	  0,00721903	70,8	  0,00739604	62,8
     105,591	   0,0074431	71,6	  0,00751962	64,6
     105,699	  0,00763737	67,9	  0,00693891	67,0
     105,806	  0,00694466	64,6	  0,00720071	66,5
     105,914	  0,00733172	63,7	  0,00710248	65,0
     106,022	  0,00734341	68,0	  0,00717062	62,3
     106,129	  0,00784741	65,0	   0,0073623	67,9
     106,237	  0,00754655	67,3	  0,00744924	66,9
     106,344	  0,00749849	70,8	   0,0073976	65,4
     106,452	  0,00765955	68,9	  0,00768839	65,2
     106,559	  0,00786217	68,9	  0,00768396	64,4
     106,667	  0,00750362	67,9	  0,00737268	64,8
     106,774	  0,00740133	64,0	  0,00776897	69,6
     106,882	  0,00799638	65,5	  0,00811178	67,7
     106,989	  0,00766655	66,5	  0,00749266	64,2
     107,097	  0,00765374	64,8	   0,0074018	66,8
     107,204	  0,00767699	66,3	  0,00781283	62,3
     107,312	   0,0078863	65,9	  0,00774076	64,9
     107,419	  0,00747447	64,0	  0,00778789	64,6
     107,527	   0,0079184	66,9	  0,00770769	65,4
     107,634	  0,00787716	66,6	  0,00757672	64,9
     107,742	  0,00794495	66,1	  0,00813379	64,4
     107,849	  0,00799177	64,1	  0,00741125	63,5
     107,957	  0,00787802	63,6	  0,00827088	67,9
     108,065	  0,00809105	67,2	  0,00807954	68,7
     108,172	   0,0079488	63,5	  0,00809755	63,9
      108,28	  0,00771069	67,5	  0,00839532	68,0
     108,387	  0,00866415	65,6	  0,00813772	63,2
     108,495	  0,00830732	63,3	   0,0081441	68,3
     108,602	  0,00798744	58,3	  0,00824755	62,6
      108,71	  0,00817075	67,8	   0,0083434	63,8
     108,817	  0,00824683	66,3	   0,0086567	68,4
     108,925	  0,00835548	66,3	  0,00839797	65,6
     109,032	  0,00819058	65,3	  0,00820192	66,9
      109,14	  0,00828208	67,0	  0,00816736	65,3
     109,247	  0,00805428	64,5	   0,0085012	65,9
     109,355	  0,00847177	66,0	  0,00855683	64,2
     109,462	  0,00817936	64,8	  0,00859968	64,6
      109,57	  0,00853643	65,5	  0,00853744	66,0
     109,677	  0,00833391	66,6	  0,00870883	66,2
     109,785	  0,00863165	64,9	   0,0083576	62,5
     109,892	  0,00874858	68,0	  0,00819116	61,9
         110	  0,00875169	64,0	  0,00857587	69,5
     110,108	  0,00870856	64,4	  0,00889424	66,8
     110,215	  0,00830675	62,2	  0,00848803	59,5
     110,323	  0,00860698	61,4	  0,00873979	66,9
      110,43	  0,00859432	66,0	  0,00846313	61,7
     110,538	  0,00885222	64,0	  0,00905828	67,6
     110,645	  0,00889898	62,6	    0,009085	67,9
     110,753	  0,00869636	64,3	  0,00895311	65,8
      110,86	  0,00871499	62,8	  0,00889483	65,1
     110,968	  0,00908544	62,7	  0,00880125	63,7
     111,075	  0,00919751	65,7	  0,00909499	66,1
     111,183	  0,00914826	66,0	  0,00915698	64,0
      111,29	  0,00974127	66,8	  0,00922407	64,9
     111,398	  0,00965467	63,2	  0,00925328	65,3
     111,505	  0,00930011	66,1	  0,00948166	64,5
     111,613	   0,0092985	63,0	  0,00915667	64,7
      111,72	  0,00926405	65,7	  0,00906495	64,7
     111,828	  0,00946121	64,8	  0,00940023	64,4
     111,935	  0,00948656	66,0	  0,00939793	65,5
     112,043	  0,00978878	65,5	   0,0095404	65,5
     112,151	  0,00977203	66,4	  0,00952818	62,5
     112,258	  0,00970699	66,4	  0,00980123	62,8
     112,366	  0,00979208	65,4	  0,00976624	65,7
     112,473	  0,00972874	63,5	  0,00944655	63,9
     112,581	  0,00953473	61,9	    0,010009	65,3
     112,688	   0,0097334	63,8	  0,00999639	65,8
     112,796	  0,00957839	62,6	  0,00978861	63,0
     112,903	  0,00996263	63,9	  0,00989608	63,4
     113,011	   0,0101063	65,1	   0,0100322	63,8
     113,118	   0,0099781	60,7	  0,00973366	60,6
     113,226	   0,0100788	64,1	   0,0100838	64,0
     113,333	    0,010049	64,2	  0,00998914	64,4
     113,441	  0,00979115	62,9	   0,0100485	64,2
     113,548	    0,010542	66,0	  0,00994832	62,7
     113,656	   0,0101616	66,8	   0,0104358	64,8
     113,763	   0,0103371	61,5	   0,0102413	63,8
     113,871	   0,0106728	66,5	   0,0104211	63,5
     113,978	   0,0102802	63,2	   0,0105382	65,4
     114,086	    0,010591	62,3	   0,0104344	64,4
     114,194	   0,0106231	64,7	    0,010598	64,7
     114,301	   0,0106487	63,9	   0,0105911	62,1
     114,409	   0,0104887	64,0	   0,0110036	66,4
     114,516	   0,0108827	66,1	   0,0107394	64,7
     114,624	    0,010984	61,8	   0,0104877	63,2
     114,731	   0,0109208	63,9	   0,0109591	64,2
     114,839	   0,0108977	61,9	   0,0108512	63,8
     114,946	   0,0108734	62,0	   0,0110986	63,5
     115,054	    0,011312	66,3	   0,0111387	64,7
     115,161	   0,0111511	63,4	   0,0108469	60,8
     115,269	    0,011114	62,5	   0,0112611	61,7
     115,376	   0,0112683	66,1	   0,0113946	66,4
     115,484	   0,0115382	68,1	   0,0113175	62,1
     115,591	   0,0118269	66,8	   0,0113829	63,6
     115,699	   0,0116749	66,6	   0,0116012	64,2
     115,806	   0,0114129	62,4	   0,0116278	63,7
     115,914	   0,0116265	64,4	   0,0118688	66,9
     116,022	    0,011625	63,0	   0,0116856	63,4
     116,129	   0,0117584	64,0	   0,0119466	67,2
     116,237	   0,0119003	61,7	    0,011778	63,1
     116,344	   0,0120671	65,7	   0,0120122	64,0
     116,452	   0,0118055	61,7	   0,0119878	62,2
     116,559	   0,0120577	62,1	   0,0121482	60,8
     116,667	    0,012092	64,2	   0,0122406	63,1
     116,774	   0,0121321	63,8	   0,0120556	64,8
     116,882	   0,0120909	61,1	   0,0122671	62,3
     116,989	   0,0122649	63,2	   0,0121987	64,3
     117,097	   0,0122208	61,5	    0,012526	66,1
     117,204	   0,0123208	62,7	   0,0127397	64,8
     117,312	   0,0127868	60,7	   0,0125319	60,5
     117,419	   0,0126426	66,2	   0,0127834	60,2
     117,527	    0,012896	63,6	   0,0129686	63,8
     117,634	    0,012949	63,4	   0,0128455	63,8
     117,742	   0,0128285	62,7	   0,0129644	63,2
     117,849	   0,0131149	62,8	   0,0131292	65,7
     117,957	   0,0131185	63,2	   0,0134045	62,6
     118,065	   0,0134346	64,2	   0,0132585	63,4
     118,172	   0,0134476	61,6	   0,0134123	61,1
      118,28	   0,0134479	62,9	    0,013578	63,6
     118,387	     0,01378	61,4	   0,0135096	61,7
     118,495	   0,0137504	61,8	   0,0137427	63,1
     118,602	   0,0135247	61,6	   0,0136778	62,2
      118,71	   0,0140012	64,2	   0,0139291	61,6
     118,817	   0,0139942	60,5	   0,0141566	61,7
     118,925	   0,0137887	62,6	   0,0144608	63,1
     119,032	   0,0141078	63,6	   0,0143166	61,9
      119,14	   0,0141208	60,8	   0,0143105	63,4
     119,247	   0,0141474	63,6	   0,0145182	64,2
     119,355	   0,0144944	62,6	   0,0145592	62,8
     119,462	    0,014702	63,0	   0,0146231	60,9
      119,57	   0,0147803	65,6	   0,0146266	61,4
     119,677	   0,0149646	63,1	   0,0148474	63,6
     119,785	   0,0151218	63,4	   0,0149145	63,3
     119,892	   0,0149512	64,0	   0,0151169	64,4
         120	   0,0152451	62,8	    0,015427	66,0
     120,108	   0,0156302	63,4	   0,0155993	61,7
     120,215	   0,0154095	64,0	   0,0153402	63,5
     120,323	   0,0155739	61,7	    0,016043	62,3
      120,43	   0,0158603	64,1	   0,0161342	61,9
     120,538	   0,0158389	62,3	   0,0159876	61,7
     120,645	   0,0162045	62,0	   0,0162241	63,8
     120,753	   0,0162867	62,3	   0,0161955	62,8
      120,86	   0,0164986	64,7	   0,0165437	63,5
     120,968	     0,01659	60,7	   0,0164144	63,3
     121,075	   0,0169957	64,4	    0,016593	63,9
     121,183	   0,0168251	64,1	    0,016841	61,6
      121,29	   0,0170297	62,8	   0,0170843	62,9
     121,398	   0,0172069	62,4	   0,0172324	62,8
     121,505	   0,0173103	62,1	   0,0175421	61,5
     121,613	   0,0176382	62,7	   0,0176488	63,6
      121,72	   0,0176602	62,1	   0,0177871	62,1
     121,828	   0,0177359	61,0	   0,0178513	62,0
     121,935	   0,0180062	60,2	   0,0181542	63,2
     122,043	     0,01819	61,6	   0,0185824	62,2
     122,151	   0,0185933	62,2	   0,0185178	62,8
     122,258	    0,018628	62,3	   0,0186286	64,5
     122,366	   0,0187664	61,5	   0,0190452	62,4
     122,473	   0,0190862	62,2	   0,0191067	65,2
     122,581	   0,0192403	61,4	   0,0194407	61,6
     122,688	   0,0194499	62,2	   0,0195671	64,5
     122,796	   0,0194148	64,3	   0,0196731	62,4
     122,903	   0,0197747	61,2	   0,0200698	62,8
     123,011	   0,0200161	62,1	   0,0199683	61,3
     123,118	   0,0202012	62,5	   0,0203182	63,5
     123,226	   0,0205028	62,8	   0,0204426	62,2
     123,333	   0,0207228	63,0	   0,0208697	61,5
     123,441	   0,0209798	63,0	   0,0212778	62,7
     123,548	   0,0213181	62,6	   0,0212367	62,8
     123,656	   0,0213634	61,4	   0,0212576	62,3
     123,763	   0,0218953	63,4	   0,0217757	62,0
     123,871	   0,0219818	62,4	   0,0217612	63,0
     123,978	   0,0221653	65,0	   0,0221368	63,1
     124,086	   0,0226295	62,6	   0,0222375	63,2
     124,194	   0,0228211	64,2	   0,0226285	64,6
     124,301	   0,0233114	62,5	   0,0227128	62,1
     124,409	   0,0235405	62,5	    0,023256	61,4
     124,516	   0,0239287	62,5	   0,0237623	62,8
     124,624	   0,0237499	62,8	   0,0240443	62,0
     124,731	   0,0244032	62,4	   0,0241062	64,0
     124,839	   0,0246488	63,0	    0,024426	60,5
     124,946	   0,0251176	62,6	   0,0248174	61,1
     125,054	   0,0253733	62,8	   0,0251481	63,5
     125,161	   0,0254122	61,6	    0,025818	63,4
     125,269	   0,0261481	63,1	   0,0258461	63,4
     125,376	   0,0263663	62,7	   0,0263831	63,5
     125,484	   0,0264159	61,4	    0,026734	62,2
     125,591	   0,0274618	61,9	   0,0271954	62,5
     125,699	   0,0278543	63,0	   0,0277088	62,0
     125,806	   0,0277343	63,2	   0,0277154	62,9
     125,914	   0,0285979	63,4	   0,0285967	63,6
     126,022	   0,0284122	63,6	   0,0290904	63,1
     126,129	   0,0292657	62,1	   0,0295963	62,6
     126,237	   0,0295383	63,3	   0,0300856	62,5
     126,344	   0,0302057	62,9	   0,0300591	64,3
     126,452	    0,031037	62,4	   0,0311417	61,2
     126,559	   0,0311235	62,3	   0,0317456	62,3
     126,667	   0,0319221	62,2	   0,0319809	62,3
     126,774	    0,032268	61,8	   0,0326423	61,7
     126,882	   0,0327708	63,5	   0,0328524	62,3
     126,989	   0,0332619	63,5	   0,0340186	62,9
     127,097	   0,0342023	63,6	   0,0345851	61,5
     127,204	   0,0347323	62,8	   0,0350796	64,2
     127,312	   0,0353816	64,5	   0,0357376	62,8
     127,419	   0,0356744	63,7	   0,0362571	62,7
     127,527	   0,0364908	62,9	   0,0367233	63,2
     127,634	   0,0370924	63,8	   0,0376847	64,5
     127,742	   0,0382462	64,3	   0,0384416	62,6
     127,849	   0,0391801	63,9	   0,0394736	62,7
     127,957	    0,040273	62,6	   0,0400995	63,8
     128,065	   0,0404878	63,3	   0,0409583	62,8
     128,172	   0,0416653	62,5	   0,0418268	63,4
      128,28	   0,0430231	63,4	   0,0423386	63,8
     128,387	   0,0436977	64,4	   0,0438223	63,8
     128,495	   0,0445752	64,1	   0,0446863	62,7
     128,602	     0,04553	64,5	   0,0457516	62,8
      128,71	   0,0464589	64,4	   0,0464396	63,7
     128,817	   0,0476589	64,8	   0,0482071	63,9
     128,925	   0,0490808	63,8	   0,0486716	63,6
     129,032	    0,050157	64,2	   0,0505845	66,2
      129,14	   0,0512753	65,4	   0,0515261	63,6
     129,247	   0,0530089	63,8	   0,0532718	63,9
     129,355	   0,0541149	64,7	   0,0547454	65,1
     129,462	   0,0553106	65,2	    0,055743	65,5
      129,57	   0,0576539	64,6	   0,0574096	63,5
     129,677	   0,0592217	64,2	   0,0588254	64,7
     129,785	   0,0602039	65,2	   0,0614237	65,3
     129,892	    0,062658	65,0	   0,0632278	62,8
         130	   0,0649947	64,0	   0,0650857	64,6
     130,108	   0,0668978	64,9	   0,0673987	64,1
     130,215	   0,0685125	65,2	   0,0697538	65,9
     130,323	   0,0708451	65,0	   0,0721807	65,1
      130,43	   0,0727333	64,8	   0,0742888	64,9
     130,538	   0,0751901	64,9	   0,0776131	64,3
     130,645	   0,0774406	65,6	   0,0797422	66,4
     130,753	   0,0798318	65,9	   0,0823013	66,6
      130,86	   0,0825529	66,2	   0,0857288	65,8
     130,968	   0,0852598	65,6	   0,0880509	64,8
     131,075	   0,0886592	65,8	   0,0920294	66,1
     131,183	   0,0924018	66,1	   0,0950381	66,0
      131,29	    0,095676	66,9	   0,0983418	66,9
     131,398	   0,0991366	66,8	    0,101832	66,5
     131,505	    0,101779	66,0	     0,10549	65,4
     131,613	    0,105019	67,8	    0,108984	66,3
      131,72	     0,10867	68,4	    0,112863	67,5
     131,828	    0,111683	67,7	    0,116078	67,6
     131,935	    0,115877	67,9	     0,12024	66,8
     132,043	    0,119642	68,4	    0,124059	68,3
     132,151	    0,123816	68,4	    0,127515	67,9
     132,258	    0,127076	68,3	    0,131833	68,8
     132,366	    0,130463	69,1	    0,135182	69,2
     132,473	    0,134903	70,2	    0,139059	69,2
     132,581	    0,138386	68,0	    0,143804	69,7
     132,688	    0,142731	70,1	    0,147527	69,5
     132,796	     0,14627	70,0	    0,151273	70,4
     132,903	    0,149832	71,0	    0,155581	70,3
     133,011	    0,153769	70,1	    0,158719	70,9
     133,118	    0,158122	70,8	    0,162617	71,2
     133,226	    0,162183	71,1	    0,166089	70,1
     133,333	    0,166189	72,7	    0,169798	72,4
     133,441	    0,169528	72,9	    0,173598	71,0
     133,548	    0,173125	72,9	    0,177191	71,4
     133,656	    0,176911	71,7	    0,181329	71,9
     133,763	    0,180864	72,5	    0,184645	71,9
     133,871	     0,18464	74,0	    0,188636	72,6
     133,979	    0,188669	74,3	    0,192454	72,9
     134,086	    0,192551	72,9	    0,195697	74,2
     134,194	    0,196572	73,0	    0,199003	74,1
     134,301	    0,200027	74,4	    0,202517	72,9
     134,409	     0,20322	75,3	    0,205916	74,3
     134,516	    0,207089	74,9	    0,209438	74,3
     134,624	    0,210597	74,9	     0,21297	74,8
     134,731	    0,214003	74,9	    0,216209	75,1
     134,839	    0,217449	74,7	    0,219289	74,1
     134,946	    0,220702	74,8	    0,222727	74,7
     135,054	    0,224003	75,5	    0,226268	74,2
     135,161	    0,227345	76,5	    0,230811	72,7
     135,269	    0,230698	76,0	    0,215295	189,5
     135,376	    0,234296	75,6	     0,24321	169,0
     135,484	    0,237503	77,2	    0,138486	-138,5
     135,591	    0,240865	75,2	    0,110796	-131,6
     135,699	    0,244081	76,2	   0,0979728	-131,0
     135,806	    0,246841	77,7	   0,0900168	-130,1
     135,914	    0,250526	76,9	   0,0850514	-130,1
     136,021	    0,253877	77,1	   0,0803497	-128,4
     136,129	    0,256804	77,8	   0,0759601	-128,0
     136,237	    0,260119	77,5	   0,0728488	-128,1
     136,344	    0,262824	78,2	   0,0692947	-127,4
     136,452	    0,265546	77,9	   0,0659753	-127,5
     136,559	    0,269117	77,0	   0,0642706	-127,4
     136,667	    0,272015	79,0	    0,061607	-128,6
     136,774	    0,275253	78,9	   0,0597885	-128,2
     136,882	    0,278252	77,9	   0,0585145	-127,7
     136,989	    0,280771	79,1	   0,0563633	-126,7
     137,097	     0,28429	78,0	    0,053955	-126,6
     137,204	    0,287085	77,8	   0,0525734	-127,7
     137,312	    0,289971	79,6	   0,0508518	-126,3
     137,419	    0,293244	77,3	   0,0502492	-127,5
     137,527	    0,296047	77,6	   0,0493017	-127,9
     137,634	    0,299191	77,9	   0,0480765	-126,1
     137,742	    0,302197	77,5	   0,0474075	-125,8
     137,849	     0,30506	77,8	   0,0471759	-127,3
     137,957	    0,307466	79,5	   0,0450448	-127,2
     138,065	    0,310765	79,2	   0,0442575	-126,8
     138,172	    0,313152	78,9	    0,043874	-126,2
      138,28	     0,31649	78,7	   0,0428309	-125,5
     138,387	    0,319005	79,3	   0,0424219	-125,5
     138,495	     0,32217	80,5	   0,0405301	-126,5
     138,602	    0,324896	79,8	   0,0405114	-126,2
      138,71	    0,327095	81,2	   0,0394942	-125,1
     138,817	    0,330226	80,4	   0,0394876	-127,2
     138,925	    0,332671	81,0	   0,0381365	-124,5
     139,032	    0,335201	80,6	   0,0372446	-126,9
      139,14	    0,338437	81,8	   0,0377183	-127,1
     139,247	    0,340645	81,6	   0,0362628	-125,7
     139,355	     0,34362	81,6	   0,0358773	-124,1
     139,462	    0,346219	82,0	   0,0350836	-125,9
      139,57	    0,348437	83,4	   0,0340457	-126,0
     139,677	     0,35077	83,2	   0,0342272	-125,7
     139,785	    0,354227	82,5	   0,0329469	-124,3
     139,892	    0,356301	83,2	   0,0324945	-125,4
         140	    0,358753	84,5	    0,032613	-123,8
     140,108	    0,361193	83,2	    0,032035	-124,1
     140,215	    0,363463	84,6	   0,0313054	-124,7
     140,323	    0,366129	85,4	   0,0308563	-125,4
      140,43	     0,36892	84,3	   0,0301685	-124,7
     140,538	    0,371324	84,5	   0,0301093	-124,0
     140,645	    0,374128	84,7	   0,0300719	-125,2
     140,753	    0,376246	85,1	   0,0296365	-124,8
      140,86	    0,379079	85,4	   0,0286441	-125,3
     140,968	    0,381077	84,8	   0,0284379	-125,2
     141,075	    0,384003	85,5	   0,0281051	-125,6
     141,183	    0,386821	83,9	   0,0276088	-125,1
      141,29	    0,388911	86,1	   0,0278035	-125,6
     141,398	    0,391561	85,8	   0,0268205	-125,9
     141,505	    0,393571	86,1	   0,0263631	-123,7
     141,613	      0,3964	86,0	    0,026388	-125,4
      141,72	    0,398926	86,8	   0,0260007	-125,9
     141,828	    0,401477	85,2	   0,0258222	-124,5
     141,935	    0,403518	87,4	    0,025512	-126,6
     142,043	    0,406008	85,3	   0,0254319	-123,9
     142,151	    0,408677	87,4	   0,0248064	-125,3
     142,258	    0,410691	85,8	   0,0245645	-125,0
     142,366	    0,413397	88,5	   0,0244964	-125,1
     142,473	    0,416135	86,6	    0,024174	-123,5
     142,581	    0,417808	88,4	   0,0237392	-125,8
     142,688	    0,420793	88,0	   0,0233137	-125,6
     142,796	    0,423627	86,2	   0,0238546	-124,1
     142,903	    0,425087	87,2	    0,023185	-125,2
     143,011	    0,427137	87,7	   0,0227265	-125,5
     143,118	    0,429586	89,5	   0,0224952	-124,8
     143,226	    0,432514	89,0	   0,0224899	-125,0
     143,333	    0,435864	87,8	   0,0225587	-123,6
     143,441	    0,438384	87,3	   0,0221185	-124,7
     143,548	    0,440788	86,9	   0,0217927	-125,4
     143,656	    0,442964	88,3	   0,0215027	-124,6
     143,763	    0,445614	87,9	   0,0210572	-126,1
     143,871	    0,448353	88,8	   0,0211345	-122,9
     143,979	    0,450675	90,4	   0,0209357	-124,3
     144,086	    0,452421	90,7	   0,0208565	-125,9
     144,194	     0,45327	90,7	   0,0208386	-123,6
     144,301	    0,454765	90,0	   0,0205677	-124,2
     144,409	    0,458579	86,8	   0,0203232	-125,3
     144,516	    0,463883	88,9	    0,019835	-124,7
     144,624	    0,463927	91,8	   0,0196209	-124,5
     144,731	    0,464057	90,1	   0,0195293	-124,8
     144,839	    0,470399	87,5	   0,0196076	-123,9
     144,946	    0,470116	94,0	   0,0189426	-125,5
     145,054	     0,47291	88,4	   0,0194703	-124,3
     145,161	    0,475454	92,1	   0,0186786	-125,1
     145,269	    0,477042	88,6	   0,0189501	-124,2
     145,376	    0,479746	92,9	   0,0186336	-122,7
     145,484	    0,482395	90,3	     0,01827	-125,0
     145,591	    0,482952	91,3	   0,0180833	-126,4
     145,699	    0,487313	90,7	   0,0183338	-125,2
     145,806	    0,488974	89,9	   0,0180348	-124,8
     145,914	    0,490225	92,2	   0,0178623	-123,6
     146,021	    0,493362	92,3	   0,0182296	-124,0
     146,129	    0,496274	91,4	   0,0177736	-124,2
     146,237	     0,49763	92,1	   0,0174145	-125,5
     146,344	    0,498901	93,2	   0,0169448	-125,3
     146,452	    0,501561	90,8	   0,0170705	-123,8
     146,559	    0,503539	92,9	   0,0173848	-123,8
     146,667	    0,506061	92,1	   0,0173756	-123,7
     146,774	    0,508286	92,6	   0,0173638	-123,6
     146,882	    0,510292	93,2	   0,0168552	-124,4
     146,989	    0,512545	93,9	   0,0169327	-125,5
     147,097	    0,515142	92,1	   0,0168547	-123,7
     147,204	    0,517562	93,1	   0,0165747	-123,8
     147,312	    0,519719	92,9	    0,016186	-124,9
     147,419	    0,522059	94,4	   0,0160736	-124,4
     147,527	    0,524112	92,2	   0,0159498	-125,3
     147,634	    0,526479	93,8	    0,016091	-124,7
     147,742	    0,529016	92,6	   0,0160087	-125,0
     147,849	    0,530696	93,8	   0,0156594	-124,5
     147,957	    0,533149	93,2	   0,0159354	-125,0
     148,065	    0,535291	94,6	   0,0158908	-124,1
     148,172	    0,537237	94,0	   0,0154372	-124,8
      148,28	    0,539748	94,6	   0,0154012	-127,5
     148,387	    0,541807	95,6	   0,0153398	-123,5
     148,495	     0,54422	94,7	   0,0152023	-127,3
     148,602	    0,546461	95,0	   0,0149388	-126,8
      148,71	    0,548357	94,0	   0,0151548	-123,9
     148,817	    0,550777	94,7	   0,0151031	-125,4
     148,925	    0,552801	94,7	   0,0148012	-126,4
     149,032	    0,555088	94,1	   0,0147698	-123,2
      149,14	    0,557492	93,8	    0,014864	-124,6
     149,247	    0,559403	93,4	   0,0145996	-125,2
     149,355	    0,561189	95,2	   0,0145682	-123,8
     149,462	    0,563147	96,1	   0,0144222	-123,3
      149,57	    0,565557	95,7	   0,0144948	-122,1
     149,677	    0,567683	95,1	   0,0143257	-124,2
     149,785	    0,569833	95,2	   0,0141485	-126,4
     149,892	    0,572121	95,5	   0,0141329	-127,4
         150	    0,574156	95,6	   0,0141504	-122,6
     150,108	    0,576082	96,1	   0,0138923	-127,3
     150,215	    0,578346	95,8	    0,013993	-125,2
     150,323	    0,580501	96,7	   0,0138203	-127,7
      150,43	    0,582659	96,5	   0,0139892	-124,9
     150,538	    0,584983	95,9	   0,0139112	-124,4
     150,645	     0,58701	96,4	   0,0136225	-124,5
     150,753	    0,588989	98,4	   0,0135598	-124,3
      150,86	    0,591118	96,0	   0,0133803	-125,2
     150,968	    0,592944	98,5	   0,0134097	-123,0
     151,075	     0,59556	96,7	   0,0132698	-127,4
     151,183	     0,59747	97,7	   0,0133959	-127,4
      151,29	    0,599666	97,3	   0,0131868	-123,3
     151,398	    0,601485	98,7	   0,0130363	-125,9
     151,505	    0,604125	96,8	   0,0130296	-125,1
     151,613	    0,606082	98,4	   0,0128199	-126,9
      151,72	    0,608374	97,7	    0,012911	-126,2
     151,828	    0,610559	98,4	   0,0129496	-125,7
     151,935	    0,612892	96,4	   0,0126335	-124,4
     152,043	    0,615066	98,3	   0,0128796	-128,4
     152,151	     0,61717	98,7	   0,0126597	-124,4
     152,258	    0,618906	98,8	   0,0124684	-123,5
     152,366	    0,621228	97,7	   0,0126094	-124,0
     152,473	     0,62359	98,1	   0,0127003	-125,2
     152,581	    0,625994	99,5	   0,0125189	-126,3
     152,688	    0,628256	98,2	   0,0123756	-127,3
     152,796	    0,630208	99,7	    0,012154	-128,1
     152,903	    0,632528	98,7	   0,0122321	-126,0
     153,011	    0,634847	99,4	    0,012212	-125,9
     153,118	    0,636986	99,8	   0,0120656	-125,7
     153,226	    0,639244	100,2	   0,0120506	-125,8
     153,333	    0,641258	100,4	    0,012004	-125,7
     153,441	    0,643282	98,6	   0,0118245	-125,4
     153,548	    0,645189	98,8	   0,0118838	-126,1
     153,656	    0,647516	100,2	   0,0119474	-126,5
     153,763	    0,650244	100,6	   0,0120448	-123,9
     153,871	    0,652272	99,0	   0,0118508	-123,9
     153,979	    0,653469	101,9	   0,0117339	-125,7
     154,086	    0,656277	100,6	   0,0117836	-124,7
     154,194	    0,658773	98,7	   0,0118912	-129,2
     154,301	     0,66055	101,6	   0,0116893	-123,6
     154,409	    0,663117	101,7	   0,0116334	-127,7
     154,516	    0,663963	101,8	   0,0114338	-124,9
     154,624	    0,667541	102,3	   0,0113889	-125,9
     154,731	    0,668679	103,1	    0,011307	-124,2
     154,839	    0,671652	102,5	   0,0116126	-125,3
     154,946	    0,673418	105,0	   0,0111527	-126,7
     155,054	    0,674318	103,6	   0,0114069	-128,4
     155,161	    0,677679	103,7	   0,0113542	-126,5
     155,269	    0,679675	106,4	   0,0109601	-122,1
     155,376	    0,680699	105,2	   0,0112683	-125,2
     155,484	    0,683135	103,7	   0,0112842	-126,8
     155,591	    0,686496	100,9	   0,0111037	-123,5
     155,699	    0,689695	101,0	   0,0108745	-124,9
     155,806	    0,691564	102,0	   0,0109205	-125,0
     155,914	    0,693483	102,8	   0,0110027	-127,6
     156,021	    0,695262	104,8	    0,010894	-125,1
     156,129	    0,697157	103,8	   0,0106891	-122,5
     156,237	    0,699464	104,8	   0,0107749	-124,7
     156,344	    0,702019	105,6	   0,0104642	-120,6
     156,452	    0,704899	101,0	   0,0108428	-125,4
     156,559	    0,706305	101,4	    0,010721	-125,6
     156,667	    0,707081	101,2	   0,0106057	-125,8
     156,774	    0,706809	104,6	    0,010869	-126,0
     156,882	    0,710187	107,0	   0,0107164	-125,5
     156,989	    0,715337	101,8	   0,0107095	-125,5
     157,097	     0,71615	100,5	    0,010408	-125,6
     157,204	    0,715641	105,7	   0,0104626	-126,0
     157,312	    0,721232	104,3	   0,0105982	-125,6
     157,419	    0,721561	100,5	   0,0101846	-122,8
     157,527	    0,723417	107,7	   0,0105466	-125,2
     157,634	    0,726467	102,1	   0,0101789	-123,5
     157,742	    0,727913	105,6	   0,0103388	-122,7
     157,849	    0,729313	103,6	  0,00997014	-124,9
     157,957	    0,732879	104,2	   0,0103151	-126,7
     158,065	    0,733139	106,6	   0,0104229	-126,2
     158,172	    0,736573	103,5	   0,0102522	-125,9
      158,28	     0,73813	106,5	   0,0101611	-125,7
     158,387	    0,739508	107,7	   0,0100684	-126,7
     158,495	    0,741715	106,1	  0,00999078	-124,3
     158,602	    0,745323	103,7	   0,0100865	-123,3
      158,71	    0,747642	104,3	   0,0103021	-126,8
     158,817	    0,749218	105,3	  0,00998373	-124,8
     158,925	    0,750995	105,9	   0,0097342	-124,0
     159,032	    0,753336	105,6	  0,00980987	-125,9
      159,14	    0,754761	107,4	  0,00999573	-127,1
     159,247	    0,757059	107,4	  0,00984435	-126,7
     159,355	    0,759028	107,0	  0,00981807	-127,1
     159,462	    0,761583	105,7	   0,0097019	-126,2
      159,57	    0,764209	106,3	  0,00940774	-123,5
     159,677	    0,766093	105,9	  0,00992917	-127,7
     159,785	    0,767853	106,3	  0,00962616	-127,5
     159,892	    0,769449	107,1	  0,00961089	-124,4
         160	    0,771521	108,1	  0,00975598	-126,9
     160,108	    0,774039	108,2	  0,00984138	-129,0
     160,215	     0,77562	105,9	  0,00951825	-125,8
     160,323	    0,777658	108,1	  0,00976255	-127,1
      160,43	     0,78011	106,5	  0,00951415	-124,9
     160,538	    0,781922	108,2	  0,00945337	-126,8
     160,645	    0,784197	106,2	   0,0096902	-127,5
     160,753	    0,785838	108,2	  0,00970831	-127,5
      160,86	    0,787957	108,6	  0,00937377	-124,5
     160,968	     0,79038	106,8	  0,00930478	-123,7
     161,075	    0,792502	108,3	  0,00948219	-127,3
     161,183	    0,794394	108,4	  0,00948037	-125,4
      161,29	    0,796103	107,4	  0,00909518	-127,1
     161,398	    0,798428	110,0	  0,00941998	-128,0
     161,505	    0,800741	109,9	  0,00949965	-128,2
     161,613	    0,802849	108,7	  0,00952888	-127,9
      161,72	    0,804758	108,9	  0,00914343	-126,3
     161,828	     0,80651	109,1	  0,00911507	-124,1
     161,935	     0,80891	109,3	  0,00916106	-125,6
     162,043	    0,810951	109,4	   0,0092352	-128,7
     162,151	    0,813691	108,5	  0,00910333	-126,0
     162,258	    0,815624	109,6	  0,00902866	-126,6
     162,366	    0,817389	107,9	  0,00887403	-126,6
     162,473	    0,819906	108,8	  0,00905538	-126,4
     162,581	    0,821548	109,0	  0,00912395	-128,4
     162,688	    0,824265	111,4	  0,00885207	-123,5
     162,796	     0,82656	109,9	  0,00898353	-122,9
     162,903	    0,828584	109,7	   0,0090332	-127,4
     163,011	    0,830428	109,9	  0,00879937	-125,2
     163,118	    0,832363	110,9	  0,00883158	-125,0
     163,226	    0,835025	108,6	  0,00880058	-125,3
     163,333	     0,83709	108,9	   0,0090889	-128,1
     163,441	    0,839167	110,9	   0,0089902	-125,4
     163,548	     0,84164	109,6	  0,00897193	-125,8
     163,656	      0,8431	110,3	  0,00885457	-126,1
     163,763	    0,845307	111,3	  0,00901398	-125,2
     163,871	    0,847744	109,6	  0,00833429	-122,2
     163,979	    0,849733	110,8	  0,00849952	-126,5
     164,086	    0,851656	111,3	  0,00848023	-124,0
     164,194	    0,853892	111,0	  0,00872764	-125,7
     164,301	    0,855882	112,9	  0,00903619	-126,7
     164,409	    0,857857	112,6	  0,00884701	-129,2
     164,516	     0,86012	111,1	  0,00885441	-129,1
     164,624	    0,862172	110,8	  0,00905559	-129,1
     164,731	    0,864223	112,8	  0,00879217	-129,6
     164,839	    0,866338	113,2	  0,00873896	-127,9
     164,946	    0,868381	113,0	  0,00867496	-127,2
     165,054	    0,870777	113,9	  0,00878553	-127,1
     165,161	    0,872548	111,9	   0,0084486	-123,4
     165,269	    0,875192	109,3	    0,008261	-127,4
     165,376	    0,876809	112,1	   0,0084917	-124,6
     165,484	    0,879057	112,4	  0,00839812	-123,4
     165,591	    0,880835	112,9	  0,00835027	-124,0
     165,699	    0,883117	113,2	  0,00867543	-126,7
     165,806	    0,885341	111,6	  0,00861081	-128,7
     165,914	    0,887577	113,7	  0,00847027	-123,3
     166,021	    0,889429	112,5	  0,00793471	-124,2
     166,129	    0,891705	113,6	  0,00887056	-129,9
     166,237	     0,89365	112,9	  0,00869488	-127,2
     166,344	    0,895894	112,1	  0,00826834	-122,3
     166,452	    0,898192	113,2	  0,00900993	-127,1
     166,559	     0,90021	113,4	  0,00879642	-129,3
     166,667	    0,902332	114,0	  0,00852878	-125,2
     166,774	    0,904258	113,9	  0,00813481	-124,9
     166,882	     0,90645	114,8	  0,00813952	-123,3
     166,989	    0,908458	114,2	  0,00799532	-125,2
     167,097	     0,91097	114,7	  0,00809615	-126,8
     167,204	    0,912817	114,5	  0,00830175	-122,4
     167,312	    0,914969	115,0	  0,00771024	-125,8
     167,419	    0,917245	115,9	  0,00815622	-121,9
     167,527	    0,919116	115,0	  0,00797309	-123,3
     167,634	    0,921743	113,2	  0,00798485	-125,5
     167,742	    0,923667	115,1	  0,00806986	-126,8
     167,849	    0,925861	115,7	  0,00795187	-124,9
     167,957	    0,927768	115,6	  0,00803187	-124,3
     168,065	    0,930012	115,9	  0,00851652	-124,8
     168,172	    0,932113	117,1	  0,00840661	-128,5
      168,28	    0,934374	116,1	  0,00763341	-126,3
     168,387	     0,93648	116,3	  0,00786318	-126,3
     168,495	    0,938749	114,4	  0,00789036	-123,7
     168,602	    0,940886	115,6	  0,00792647	-125,6
      168,71	    0,942775	115,9	  0,00773038	-126,5
     168,817	    0,945296	116,6	  0,00750342	-126,5
     168,925	    0,947184	116,7	  0,00813272	-127,0
     169,032	    0,949403	118,1	  0,00795891	-127,2
      169,14	    0,951457	116,7	  0,00802775	-127,1
     169,247	    0,953982	116,4	  0,00800098	-126,3
     169,355	     0,95607	116,9	   0,0076605	-123,4
     169,462	    0,958239	116,6	  0,00810033	-127,5
      169,57	    0,960639	117,0	  0,00806054	-123,7
     169,677	    0,962526	118,2	  0,00802809	-127,2
     169,785	    0,964626	117,6	   0,0080649	-128,7
     169,892	    0,966885	115,8	  0,00772386	-124,3
         170	    0,968711	118,7	  0,00828726	-127,4
     170,108	     0,97182	117,6	  0,00796121	-124,7
     170,215	    0,973663	117,4	  0,00839872	-128,0
     170,323	     0,97564	120,0	  0,00783117	-122,7
      170,43	    0,978318	117,2	  0,00792614	-128,6
     170,538	    0,980602	118,6	  0,00796994	-128,4
     170,645	    0,982324	119,9	  0,00784582	-126,5
     170,753	    0,984659	118,1	  0,00752878	-125,4
      170,86	     0,98628	118,9	  0,00771375	-125,2
     170,968	    0,988835	118,8	  0,00782049	-126,3
     171,075	    0,991075	118,1	  0,00769344	-128,2
     171,183	     0,99322	117,7	  0,00747935	-128,0
      171,29	    0,995578	118,1	  0,00732704	-121,9
     171,398	    0,997801	118,1	  0,00721963	-124,8
     171,505	    0,999749	119,7	  0,00745599	-121,5
     171,613	     1,00223	120,4	  0,00756628	-120,3
      171,72	      1,0045	120,1	  0,00813094	-123,0
     171,828	     1,00687	120,2	  0,00745451	-128,3
     171,935	     1,00921	119,5	  0,00786559	-127,4
     172,043	     1,01106	120,6	  0,00733904	-127,3
     172,151	     1,01423	119,6	  0,00784036	-126,1
     172,258	     1,01576	122,1	  0,00771177	-126,3
     172,366	     1,01809	119,8	  0,00779109	-125,4
     172,473	     1,02035	120,3	  0,00752584	-127,9
     172,581	     1,02267	120,6	  0,00752182	-124,2
     172,688	     1,02479	121,4	  0,00732468	-127,4
     172,796	     1,02681	119,5	  0,00754524	-125,7
     172,903	     1,02934	121,3	  0,00750786	-125,5
     173,011	     1,03146	121,4	  0,00763275	-123,6
     173,118	     1,03378	120,8	  0,00765825	-127,6
     173,226	     1,03576	121,1	   0,0072956	-130,5
     173,333	     1,03828	120,2	  0,00746739	-127,2
     173,441	     1,04044	120,3	  0,00740098	-127,3
     173,548	     1,04271	119,8	  0,00760804	-126,9
     173,656	     1,04476	121,5	  0,00746378	-129,7
     173,763	     1,04709	119,7	  0,00725195	-128,1
     173,871	     1,04935	120,3	  0,00741269	-125,6
     173,979	       1,052	121,2	  0,00780005	-123,6
     174,086	     1,05407	122,2	  0,00789843	-127,8
     174,194	     1,05658	122,0	  0,00743342	-123,7
     174,301	     1,05884	122,8	  0,00735925	-128,1
     174,409	     1,06055	122,5	  0,00725017	-124,8
     174,516	     1,06288	121,6	  0,00763505	-125,6
     174,624	      1,0653	122,2	   0,0073599	-128,6
     174,731	     1,06771	122,1	  0,00777163	-123,5
     174,839	     1,07018	120,6	  0,00750678	-123,2
     174,946	     1,07153	122,7	  0,00741854	-123,1
     175,054	     1,07418	123,0	   0,0076843	-130,4
     175,161	      1,0765	121,6	  0,00790099	-128,1
     175,269	     1,07858	121,6	  0,00682212	-127,6
     175,376	     1,08101	122,5	  0,00765532	-127,7
     175,484	     1,08301	123,6	  0,00760139	-126,8
     175,591	     1,08526	121,7	  0,00741238	-129,2
     175,699	     1,08767	121,5	   0,0071574	-122,2
     175,806	     1,09007	123,0	  0,00750519	-125,1
     175,914	     1,09196	121,9	  0,00727528	-126,2
     176,021	     1,09435	123,4	  0,00738688	-126,8
     176,129	     1,09687	121,8	  0,00706703	-127,9
     176,237	     1,09884	123,0	   0,0076473	-127,1
     176,344	     1,10125	122,3	  0,00759326	-125,2
     176,452	      1,1036	123,2	   0,0070225	-126,8
     176,559	     1,10566	123,5	  0,00727466	-128,6
     176,667	     1,10747	122,7	  0,00701315	-127,4
     176,774	     1,11008	123,1	  0,00685824	-126,4
     176,882	     1,11202	123,2	   0,0073159	-124,6
     176,989	     1,11448	122,9	  0,00706664	-125,0
     177,097	     1,11678	125,2	  0,00716609	-126,2
     177,204	     1,11906	124,3	  0,00691647	-126,2
     177,312	     1,12097	123,9	  0,00715429	-123,7
     177,419	     1,12352	121,3	   0,0064678	-124,6
     177,527	     1,12569	124,1	  0,00704782	-121,8
     177,634	     1,12782	122,9	  0,00671018	-124,4
     177,742	     1,13011	125,7	  0,00700205	-123,3
     177,849	     1,13265	122,7	   0,0068729	-128,9
     177,957	     1,13481	124,6	  0,00728514	-125,3
     178,065	      1,1372	123,7	  0,00687762	-128,9
     178,172	     1,13885	125,0	  0,00745199	-126,3
      178,28	     1,14137	125,6	  0,00723563	-127,1
     178,387	     1,14415	124,6	   0,0073439	-124,7
     178,495	      1,1463	124,1	  0,00721564	-127,7
     178,602	      1,1489	125,2	  0,00703469	-128,3
      178,71	     1,15083	124,1	  0,00721173	-131,9
     178,817	     1,15283	126,9	  0,00719566	-124,8
     178,925	      1,1552	123,9	  0,00725686	-128,7
     179,032	      1,1574	125,4	  0,00687824	-130,3
      179,14	     1,15926	126,3	  0,00718438	-133,0
     179,247	      1,1618	125,8	  0,00734299	-125,6
     179,355	     1,16396	125,7	  0,00711645	-126,6
     179,462	     1,16623	127,0	  0,00695882	-127,8
      179,57	      1,1688	123,9	  0,00696285	-125,1
     179,677	     1,17105	122,8	  0,00734205	-126,1
     179,785	       1,173	125,4	  0,00734642	-122,2
     179,892	     1,17506	125,6	  0,00719141	-127,1
         180	     1,17754	124,8	  0,00735041	-125,7
     180,108	      1,1794	125,3	  0,00765615	-128,0
     180,215	     1,18155	126,7	  0,00686299	-126,5
     180,323	     1,18446	125,0	  0,00719209	-124,4
      180,43	     1,18651	124,9	  0,00712974	-126,7
     180,538	     1,18866	124,5	  0,00731853	-124,3
     180,645	     1,19096	125,7	  0,00672559	-127,5
     180,753	     1,19333	125,7	  0,00691999	-129,3
      180,86	     1,19519	126,1	  0,00698786	-129,4
     180,968	     1,19739	127,8	  0,00693802	-128,5
     181,075	     1,19991	126,7	  0,00722134	-125,8
     181,183	     1,20241	125,2	  0,00677928	-124,7
      181,29	     1,20424	125,3	  0,00730916	-126,3
     181,398	     1,20671	125,5	  0,00697598	-128,9
     181,505	     1,20918	125,4	  0,00717229	-126,0
     181,613	     1,21101	125,6	  0,00706052	-127,2
      181,72	      1,2133	126,8	  0,00659608	-125,5
     181,828	     1,21651	125,2	  0,00744715	-124,1
     181,935	     1,21782	125,4	  0,00671774	-125,0
     182,043	     1,21996	128,4	  0,00692656	-125,3
     182,151	     1,22245	127,7	   0,0067391	-128,7
     182,258	      1,2249	127,1	  0,00687472	-129,2
     182,366	     1,22734	127,4	  0,00674017	-126,5
     182,473	     1,22983	129,7	  0,00713914	-126,2
     182,581	     1,23168	128,0	  0,00712457	-126,2
     182,688	     1,23378	128,3	  0,00746425	-128,2
     182,796	     1,23629	128,3	  0,00701591	-126,0
     182,903	     1,23871	127,3	    0,007037	-119,9
     183,011	     1,24101	127,2	  0,00680611	-127,8
     183,118	      1,2435	128,3	  0,00703336	-126,4
     183,226	     1,24529	127,6	  0,00687816	-128,6
     183,333	     1,24775	127,4	  0,00638533	-127,1
     183,441	     1,25019	129,5	  0,00652103	-128,2
     183,548	     1,25225	127,4	  0,00695214	-125,4
     183,656	     1,25486	126,8	  0,00731354	-125,4
     183,763	     1,25678	128,7	  0,00657516	-131,7
     183,871	     1,25907	128,4	   0,0071429	-123,6
     183,979	     1,26134	129,1	  0,00674984	-130,2
     184,086	     1,26447	128,2	  0,00701704	-127,0
     184,194	      1,2664	129,6	  0,00709275	-127,7
     184,301	     1,26876	129,5	   0,0066247	-128,0
     184,409	     1,27068	129,8	  0,00707441	-123,8
     184,516	     1,27341	130,4	  0,00684587	-127,4
     184,624	     1,27614	127,5	  0,00723668	-123,2
     184,731	     1,27761	129,7	  0,00655543	-126,2
     184,839	     1,28058	129,9	  0,00706943	-123,5
     184,946	     1,28281	129,0	  0,00698003	-125,7
     185,054	     1,28573	128,2	  0,00679271	-128,0
     185,161	     1,28724	131,3	  0,00707308	-125,0
     185,269	     1,28992	129,9	  0,00677045	-129,0
     185,376	     1,29252	130,2	  0,00685735	-127,3
     185,484	      1,2954	129,1	  0,00698897	-127,2
     185,591	     1,29772	127,5	   0,0068736	-126,5
     185,699	      1,2999	128,9	  0,00705431	-127,4
     185,806	     1,30218	131,3	  0,00710552	-122,4
     185,914	     1,30492	129,3	  0,00689997	-127,1
     186,021	     1,30708	128,9	  0,00680406	-125,8
     186,129	     1,30975	129,6	  0,00691995	-127,6
     186,237	     1,31231	130,0	  0,00702649	-127,7
     186,344	     1,31498	130,7	   0,0067207	-128,3
     186,452	     1,31768	129,8	  0,00690802	-123,8
     186,559	     1,31969	131,6	  0,00689852	-128,8
     186,667	     1,32279	130,6	  0,00682755	-131,2
     186,774	     1,32509	129,7	  0,00667007	-127,2
     186,882	     1,32795	130,9	  0,00694023	-125,4
     186,989	     1,32969	131,8	  0,00694303	-125,6
     187,097	     1,33243	130,2	  0,00694947	-128,8
     187,204	     1,33454	131,8	  0,00690276	-123,6
     187,312	     1,33762	132,0	  0,00676191	-125,0
     187,419	     1,34068	133,5	  0,00689556	-124,1
     187,527	     1,34374	129,9	  0,00687068	-127,6
     187,634	     1,34476	130,5	  0,00693906	-125,3
     187,742	     1,34726	133,2	  0,00681567	-125,7
     187,849	     1,35058	133,5	  0,00683584	-127,1
     187,957	     1,35148	133,6	   0,0070417	-126,0
     188,065	     1,35435	129,9	  0,00677093	-125,9
     188,172	     1,35718	130,4	  0,00660992	-124,3
      188,28	     1,36015	132,8	  0,00711615	-125,3
     188,387	      1,3617	132,1	   0,0067906	-127,2
     188,495	     1,36413	131,5	  0,00698338	-125,8
     188,602	     1,36676	133,3	   0,0068257	-127,0
      188,71	     1,36836	131,2	   0,0067313	-127,9
     188,817	     1,37058	134,0	  0,00692096	-125,4
     188,925	     1,37316	130,2	  0,00679794	-130,1
     189,032	     1,37572	132,8	  0,00693487	-125,0
      189,14	     1,37775	132,6	  0,00693672	-127,1
     189,247	     1,38046	129,9	  0,00694884	-128,8
     189,355	     1,38179	133,9	   0,0067409	-125,2
     189,462	     1,38532	130,4	  0,00684373	-128,8
      189,57	     1,38696	131,3	  0,00691141	-123,6
     189,677	     1,38957	132,0	  0,00691266	-124,9
     189,785	     1,39166	130,3	  0,00685327	-131,4
     189,892	     1,39418	129,2	  0,00687767	-124,7
         190	     1,39623	129,0	  0,00701933	-122,9
     190,108	     1,39883	129,0	  0,00695584	-123,0
     190,215	     1,40069	131,9	  0,00701815	-123,1
     190,323	     1,40296	132,2	  0,00669264	-126,8
      190,43	     1,40627	129,1	  0,00697133	-124,3
     190,538	     1,40871	128,6	  0,00683378	-126,7
     190,645	      1,4109	131,4	  0,00690106	-125,2
     190,753	     1,41324	131,5	  0,00693933	-128,1
      190,86	     1,41543	131,9	  0,00696975	-125,0
     190,968	     1,41797	129,2	  0,00674989	-127,7
     191,075	     1,42033	131,6	  0,00688119	-126,0
     191,183	     1,42278	130,8	   0,0069699	-125,2
      191,29	     1,42519	130,9	  0,00679258	-126,4
     191,398	     1,42716	131,2	  0,00701706	-124,9
     191,505	     1,42982	129,9	   0,0069769	-128,2
     191,613	     1,43234	129,2	  0,00668624	-128,3
      191,72	     1,43471	129,0	  0,00701663	-128,2
     191,828	     1,43724	130,6	  0,00686625	-125,2
     191,935	     1,43956	130,4	  0,00681106	-125,8
     192,043	     1,44121	132,0	  0,00695543	-127,6
     192,151	     1,44379	131,9	  0,00688343	-126,5
     192,258	     1,44653	129,6	  0,00700304	-125,6
     192,366	     1,44882	130,0	  0,00687306	-124,1
     192,473	     1,45081	132,2	  0,00684892	-130,5
     192,581	     1,45294	131,7	  0,00707797	-124,9
     192,688	     1,45469	134,3	   0,0069134	-126,4
     192,796	     1,45552	136,7	  0,00692331	-127,6
     192,903	     1,45619	142,4	  0,00696187	-124,3
     193,011	     1,45584	148,5	  0,00696513	-126,1
     193,118	      1,4527	169,0	   0,0069683	-128,3
     193,226	  0,00690046	-127,0	  0,00686972	-128,2
     193,333	  0,00670755	-126,8	  0,00690483	-127,4
     193,441	  0,00683994	-125,3	  0,00674522	-125,8
     193,548	  0,00689731	-126,4	  0,00681261	-123,9
     193,656	  0,00691843	-123,4	  0,00689481	-124,4
     193,763	  0,00689496	-122,6	  0,00695469	-123,6
     193,871	  0,00674938	-128,7	  0,00698242	-124,5
     193,979	  0,00693514	-126,0	  0,00694765	-127,9
     194,086	  0,00693821	-123,6	  0,00701719	-129,5
     194,194	  0,00691777	-121,8	  0,00685806	-127,1
     194,301	  0,00693265	-125,0	  0,00687473	-124,9
     194,409	  0,00703547	-123,2	  0,00714351	-126,5
     194,516	  0,00699053	-126,0	  0,00697575	-127,1
     194,624	  0,00673678	-123,5	  0,00689234	-126,6
     194,731	  0,00698274	-128,0	  0,00703231	-124,7
     194,839	  0,00694565	-129,1	  0,00692366	-126,8
     194,946	  0,00712283	-124,9	  0,00705374	-126,3
     195,054	  0,00703836	-127,3	  0,00690692	-127,6
     195,161	  0,00663533	-131,2	   0,0070718	-125,9
     195,269	  0,00693113	-127,8	  0,00703559	-125,5
     195,376	  0,00703203	-123,9	  0,00707169	-126,5
     195,484	  0,00713704	-124,8	  0,00690173	-128,8
     195,591	   0,0067238	-123,9	  0,00684772	-127,8
     195,699	  0,00700006	-126,5	  0,00698852	-124,0
     195,806	  0,00686844	-121,5	  0,00686618	-126,7
     195,914	  0,00665353	-122,9	  0,00697837	-126,8
     196,021	  0,00678477	-128,2	  0,00701691	-127,0
     196,129	    0,007019	-130,8	    0,007003	-127,1
     196,237	    0,007047	-125,6	  0,00691109	-122,8
     196,344	  0,00680921	-128,4	  0,00713362	-123,9
     196,452	  0,00674484	-125,5	  0,00708121	-125,4
     196,559	  0,00688791	-126,2	  0,00714004	-125,4
     196,667	  0,00728287	-127,6	  0,00706317	-125,3
     196,774	  0,00702655	-129,2	   0,0071615	-122,5
     196,882	   0,0069716	-126,3	   0,0070124	-126,4
     196,989	  0,00689668	-121,6	  0,00700749	-122,0
     197,097	  0,00684484	-123,2	  0,00694866	-119,9
     197,204	  0,00694151	-123,0	  0,00704144	-124,4
     197,312	  0,00697136	-128,3	  0,00712438	-124,3
     197,419	  0,00693002	-125,9	  0,00700173	-123,1
     197,527	  0,00715307	-127,6	  0,00698252	-125,4
     197,634	  0,00681165	-122,7	  0,00687797	-124,2
     197,742	  0,00693299	-126,6	  0,00719969	-128,1
     197,849	  0,00699979	-125,4	  0,00699306	-126,5
     197,957	  0,00697436	-126,5	  0,00699672	-124,5
     198,065	  0,00711787	-124,1	  0,00699532	-125,9
     198,172	  0,00710289	-127,1	  0,00702168	-124,7
      198,28	  0,00694945	-125,3	  0,00712602	-126,3
     198,387	    0,007072	-123,7	    0,006883	-123,2
     198,495	  0,00729313	-128,5	  0,00709882	-125,0
     198,602	  0,00708733	-123,4	  0,00684529	-126,0
      198,71	  0,00699384	-124,1	  0,00710419	-129,5
     198,817	  0,00690588	-124,6	  0,00736241	-127,6
     198,925	  0,00717238	-129,6	  0,00723593	-126,4
     199,032	  0,00703344	-123,2	  0,00696148	-124,6
      199,14	  0,00695652	-124,5	  0,00721844	-126,2
     199,247	  0,00707953	-126,7	  0,00713692	-125,2
     199,355	  0,00697935	-125,0	  0,00717588	-124,9
     199,462	  0,00714039	-127,5	  0,00726797	-127,4
      199,57	   0,0071324	-125,6	  0,00740577	-131,7
     199,677	  0,00736315	-130,2	  0,00687652	-122,8
     199,785	  0,00711438	-125,3	  0,00715718	-126,6
     199,892	  0,00705974	-123,9	  0,00714352	-126,9
         200	  0,00705283	-122,5	  0,00722739	-127,5
     200,108	  0,00730869	-126,4	  0,00754254	-128,6
     200,215	  0,00713129	-128,0	  0,00731639	-126,6
     200,323	  0,00693977	-125,9	  0,00710802	-128,3
      200,43	  0,00719575	-125,9	  0,00706734	-122,4
     200,538	  0,00740385	-128,0	  0,00716884	-123,2
     200,645	  0,00697103	-126,7	  0,00710616	-124,9
     200,753	   0,0073039	-126,5	  0,00722313	-123,1
      200,86	  0,00705309	-123,2	  0,00721919	-126,3
     200,968	  0,00702683	-124,8	  0,00726092	-123,2
     201,075	  0,00726173	-124,0	  0,00710841	-125,5
     201,183	  0,00714165	-124,3	  0,00733176	-125,1
      201,29	  0,00730327	-126,9	  0,00735427	-129,1
     201,398	  0,00710051	-124,3	  0,00724545	-126,2
     201,505	  0,00731112	-126,8	  0,00733645	-127,1
     201,613	  0,00728555	-125,4	  0,00713896	-126,0
      201,72	  0,00719654	-123,5	  0,00705033	-122,8
     201,828	  0,00718606	-126,0	  0,00723381	-119,2
     201,935	  0,00730146	-125,8	  0,00732926	-124,4
     202,043	  0,00696023	-124,8	  0,00727736	-125,8
     202,151	  0,00717357	-125,5	  0,00704007	-125,1
     202,258	  0,00732793	-125,8	  0,00742944	-128,7
     202,366	  0,00734928	-129,2	  0,00712713	-123,4
     202,473	  0,00718261	-124,8	  0,00706871	-124,9
     202,581	  0,00715905	-126,9	  0,00735656	-124,3
     202,688	  0,00727465	-126,0	  0,00719028	-124,0
     202,796	  0,00731631	-125,1	  0,00736462	-124,7
     202,903	  0,00773707	-127,9	  0,00733897	-125,2
     203,011	  0,00700568	-122,5	  0,00692912	-121,0
     203,118	  0,00743727	-125,0	  0,00765436	-127,0
     203,226	  0,00728369	-126,5	  0,00755694	-125,4
     203,333	  0,00719645	-125,6	  0,00739846	-124,3
     203,441	   0,0072343	-124,9	  0,00709449	-122,1
     203,548	  0,00750949	-123,6	  0,00753293	-127,7
     203,656	  0,00774958	-126,7	  0,00728025	-120,5
     203,763	  0,00755514	-127,8	  0,00772889	-126,1
     203,871	  0,00739691	-125,0	    0,007348	-125,7
     203,979	  0,00739539	-128,7	  0,00758286	-126,1
     204,086	  0,00734899	-127,3	  0,00733414	-120,8
     204,194	  0,00739854	-127,4	  0,00747888	-126,6
     204,301	  0,00726645	-126,5	  0,00772009	-124,4
     204,409	   0,0073673	-124,5	  0,00769349	-127,1
     204,516	  0,00732235	-125,6	  0,00752652	-123,7
     204,624	  0,00734838	-124,0	  0,00775626	-128,5
     204,731	  0,00707241	-120,7	  0,00782179	-130,3
     204,839	  0,00758433	-123,0	  0,00720036	-125,6
     204,946	   0,0076111	-127,6	  0,00751463	-123,9
     205,054	   0,0072943	-125,8	   0,0075055	-131,6
     205,161	  0,00747594	-123,6	  0,00740136	-124,5
     205,269	  0,00756349	-125,4	  0,00758902	-124,9
     205,376	  0,00771257	-126,5	  0,00775459	-125,0
     205,484	  0,00751485	-121,9	  0,00752258	-126,1
     205,591	  0,00747736	-124,6	  0,00761939	-127,8
     205,699	  0,00746746	-124,5	  0,00767566	-127,3
     205,806	  0,00773329	-127,3	  0,00770225	-127,4
     205,914	  0,00763234	-125,1	  0,00726795	-125,8
     206,021	   0,0075092	-126,0	  0,00754892	-124,7
     206,129	   0,0075458	-126,2	  0,00765797	-124,8
     206,237	   0,0076956	-126,7	  0,00786721	-124,9
     206,344	  0,00734006	-123,1	  0,00756798	-122,5
     206,452	  0,00720069	-125,8	  0,00770353	-124,3
     206,559	  0,00739293	-121,4	  0,00713492	-126,6
     206,667	   0,0076898	-124,8	  0,00727087	-125,8
     206,774	  0,00779263	-126,8	  0,00772629	-125,0
     206,882	  0,00770837	-126,5	  0,00763908	-127,6
     206,989	  0,00766009	-124,1	  0,00771583	-125,7
     207,097	  0,00753454	-125,1	  0,00777651	-124,2
     207,204	  0,00777642	-126,6	  0,00767773	-124,4
     207,312	  0,00762836	-124,9	  0,00788114	-126,3
     207,419	   0,0082073	-124,6	  0,00764338	-124,5
     207,527	  0,00782771	-123,4	  0,00778207	-128,7
     207,634	  0,00732642	-120,6	  0,00790321	-124,8
     207,742	  0,00789514	-124,8	  0,00767402	-126,8
     207,849	  0,00804741	-126,3	  0,00791731	-125,8
     207,957	  0,00758702	-123,3	  0,00785456	-123,5
     208,065	  0,00744008	-125,3	  0,00758796	-123,0
     208,172	  0,00775201	-127,0	  0,00784263	-125,5
      208,28	  0,00795363	-127,6	  0,00755754	-123,2
     208,387	  0,00785196	-120,7	  0,00761291	-124,2
     208,495	  0,00755248	-122,8	  0,00755312	-125,8
     208,602	  0,00794003	-124,2	  0,00789472	-127,4
      208,71	  0,00793169	-125,9	   0,0078455	-125,3
     208,817	  0,00807293	-123,0	  0,00768686	-127,0
     208,925	  0,00794657	-123,2	  0,00774429	-120,1
     209,032	  0,00787348	-124,5	  0,00775584	-124,2
      209,14	  0,00751926	-123,0	  0,00833378	-127,3
     209,247	  0,00731463	-126,7	  0,00744762	-123,7
     209,355	  0,00789327	-120,4	  0,00813089	-123,3
     209,462	  0,00787462	-123,3	    0,007851	-123,2
      209,57	  0,00848582	-127,9	  0,00816491	-123,7
     209,677	  0,00778125	-122,6	  0,00809308	-125,5
     209,785	  0,00806678	-124,6	  0,00800701	-122,7
     209,892	    0,008083	-123,4	  0,00821568	-124,6
         210	    0,007715	-124,4	  0,00835967	-127,2

