X-Data [Hz]	Laser (M - Filtered) [m/s]	Phase [Deg]	Laser (M - Filtered) [m/s]	Phase [Deg]	
	002: [07-10-24 10:27]		003: [07-10-24 10:30]	
        41,5	  0,00530551	76,2	  0,00554281	80,2
      41,502	  0,00518495	74,6	  0,00551147	80,6
     41,5039	  0,00532237	79,5	  0,00542064	80,1
     41,5059	  0,00527938	84,1	  0,00535729	75,4
     41,5078	   0,0052945	81,1	  0,00540661	77,1
     41,5098	  0,00530143	72,8	  0,00538065	74,9
     41,5117	  0,00515025	79,0	  0,00546655	75,7
     41,5137	  0,00555599	71,6	  0,00553345	79,6
     41,5156	  0,00553386	76,2	  0,00545027	77,6
     41,5176	  0,00539327	86,2	  0,00539026	77,5
     41,5196	  0,00538278	87,9	  0,00542369	73,5
     41,5215	   0,0053036	79,3	  0,00548506	82,0
     41,5235	  0,00534373	73,6	  0,00549797	76,8
     41,5254	  0,00551927	81,2	  0,00550873	76,8
     41,5274	   0,0055535	78,7	  0,00547212	79,1
     41,5293	  0,00542199	81,2	  0,00554118	80,2
     41,5313	  0,00549674	77,7	  0,00544651	81,2
     41,5332	   0,0057181	71,7	  0,00543394	79,8
     41,5352	  0,00540089	70,7	  0,00553632	79,6
     41,5371	  0,00561334	72,1	  0,00548348	78,8
     41,5391	  0,00560312	77,7	   0,0054651	78,7
     41,5411	   0,0053877	83,0	  0,00544981	80,4
      41,543	  0,00535919	86,0	  0,00563344	76,5
      41,545	  0,00562273	74,8	  0,00561595	83,0
     41,5469	  0,00564011	78,2	   0,0054046	74,4
     41,5489	  0,00548085	84,4	  0,00545619	76,1
     41,5508	  0,00541361	83,6	  0,00559707	77,8
     41,5528	  0,00540348	78,6	  0,00553629	78,1
     41,5547	  0,00544317	76,5	  0,00553362	80,2
     41,5567	  0,00574795	73,8	  0,00563975	78,4
     41,5587	  0,00570106	69,9	  0,00554308	82,1
     41,5606	  0,00568379	70,6	  0,00554109	77,2
     41,5626	  0,00561217	84,7	  0,00558488	80,8
     41,5645	  0,00557315	76,1	  0,00567117	80,8
     41,5665	  0,00546221	81,0	  0,00568389	78,3
     41,5684	  0,00558685	75,9	  0,00579688	78,9
     41,5704	  0,00549695	78,9	  0,00571138	72,4
     41,5723	  0,00551344	85,7	  0,00580165	75,5
     41,5743	  0,00561284	83,1	  0,00570562	80,1
     41,5762	  0,00540924	81,2	  0,00562629	80,5
     41,5782	  0,00552933	76,1	  0,00572702	80,5
     41,5802	  0,00572242	76,1	   0,0057984	78,6
     41,5821	  0,00578836	78,6	  0,00574026	80,2
     41,5841	  0,00560901	80,9	  0,00559256	78,7
      41,586	  0,00564507	85,0	  0,00563743	81,9
      41,588	  0,00583374	72,9	   0,0056702	82,8
     41,5899	  0,00571601	74,7	  0,00566664	80,8
     41,5919	  0,00578895	76,0	  0,00575325	79,8
     41,5938	  0,00559606	79,2	  0,00580321	76,7
     41,5958	  0,00556531	79,6	  0,00573692	79,6
     41,5978	  0,00581959	72,6	  0,00568065	75,9
     41,5997	  0,00583025	74,2	  0,00568555	81,5
     41,6017	  0,00580702	85,9	  0,00582768	78,9
     41,6036	  0,00572725	79,4	  0,00578559	76,1
     41,6056	  0,00558208	80,1	  0,00565832	78,7
     41,6075	  0,00554608	77,2	  0,00578003	76,0
     41,6095	   0,0057145	77,7	  0,00568431	81,8
     41,6114	  0,00587447	76,0	  0,00576923	77,9
     41,6134	  0,00572799	76,7	  0,00573748	79,1
     41,6153	  0,00577585	78,9	  0,00578074	79,2
     41,6173	  0,00589388	74,8	  0,00582749	79,2
     41,6193	  0,00583814	84,3	  0,00584309	80,3
     41,6212	  0,00569753	74,6	  0,00574256	83,4
     41,6232	  0,00555977	78,5	  0,00574619	76,2
     41,6251	  0,00569959	84,7	  0,00586366	82,1
     41,6271	  0,00576924	87,5	  0,00585156	78,4
      41,629	  0,00574025	75,5	    0,005783	78,4
      41,631	   0,0057733	77,6	  0,00582621	79,1
     41,6329	  0,00590029	72,0	  0,00589019	77,6
     41,6349	  0,00590911	78,9	  0,00580807	82,1
     41,6369	  0,00579686	87,0	  0,00585598	75,5
     41,6388	  0,00581697	79,9	  0,00591962	76,6
     41,6408	  0,00577167	80,9	  0,00602187	82,6
     41,6427	  0,00574469	80,5	   0,0059498	78,0
     41,6447	  0,00550829	84,0	  0,00594358	80,3
     41,6466	  0,00573735	78,3	  0,00602747	75,7
     41,6486	  0,00588467	76,5	  0,00602501	82,0
     41,6505	  0,00587148	77,0	  0,00584979	82,1
     41,6525	  0,00581826	78,0	  0,00582342	84,7
     41,6544	  0,00584273	83,8	  0,00578412	85,7
     41,6564	  0,00600706	84,0	  0,00591112	76,7
     41,6584	  0,00607416	82,0	  0,00604608	81,7
     41,6603	  0,00600141	81,0	  0,00595934	79,9
     41,6623	  0,00597486	75,6	  0,00592551	77,3
     41,6642	   0,0058497	82,8	  0,00595353	78,3
     41,6662	  0,00591626	82,2	  0,00608081	74,9
     41,6681	  0,00592358	79,4	  0,00600885	76,8
     41,6701	  0,00605688	78,9	  0,00601587	75,7
      41,672	  0,00621745	76,8	  0,00600354	75,5
      41,674	  0,00609137	78,8	   0,0060588	79,5
      41,676	  0,00596044	83,8	  0,00614394	77,6
     41,6779	  0,00580428	78,9	  0,00593973	81,7
     41,6799	  0,00598532	82,0	  0,00596104	73,5
     41,6818	  0,00602538	80,3	  0,00597078	78,0
     41,6838	  0,00596441	83,6	   0,0060322	83,9
     41,6857	  0,00595069	82,0	  0,00597411	79,2
     41,6877	  0,00600696	77,0	  0,00598656	80,6
     41,6896	  0,00597724	81,6	  0,00604555	81,4
     41,6916	  0,00617191	73,7	  0,00616893	74,8
     41,6936	  0,00613567	77,1	  0,00624511	79,1
     41,6955	  0,00593519	85,6	  0,00614376	77,8
     41,6975	  0,00609265	79,0	   0,0060498	77,4
     41,6994	   0,0060016	81,3	  0,00609682	81,7
     41,7014	  0,00610737	77,9	  0,00615565	77,6
     41,7033	  0,00614523	76,1	  0,00616343	85,1
     41,7053	  0,00617685	79,9	  0,00612514	80,9
     41,7072	  0,00619741	76,6	  0,00632852	79,6
     41,7092	  0,00604299	84,1	  0,00614303	78,5
     41,7111	  0,00612286	82,3	  0,00621578	78,1
     41,7131	  0,00604453	80,7	  0,00622077	84,0
     41,7151	  0,00607235	75,2	  0,00628305	79,6
      41,717	  0,00613473	75,1	  0,00608177	81,6
      41,719	   0,0062305	77,2	  0,00624052	78,4
     41,7209	  0,00618573	83,4	   0,0062251	76,4
     41,7229	  0,00628177	76,6	  0,00629471	81,8
     41,7248	  0,00616648	81,6	  0,00621355	82,2
     41,7268	  0,00627263	81,4	  0,00620823	79,4
     41,7287	  0,00636313	81,7	  0,00615143	88,0
     41,7307	  0,00634576	86,4	  0,00616765	79,4
     41,7327	  0,00637327	76,3	  0,00611929	86,1
     41,7346	   0,0063179	77,6	  0,00624426	80,6
     41,7366	  0,00638243	76,7	  0,00630753	79,8
     41,7385	  0,00643003	79,0	  0,00626556	83,7
     41,7405	  0,00641625	79,3	  0,00644594	78,3
     41,7424	  0,00635696	77,7	  0,00653511	79,0
     41,7444	  0,00629382	77,8	  0,00656752	73,0
     41,7463	  0,00631703	81,9	  0,00648396	71,7
     41,7483	  0,00631846	80,0	  0,00653502	80,8
     41,7502	  0,00639391	81,4	    0,006423	78,0
     41,7522	   0,0063855	81,9	  0,00650466	81,1
     41,7542	  0,00642179	77,8	   0,0062396	83,2
     41,7561	  0,00633019	79,5	  0,00637832	76,9
     41,7581	  0,00624859	81,2	  0,00630978	82,1
       41,76	  0,00631336	83,7	  0,00655325	77,7
      41,762	  0,00626001	88,5	  0,00631474	82,9
     41,7639	   0,0063546	80,4	  0,00628895	85,3
     41,7659	  0,00636802	81,4	  0,00617491	83,0
     41,7678	  0,00644083	76,6	   0,0062056	88,2
     41,7698	  0,00639378	80,8	  0,00632776	88,3
     41,7718	  0,00640019	82,0	   0,0065107	85,2
     41,7737	   0,0064422	80,4	  0,00661451	84,1
     41,7757	  0,00639329	76,0	  0,00662129	79,8
     41,7776	  0,00640096	82,9	   0,0065256	84,3
     41,7796	  0,00649624	81,1	  0,00661351	82,4
     41,7815	  0,00651885	83,1	    0,006713	77,7
     41,7835	  0,00655711	80,1	  0,00662372	80,8
     41,7854	   0,0065543	76,4	  0,00658924	74,8
     41,7874	  0,00661652	82,2	  0,00631782	81,0
     41,7893	  0,00661404	79,6	  0,00659888	79,6
     41,7913	  0,00654573	80,4	  0,00653349	83,1
     41,7933	  0,00641925	88,4	  0,00660495	81,5
     41,7952	  0,00639035	78,9	  0,00652807	83,6
     41,7972	   0,0064428	81,2	  0,00654877	80,5
     41,7991	  0,00627627	84,6	  0,00643143	85,1
     41,8011	  0,00649232	81,9	  0,00642755	85,2
      41,803	  0,00651496	78,5	  0,00651491	84,4
      41,805	  0,00666343	81,2	  0,00657528	87,8
     41,8069	  0,00655285	80,4	  0,00665377	84,1
     41,8089	  0,00666547	83,9	  0,00661523	83,0
     41,8109	  0,00657778	80,8	  0,00647899	83,7
     41,8128	  0,00647641	82,3	  0,00665243	78,6
     41,8148	  0,00665182	82,8	  0,00656307	82,9
     41,8167	  0,00666724	78,5	  0,00659985	81,0
     41,8187	  0,00662075	83,1	  0,00676379	83,9
     41,8206	  0,00668959	80,3	  0,00683495	82,9
     41,8226	  0,00672481	76,4	  0,00661315	81,0
     41,8245	  0,00660537	86,9	  0,00685113	77,4
     41,8265	   0,0066964	84,7	  0,00697577	77,2
     41,8284	  0,00659025	82,4	  0,00680119	77,4
     41,8304	  0,00664914	83,0	  0,00693372	79,2
     41,8324	  0,00667423	77,4	  0,00687967	80,0
     41,8343	  0,00666718	82,2	  0,00705526	78,0
     41,8363	  0,00670948	85,9	  0,00713136	76,3
     41,8382	  0,00671136	80,3	  0,00701407	75,9
     41,8402	  0,00671231	83,6	  0,00692825	80,0
     41,8421	   0,0066128	86,3	  0,00687652	79,8
     41,8441	  0,00669887	79,2	  0,00674341	82,3
      41,846	  0,00665953	79,8	  0,00688857	83,9
      41,848	  0,00678089	75,8	  0,00697882	78,0
       41,85	  0,00677736	81,8	  0,00709743	79,0
     41,8519	  0,00677517	88,0	   0,0069809	79,3
     41,8539	   0,0068429	80,5	  0,00676343	76,6
     41,8558	  0,00659493	85,5	  0,00672044	83,6
     41,8578	  0,00678198	86,6	  0,00674408	88,7
     41,8597	  0,00681198	84,8	  0,00696378	85,3
     41,8617	  0,00681387	81,3	  0,00701531	84,6
     41,8636	  0,00679794	78,4	  0,00701158	78,3
     41,8656	  0,00693685	83,2	  0,00699533	79,8
     41,8675	   0,0068364	86,7	  0,00691659	82,6
     41,8695	  0,00688439	85,4	  0,00693257	81,1
     41,8715	  0,00698345	78,7	  0,00709089	75,9
     41,8734	  0,00678661	84,0	  0,00705696	83,5
     41,8754	  0,00674284	92,1	  0,00698594	82,3
     41,8773	  0,00684892	88,6	  0,00692126	87,9
     41,8793	   0,0069511	83,9	  0,00707135	87,1
     41,8812	  0,00706376	82,4	  0,00711548	82,8
     41,8832	  0,00704481	82,2	  0,00708124	79,8
     41,8851	  0,00686102	87,7	  0,00709477	81,6
     41,8871	  0,00697945	79,0	  0,00707252	80,1
     41,8891	  0,00695333	85,5	  0,00717896	86,4
      41,891	  0,00701718	84,8	  0,00711565	81,0
      41,893	  0,00675974	85,6	  0,00709784	85,8
     41,8949	  0,00704607	85,4	   0,0071215	85,6
     41,8969	  0,00707271	80,3	  0,00700665	79,3
     41,8988	  0,00705545	83,6	   0,0071372	81,4
     41,9008	  0,00701797	88,7	  0,00727627	81,9
     41,9027	  0,00702896	81,0	  0,00732016	77,1
     41,9047	  0,00700904	83,1	  0,00718431	84,4
     41,9066	  0,00716382	88,0	  0,00715411	84,6
     41,9086	  0,00726291	86,1	  0,00716444	85,3
     41,9106	  0,00714529	83,2	  0,00725724	85,6
     41,9125	  0,00726986	84,6	  0,00721338	78,3
     41,9145	  0,00715271	83,1	  0,00719085	81,4
     41,9164	  0,00697444	81,3	  0,00720594	85,8
     41,9184	   0,0070856	85,0	  0,00723305	82,4
     41,9203	  0,00702296	81,5	   0,0071252	85,5
     41,9223	  0,00713962	87,1	  0,00715562	83,3
     41,9242	  0,00717272	84,3	   0,0072437	82,7
     41,9262	  0,00726114	79,3	  0,00725114	87,8
     41,9282	  0,00717821	85,9	   0,0073788	80,7
     41,9301	  0,00719787	86,7	  0,00742285	79,6
     41,9321	  0,00729747	78,7	  0,00735861	84,3
      41,934	  0,00733486	82,5	  0,00736385	83,2
      41,936	  0,00738972	87,5	  0,00741042	83,4
     41,9379	  0,00730285	85,5	  0,00753987	83,9
     41,9399	  0,00732996	81,3	  0,00744168	81,7
     41,9418	  0,00746736	81,4	  0,00756893	81,3
     41,9438	  0,00746788	78,9	  0,00745759	83,8
     41,9457	  0,00754968	83,7	  0,00741103	83,0
     41,9477	  0,00752513	81,8	  0,00744837	86,1
     41,9497	  0,00738736	84,0	  0,00746668	84,7
     41,9516	  0,00735663	87,2	  0,00754088	85,6
     41,9536	  0,00734649	83,8	  0,00754965	85,0
     41,9555	  0,00741689	82,2	  0,00750075	81,9
     41,9575	  0,00745904	86,6	   0,0074615	81,0
     41,9594	  0,00762768	86,9	  0,00745853	86,0
     41,9614	  0,00751545	85,0	  0,00751487	82,3
     41,9633	  0,00754723	86,7	  0,00756396	84,3
     41,9653	   0,0075213	81,2	  0,00754223	86,5
     41,9673	  0,00745515	84,7	  0,00758331	82,6
     41,9692	  0,00758869	84,9	  0,00759574	83,3
     41,9712	    0,007641	82,7	  0,00755406	86,1
     41,9731	  0,00766294	85,2	  0,00767243	84,3
     41,9751	  0,00761196	89,8	  0,00763728	81,8
      41,977	  0,00771012	79,4	  0,00782155	83,8
      41,979	  0,00768169	85,1	  0,00796857	81,8
     41,9809	   0,0076139	82,5	  0,00801307	80,5
     41,9829	  0,00760578	83,2	  0,00786088	86,4
     41,9848	  0,00757372	83,8	  0,00785748	82,5
     41,9868	  0,00752341	85,6	  0,00772745	83,6
     41,9888	  0,00772843	78,3	  0,00767956	87,3
     41,9907	  0,00760118	92,4	  0,00762105	81,7
     41,9927	  0,00755832	84,1	  0,00771241	84,6
     41,9946	  0,00763654	84,1	  0,00786967	83,7
     41,9966	  0,00772492	84,6	  0,00792646	83,2
     41,9985	  0,00777207	83,3	  0,00798682	80,5
     42,0005	   0,0079404	77,4	  0,00789582	83,0
     42,0024	  0,00778536	90,1	  0,00781182	86,9
     42,0044	  0,00770285	85,1	  0,00783419	89,3
     42,0064	  0,00773923	87,3	  0,00791215	82,3
     42,0083	  0,00781217	87,1	  0,00810927	79,8
     42,0103	  0,00790091	78,9	  0,00795342	82,2
     42,0122	  0,00780269	82,1	  0,00792693	84,1
     42,0142	  0,00781865	86,4	  0,00797811	82,7
     42,0161	  0,00783458	83,0	  0,00809157	85,0
     42,0181	  0,00793157	85,0	  0,00828882	80,7
       42,02	  0,00799829	96,5	  0,00801573	82,5
      42,022	  0,00796514	85,5	  0,00810188	81,9
     42,0239	  0,00806636	84,8	  0,00809996	80,7
     42,0259	  0,00798213	85,9	   0,0081077	83,2
     42,0279	  0,00793222	83,5	  0,00805052	85,7
     42,0298	  0,00789733	80,4	  0,00792439	86,8
     42,0318	  0,00793467	85,9	  0,00796632	87,2
     42,0337	   0,0077153	86,4	   0,0079803	92,6
     42,0357	  0,00782374	82,3	  0,00802079	82,1
     42,0376	  0,00790425	93,2	  0,00802907	82,5
     42,0396	  0,00810654	85,5	   0,0080818	92,5
     42,0415	  0,00810461	83,2	  0,00825374	83,7
     42,0435	  0,00812088	83,8	  0,00832191	84,4
     42,0455	  0,00808944	89,8	  0,00825948	84,8
     42,0474	  0,00804982	84,3	  0,00814572	81,5
     42,0494	  0,00801164	92,1	    0,008146	81,8
     42,0513	  0,00812005	87,1	  0,00811091	84,2
     42,0533	  0,00814208	84,0	  0,00812328	84,8
     42,0552	  0,00820525	85,9	  0,00816447	84,1
     42,0572	   0,0081948	87,1	   0,0080081	93,2
     42,0591	  0,00820241	84,5	  0,00807483	89,3
     42,0611	  0,00827839	83,6	  0,00835745	85,0
      42,063	  0,00823988	85,7	  0,00831619	87,7
      42,065	   0,0081153	86,8	  0,00852423	83,1
      42,067	  0,00806098	88,5	  0,00857144	83,2
     42,0689	  0,00820297	88,9	  0,00858738	88,1
     42,0709	  0,00832437	86,2	  0,00848091	85,8
     42,0728	  0,00837374	87,3	  0,00881883	82,7
     42,0748	  0,00830164	83,8	  0,00894457	80,4
     42,0767	  0,00850355	82,1	  0,00894851	76,5
     42,0787	  0,00852934	84,7	  0,00839054	88,7
     42,0806	  0,00846643	88,2	  0,00827052	90,3
     42,0826	  0,00829845	87,7	  0,00829538	97,8
     42,0846	  0,00834987	91,8	  0,00849393	93,0
     42,0865	  0,00831958	89,5	   0,0087525	86,8
     42,0885	  0,00841913	80,9	  0,00861582	85,6
     42,0904	  0,00852577	83,0	  0,00857158	85,8
     42,0924	  0,00849745	95,3	  0,00858539	87,0
     42,0943	  0,00848716	86,7	  0,00865409	83,1
     42,0963	  0,00866145	87,0	  0,00864191	90,2
     42,0982	  0,00842954	96,5	  0,00868752	88,9
     42,1002	  0,00840414	83,2	  0,00885418	85,4
     42,1021	  0,00872035	81,1	  0,00903539	88,8
     42,1041	  0,00870779	89,5	   0,0087756	90,9
     42,1061	   0,0085697	85,5	  0,00885763	81,8
      42,108	   0,0087664	84,0	  0,00854202	87,4
       42,11	  0,00880583	87,5	  0,00885384	90,1
     42,1119	  0,00884394	90,6	   0,0088263	92,6
     42,1139	  0,00852396	86,0	  0,00918073	83,8
     42,1158	  0,00877853	86,0	  0,00874541	90,0
     42,1178	  0,00867699	92,5	   0,0087945	90,0
     42,1197	  0,00862863	84,6	  0,00866414	90,9
     42,1217	   0,0087626	87,9	  0,00864148	94,8
     42,1237	  0,00885312	88,0	  0,00885483	89,2
     42,1256	  0,00880501	87,2	  0,00901467	81,7
     42,1276	  0,00879833	86,4	  0,00894336	86,3
     42,1295	  0,00884421	91,6	  0,00894126	88,5
     42,1315	  0,00892334	87,8	  0,00908825	87,1
     42,1334	   0,0090165	93,1	  0,00905707	86,6
     42,1354	  0,00901777	92,3	  0,00898761	86,3
     42,1373	  0,00889262	84,2	  0,00909243	85,0
     42,1393	  0,00896298	87,4	  0,00913818	92,0
     42,1413	  0,00878549	95,4	  0,00903145	89,0
     42,1432	   0,0087998	86,4	   0,0090485	85,2
     42,1452	  0,00894544	81,3	  0,00902143	88,0
     42,1471	  0,00882677	97,1	  0,00910436	89,5
     42,1491	  0,00875599	88,3	  0,00910703	87,5
      42,151	   0,0090235	78,1	  0,00916016	90,7
      42,153	  0,00890385	93,7	   0,0090173	94,2
     42,1549	  0,00891837	87,7	  0,00930155	84,9
     42,1569	  0,00930126	83,2	  0,00943005	88,0
     42,1588	  0,00922323	96,7	  0,00913865	92,0
     42,1608	  0,00902003	90,2	  0,00894535	93,8
     42,1628	  0,00919719	81,4	  0,00904132	93,2
     42,1647	  0,00938163	90,5	  0,00924966	93,2
     42,1667	   0,0092988	96,8	  0,00927639	89,6
     42,1686	  0,00916825	88,0	  0,00934795	86,3
     42,1706	  0,00914306	88,1	  0,00930988	93,0
     42,1725	  0,00910899	84,6	  0,00930231	89,4
     42,1745	  0,00940675	87,8	  0,00934212	86,4
     42,1764	  0,00948316	95,4	  0,00939761	93,6
     42,1784	  0,00924647	91,2	  0,00949222	86,9
     42,1804	  0,00955032	91,8	  0,00943952	91,6
     42,1823	  0,00955552	93,6	  0,00942409	91,2
     42,1843	  0,00922544	85,8	   0,0094278	91,7
     42,1862	  0,00949196	88,3	  0,00949547	88,5
     42,1882	  0,00953077	95,1	  0,00958489	93,0
     42,1901	  0,00941831	97,5	  0,00938133	88,8
     42,1921	  0,00942907	87,2	  0,00943961	89,5
      42,194	  0,00944024	86,9	  0,00947226	95,7
      42,196	  0,00974704	90,4	  0,00957502	94,9
     42,1979	  0,00969599	93,6	   0,0096207	91,6
     42,1999	  0,00955656	91,2	  0,00974804	89,3
     42,2019	  0,00959334	87,9	  0,00978513	93,1
     42,2038	  0,00965061	90,9	  0,00991842	89,9
     42,2058	   0,0095494	90,2	  0,00987086	90,3
     42,2077	  0,00966012	83,5	  0,00978608	94,2
     42,2097	  0,00974348	89,7	  0,00976334	93,3
     42,2116	  0,00954797	94,8	   0,0099633	90,8
     42,2136	  0,00957618	88,9	  0,00997761	91,6
     42,2155	  0,00978076	86,8	   0,0100577	92,5
     42,2175	   0,0100057	94,3	   0,0101991	89,0
     42,2195	  0,00978834	91,9	    0,010159	92,7
     42,2214	  0,00986389	89,5	   0,0098866	88,2
     42,2234	  0,00997112	89,3	  0,00982677	95,9
     42,2253	  0,00995864	91,3	  0,00987911	95,8
     42,2273	  0,00985538	88,2	   0,0100034	94,6
     42,2292	  0,00989782	88,4	  0,00982704	86,5
     42,2312	   0,0099419	96,6	   0,0101009	84,8
     42,2331	  0,00990679	93,3	  0,00998432	89,1
     42,2351	  0,00989148	90,8	   0,0100424	96,6
      42,237	  0,00999285	95,1	   0,0100202	88,2
      42,239	  0,00991197	95,7	  0,00992329	94,9
      42,241	   0,0101681	83,5	  0,00997427	92,4
     42,2429	   0,0102247	91,6	   0,0101543	91,3
     42,2449	  0,00996724	93,6	   0,0101718	86,7
     42,2468	  0,00993097	91,6	   0,0101759	95,7
     42,2488	  0,00997389	92,2	   0,0102898	92,4
     42,2507	   0,0100649	98,1	   0,0102752	92,3
     42,2527	    0,010217	95,0	   0,0103804	95,5
     42,2546	   0,0101857	91,7	    0,010511	91,3
     42,2566	   0,0102626	91,5	   0,0106347	91,2
     42,2586	   0,0101685	93,2	   0,0105832	93,0
     42,2605	   0,0102607	89,0	   0,0104685	98,0
     42,2625	   0,0104374	93,2	   0,0105905	94,9
     42,2644	   0,0103798	94,4	   0,0107041	89,4
     42,2664	   0,0104488	89,4	   0,0106217	91,5
     42,2683	   0,0105481	87,5	   0,0105716	94,7
     42,2703	   0,0104082	97,1	   0,0108695	95,4
     42,2722	    0,010497	95,3	   0,0108757	94,3
     42,2742	   0,0105175	95,1	   0,0107724	95,9
     42,2761	    0,010413	92,3	    0,010731	93,1
     42,2781	   0,0103098	96,0	   0,0107603	100,2
     42,2801	   0,0104149	90,5	   0,0108647	93,7
      42,282	   0,0103834	89,3	   0,0106841	92,8
      42,284	   0,0105217	97,1	   0,0107655	94,9
     42,2859	   0,0105418	97,3	   0,0107398	94,4
     42,2879	    0,010556	87,4	   0,0106137	92,9
     42,2898	   0,0106178	96,3	   0,0106886	96,8
     42,2918	   0,0105232	96,8	   0,0108279	93,1
     42,2937	   0,0108493	93,0	   0,0107425	93,3
     42,2957	   0,0107965	91,9	   0,0107859	91,3
     42,2977	   0,0107801	96,3	   0,0107943	95,9
     42,2996	   0,0107395	96,5	   0,0108562	96,6
     42,3016	   0,0108332	92,4	   0,0109938	89,8
     42,3035	   0,0108121	97,4	   0,0111619	95,7
     42,3055	   0,0108966	97,9	   0,0113524	99,8
     42,3074	   0,0109153	90,9	   0,0113322	94,3
     42,3094	   0,0111193	90,0	   0,0112807	96,9
     42,3113	   0,0111492	96,5	    0,011519	99,0
     42,3133	   0,0110176	96,5	   0,0114093	92,4
     42,3153	   0,0109965	95,3	   0,0112877	95,8
     42,3172	   0,0109176	95,3	   0,0113178	100,7
     42,3192	   0,0110658	98,8	   0,0113607	99,6
     42,3211	   0,0112567	93,3	   0,0111086	95,1
     42,3231	   0,0112447	98,3	   0,0111407	96,5
      42,325	   0,0111718	97,5	   0,0113738	94,7
      42,327	   0,0112678	95,0	   0,0112133	91,8
     42,3289	   0,0113505	95,0	   0,0112056	96,9
     42,3309	   0,0113603	95,0	   0,0113668	99,1
     42,3328	   0,0113383	99,0	   0,0115648	95,9
     42,3348	   0,0113723	98,2	   0,0114543	94,5
     42,3368	   0,0112693	96,7	    0,011642	94,4
     42,3387	   0,0113852	95,2	   0,0118711	100,5
     42,3407	   0,0114454	95,4	   0,0118003	97,8
     42,3426	   0,0114488	97,2	   0,0118555	100,3
     42,3446	   0,0115353	95,4	   0,0118833	97,3
     42,3465	   0,0116486	99,2	    0,011825	97,5
     42,3485	   0,0116464	95,7	   0,0118263	100,5
     42,3504	   0,0116016	93,3	    0,011951	96,1
     42,3524	   0,0117376	99,0	    0,011818	98,4
     42,3544	    0,011711	100,6	   0,0117907	93,1
     42,3563	   0,0116721	98,1	   0,0118685	95,0
     42,3583	   0,0118233	93,7	   0,0119315	98,7
     42,3602	   0,0119037	98,4	   0,0118629	97,3
     42,3622	   0,0117641	98,2	   0,0118825	93,2
     42,3641	   0,0117444	94,4	   0,0122842	94,8
     42,3661	   0,0117739	99,7	   0,0122683	93,5
      42,368	   0,0116935	97,6	   0,0122305	102,9
       42,37	   0,0118034	93,9	   0,0124224	94,3
     42,3719	   0,0119638	94,7	   0,0123154	99,8
     42,3739	   0,0120731	102,4	    0,012308	102,7
     42,3759	    0,012034	102,0	   0,0123443	94,8
     42,3778	   0,0120385	95,8	   0,0122206	96,0
     42,3798	   0,0119882	98,6	   0,0122235	100,4
     42,3817	    0,012081	99,0	   0,0124241	100,6
     42,3837	   0,0120872	100,8	   0,0125624	92,9
     42,3856	   0,0122774	98,0	   0,0125869	103,4
     42,3876	   0,0122897	98,9	   0,0128132	104,0
     42,3895	   0,0124427	99,4	   0,0127079	100,1
     42,3915	   0,0124238	101,5	   0,0127594	106,9
     42,3935	   0,0123618	101,6	   0,0129159	102,5
     42,3954	   0,0123335	98,1	   0,0126421	99,7
     42,3974	    0,012343	98,1	   0,0125519	99,8
     42,3993	   0,0123088	99,6	   0,0126554	103,8
     42,4013	   0,0122687	101,3	   0,0127263	102,8
     42,4032	    0,012444	99,6	   0,0124505	106,1
     42,4052	   0,0126195	102,0	   0,0127614	97,5
     42,4071	   0,0125851	95,6	   0,0127901	95,3
     42,4091	   0,0127062	98,6	      0,0128	99,1
      42,411	   0,0127891	102,5	   0,0130595	100,6
      42,413	   0,0127522	100,2	   0,0130441	99,4
      42,415	   0,0128091	99,3	   0,0130859	107,9
     42,4169	   0,0128729	105,2	   0,0130338	102,2
     42,4189	   0,0128304	104,0	   0,0127744	95,6
     42,4208	   0,0127987	96,2	    0,012951	100,2
     42,4228	   0,0128269	101,0	   0,0130889	102,3
     42,4247	    0,012731	104,1	   0,0130544	102,0
     42,4267	   0,0126044	106,3	   0,0131909	100,1
     42,4286	   0,0127485	102,7	   0,0134989	100,1
     42,4306	   0,0129904	100,3	   0,0135909	102,9
     42,4326	   0,0129966	106,6	   0,0135032	106,1
     42,4345	   0,0130172	103,5	   0,0136241	106,4
     42,4365	   0,0130112	100,2	   0,0134455	100,2
     42,4384	   0,0130674	100,9	   0,0133763	105,5
     42,4404	   0,0132315	103,3	   0,0135396	101,8
     42,4423	   0,0132722	106,1	   0,0133535	97,6
     42,4443	    0,013229	102,3	   0,0132788	107,7
     42,4462	   0,0133383	102,7	    0,013575	107,1
     42,4482	   0,0133945	107,3	   0,0137501	98,4
     42,4501	   0,0134871	102,3	   0,0137458	102,7
     42,4521	   0,0135404	99,3	   0,0139218	105,4
     42,4541	    0,013519	105,8	   0,0139895	100,5
      42,456	   0,0135642	104,4	   0,0139857	103,7
      42,458	   0,0135197	102,5	   0,0141615	108,6
     42,4599	   0,0135218	103,1	   0,0140424	100,9
     42,4619	   0,0136936	104,8	   0,0140268	103,5
     42,4638	   0,0135888	106,5	   0,0141218	105,7
     42,4658	   0,0136884	102,2	   0,0142214	103,6
     42,4677	   0,0137671	103,1	   0,0141208	103,5
     42,4697	   0,0138126	108,6	   0,0141076	102,4
     42,4717	   0,0139314	106,7	   0,0141962	109,8
     42,4736	   0,0140045	107,2	   0,0141699	103,3
     42,4756	   0,0139281	101,8	   0,0141342	99,0
     42,4775	   0,0140568	105,9	   0,0143048	104,1
     42,4795	   0,0141378	104,4	   0,0145115	110,6
     42,4814	   0,0141709	108,0	   0,0143275	108,3
     42,4834	   0,0140466	108,3	    0,014434	107,1
     42,4853	   0,0141879	108,3	   0,0147199	105,4
     42,4873	   0,0142199	107,0	   0,0147921	109,3
     42,4892	     0,01412	104,3	   0,0146035	110,5
     42,4912	   0,0141393	110,2	   0,0146586	110,4
     42,4932	   0,0142982	114,1	   0,0147105	106,0
     42,4951	   0,0142439	108,4	    0,014578	108,4
     42,4971	   0,0144104	108,4	   0,0145837	109,3
      42,499	   0,0144201	109,5	   0,0145358	106,4
      42,501	   0,0144917	112,6	   0,0146064	109,9
     42,5029	   0,0146701	109,0	    0,014814	112,6
     42,5049	   0,0146267	110,3	   0,0148521	109,3
     42,5068	   0,0145238	107,1	   0,0148577	108,2
     42,5088	   0,0146702	109,7	   0,0151003	114,1
     42,5108	   0,0146209	110,6	   0,0153283	113,3
     42,5127	   0,0147412	107,8	   0,0153998	108,4
     42,5147	    0,014852	110,9	   0,0154483	106,1
     42,5166	   0,0148696	111,7	   0,0154699	114,4
     42,5186	   0,0148807	110,2	   0,0154506	111,6
     42,5205	   0,0149195	113,0	   0,0153383	108,1
     42,5225	   0,0149285	110,7	   0,0155482	112,5
     42,5244	   0,0149407	111,8	    0,015605	111,3
     42,5264	   0,0151197	108,0	   0,0154298	114,2
     42,5283	   0,0151569	108,4	   0,0155963	111,5
     42,5303	   0,0152388	112,3	   0,0156929	108,1
     42,5323	   0,0152829	114,6	   0,0156644	110,0
     42,5342	   0,0154096	108,3	   0,0158245	112,7
     42,5362	    0,015416	107,1	   0,0158433	111,0
     42,5381	   0,0154859	112,8	   0,0158043	108,2
     42,5401	   0,0155379	114,7	    0,015994	115,5
      42,542	   0,0155413	110,9	   0,0160464	117,5
      42,544	   0,0155647	110,1	   0,0160533	112,6
     42,5459	     0,01562	114,8	   0,0159215	107,4
     42,5479	   0,0157023	116,4	   0,0160459	118,5
     42,5499	   0,0157213	109,7	   0,0161142	110,4
     42,5518	   0,0157668	112,3	   0,0160409	110,8
     42,5538	   0,0157057	115,6	   0,0161048	112,5
     42,5557	   0,0158747	111,2	    0,016307	119,8
     42,5577	   0,0159461	114,3	   0,0162988	110,5
     42,5596	   0,0159851	111,0	   0,0163452	111,1
     42,5616	   0,0160875	115,4	   0,0165483	116,2
     42,5635	   0,0160336	116,7	   0,0166838	117,3
     42,5655	    0,016117	112,7	   0,0165782	118,7
     42,5674	    0,015982	110,6	   0,0166203	113,2
     42,5694	   0,0161519	115,3	   0,0167355	114,4
     42,5714	   0,0161503	116,8	   0,0168101	118,6
     42,5733	   0,0162579	117,2	    0,016837	117,7
     42,5753	   0,0162887	114,8	   0,0168365	120,0
     42,5772	   0,0164027	113,7	   0,0167706	118,8
     42,5792	   0,0166236	119,9	   0,0169039	119,4
     42,5811	   0,0165527	121,5	   0,0169044	116,7
     42,5831	   0,0165704	116,4	    0,017021	114,6
      42,585	   0,0166343	117,2	   0,0170716	118,3
      42,587	   0,0166796	117,7	   0,0171109	120,8
      42,589	   0,0167161	118,4	   0,0170686	124,7
     42,5909	   0,0166142	115,9	   0,0171142	122,9
     42,5929	   0,0166695	116,3	   0,0171207	117,1
     42,5948	    0,016735	119,6	     0,01725	123,9
     42,5968	   0,0167253	118,5	   0,0172833	124,4
     42,5987	   0,0167856	115,0	   0,0173779	121,6
     42,6007	   0,0168359	117,1	   0,0175734	124,8
     42,6026	   0,0168902	119,3	   0,0174965	122,8
     42,6046	   0,0170597	123,1	   0,0175028	124,1
     42,6065	   0,0170471	117,5	   0,0176048	128,8
     42,6085	   0,0170525	123,0	   0,0176971	124,0
     42,6105	   0,0170588	120,1	   0,0172473	119,8
     42,6124	   0,0171963	123,1	    0,017762	127,1
     42,6144	   0,0171577	121,6	   0,0176452	119,1
     42,6163	   0,0171019	115,2	   0,0178611	122,6
     42,6183	   0,0172376	121,6	   0,0177375	123,4
     42,6202	   0,0172302	121,1	   0,0177241	126,2
     42,6222	   0,0172523	117,8	   0,0177009	127,5
     42,6241	   0,0173202	124,4	   0,0177576	121,6
     42,6261	   0,0173632	124,1	   0,0180155	126,2
     42,6281	   0,0175211	121,5	   0,0182365	126,4
       42,63	   0,0176215	125,2	   0,0183005	124,9
      42,632	    0,017623	118,9	    0,018234	125,8
     42,6339	   0,0177635	125,0	   0,0181316	129,7
     42,6359	   0,0176471	123,8	   0,0182494	127,1
     42,6378	   0,0178005	126,6	   0,0182504	127,3
     42,6398	   0,0179341	124,4	   0,0183583	125,6
     42,6417	   0,0179152	123,4	    0,018533	125,5
     42,6437	   0,0179646	124,4	   0,0185084	130,2
     42,6456	   0,0179851	128,5	   0,0186755	130,4
     42,6476	   0,0179733	123,7	   0,0186724	126,0
     42,6496	   0,0181698	120,8	   0,0185612	126,5
     42,6515	   0,0181378	127,4	   0,0187212	129,5
     42,6535	   0,0180774	126,1	   0,0186677	130,0
     42,6554	   0,0183221	124,8	   0,0188304	132,1
     42,6574	   0,0183117	126,9	   0,0188219	130,6
     42,6593	   0,0182887	123,7	   0,0188805	130,4
     42,6613	   0,0183541	126,9	   0,0190708	129,5
     42,6632	   0,0183113	126,7	   0,0191775	130,2
     42,6652	    0,018382	126,7	   0,0191019	129,0
     42,6672	   0,0183491	126,7	   0,0190774	130,2
     42,6691	   0,0185112	129,1	   0,0190058	133,9
     42,6711	   0,0185506	131,3	   0,0188956	133,1
      42,673	   0,0185847	128,0	   0,0190946	131,1
      42,675	   0,0184667	127,1	   0,0192149	132,0
     42,6769	   0,0185255	128,8	    0,019212	135,5
     42,6789	   0,0185748	133,8	    0,019242	136,0
     42,6808	   0,0186444	130,9	   0,0191732	133,3
     42,6828	   0,0188513	129,7	    0,019022	132,8
     42,6847	   0,0188351	131,2	   0,0190703	135,4
     42,6867	   0,0189117	132,1	   0,0190704	137,7
     42,6887	   0,0189524	134,5	   0,0191421	132,2
     42,6906	   0,0189616	133,4	   0,0192334	130,0
     42,6926	   0,0188662	134,2	   0,0192739	140,0
     42,6945	   0,0188971	130,8	   0,0194531	138,1
     42,6965	   0,0189657	136,2	   0,0194483	135,6
     42,6984	   0,0189268	132,8	   0,0194246	136,1
     42,7004	   0,0189849	137,1	   0,0194596	137,8
     42,7023	   0,0189634	134,7	   0,0194023	139,7
     42,7043	   0,0189977	136,7	   0,0194905	138,1
     42,7063	   0,0190733	139,4	   0,0195485	136,6
     42,7082	   0,0191687	135,7	   0,0195734	138,1
     42,7102	   0,0192307	132,5	   0,0196707	143,8
     42,7121	   0,0192274	135,5	   0,0197413	142,1
     42,7141	   0,0192655	137,1	   0,0198152	139,1
      42,716	   0,0192412	139,2	   0,0197246	137,7
      42,718	   0,0193058	134,4	   0,0197209	139,8
     42,7199	   0,0192896	137,0	   0,0195879	141,7
     42,7219	   0,0193027	141,8	   0,0195937	142,3
     42,7239	   0,0194778	143,1	   0,0197927	140,2
     42,7258	   0,0195875	139,9	   0,0197231	138,2
     42,7278	   0,0195758	138,4	   0,0197792	142,6
     42,7297	   0,0194941	138,1	   0,0198199	144,6
     42,7317	   0,0194689	142,9	   0,0198282	145,5
     42,7336	   0,0195575	141,9	   0,0197797	141,6
     42,7356	   0,0195388	142,4	   0,0198547	137,7
     42,7375	   0,0195753	139,3	   0,0197259	146,6
     42,7395	    0,019603	137,5	   0,0198537	144,1
     42,7414	   0,0195993	144,1	   0,0199281	141,5
     42,7434	   0,0196784	142,6	   0,0199261	141,6
     42,7454	   0,0196125	141,9	   0,0198534	145,0
     42,7473	   0,0197147	138,9	   0,0197981	144,9
     42,7493	   0,0196354	142,2	   0,0197477	145,1
     42,7512	   0,0196459	142,2	   0,0197922	142,6
     42,7532	   0,0196981	143,6	   0,0196497	147,7
     42,7551	   0,0197548	141,5	   0,0197117	150,4
     42,7571	    0,019652	143,7	   0,0197661	146,1
      42,759	   0,0197375	143,2	   0,0198624	146,6
      42,761	   0,0198167	145,1	   0,0199963	144,9
      42,763	   0,0198431	145,2	   0,0199961	144,2
     42,7649	   0,0198861	143,5	   0,0201161	149,6
     42,7669	    0,019982	144,6	   0,0200438	149,9
     42,7688	   0,0199959	148,3	   0,0201488	142,5
     42,7708	   0,0200436	148,1	   0,0201832	150,4
     42,7727	   0,0199997	144,9	   0,0201618	147,2
     42,7747	   0,0199817	143,8	   0,0201571	151,3
     42,7766	   0,0199949	147,9	   0,0201783	149,1
     42,7786	   0,0199003	150,3	   0,0199184	147,5
     42,7805	   0,0199531	145,5	   0,0200973	152,3
     42,7825	   0,0199523	146,2	   0,0198966	150,4
     42,7845	   0,0200308	147,9	   0,0199068	152,5
     42,7864	   0,0199747	147,9	    0,020019	152,7
     42,7884	   0,0199001	149,1	   0,0200283	150,0
     42,7903	    0,019924	153,2	   0,0202157	154,8
     42,7923	   0,0199329	147,7	   0,0199781	157,9
     42,7942	   0,0199538	149,4	   0,0201435	150,9
     42,7962	   0,0200191	150,1	   0,0200629	151,2
     42,7981	   0,0199712	154,5	   0,0200879	147,8
     42,8001	   0,0199959	155,0	   0,0201158	155,0
     42,8021	   0,0199165	151,4	   0,0199759	154,1
      42,804	   0,0199113	151,0	   0,0199311	161,3
      42,806	   0,0200404	155,8	     0,02012	155,7
     42,8079	   0,0200115	156,1	   0,0194027	153,2
     42,8099	   0,0200659	153,1	   0,0198625	159,1
     42,8118	   0,0201427	155,4	   0,0199538	159,1
     42,8138	   0,0200513	154,4	   0,0199378	157,3
     42,8157	   0,0200346	157,9	   0,0198237	151,9
     42,8177	   0,0199128	158,9	   0,0196988	153,9
     42,8196	   0,0199775	158,3	   0,0197595	159,8
     42,8216	   0,0199543	154,7	   0,0197005	161,3
     42,8236	   0,0199356	155,6	   0,0197571	158,1
     42,8255	   0,0199469	157,0	   0,0197233	154,2
     42,8275	   0,0199265	157,6	   0,0196803	160,9
     42,8294	   0,0199085	159,4	   0,0195938	159,4
     42,8314	   0,0198184	157,6	   0,0196033	159,0
     42,8333	   0,0198649	154,4	   0,0197005	159,1
     42,8353	   0,0198422	158,3	   0,0196289	158,2
     42,8372	   0,0198748	158,7	   0,0196822	158,0
     42,8392	   0,0197526	157,7	   0,0195685	162,7
     42,8412	   0,0197478	157,3	    0,019474	159,5
     42,8431	    0,019735	159,2	   0,0195077	161,6
     42,8451	   0,0197958	159,5	   0,0194654	159,4
      42,847	   0,0198164	163,0	   0,0194944	162,9
      42,849	   0,0197462	164,2	   0,0194827	159,6
     42,8509	   0,0196764	157,6	   0,0195269	165,3
     42,8529	   0,0196356	161,1	   0,0194223	158,5
     42,8548	   0,0196523	162,5	    0,019282	157,2
     42,8568	   0,0196881	162,8	   0,0194225	165,8
     42,8587	     0,01963	160,1	   0,0193706	166,0
     42,8607	    0,019705	161,3	   0,0185394	162,4
     42,8627	   0,0195267	163,9	   0,0194639	167,4
     42,8646	   0,0195012	164,5	   0,0192393	157,7
     42,8666	   0,0195227	164,0	   0,0192588	163,4
     42,8685	   0,0194783	166,5	   0,0193882	166,2
     42,8705	   0,0194017	162,2	   0,0192169	166,6
     42,8724	   0,0194463	162,5	   0,0192924	167,2
     42,8744	    0,019372	167,0	   0,0192283	162,7
     42,8763	   0,0193315	166,0	   0,0191058	167,8
     42,8783	   0,0192791	164,8	    0,019158	169,6
     42,8803	   0,0193255	165,5	   0,0190546	162,5
     42,8822	   0,0193447	164,1	   0,0190708	164,8
     42,8842	   0,0193685	163,6	   0,0188981	165,1
     42,8861	   0,0193424	166,4	   0,0189955	171,1
     42,8881	   0,0192153	167,9	   0,0189604	166,6
       42,89	    0,019139	167,7	   0,0189388	167,1
      42,892	   0,0191492	164,8	   0,0189173	162,6
     42,8939	   0,0190341	165,6	   0,0189543	167,4
     42,8959	     0,01914	168,9	   0,0188698	166,4
     42,8979	   0,0191144	170,7	    0,018673	169,9
     42,8998	   0,0190326	170,1	   0,0185843	170,1
     42,9018	   0,0190236	170,3	   0,0185686	168,1
     42,9037	   0,0188974	169,2	   0,0184888	164,6
     42,9057	   0,0188839	170,7	   0,0185659	171,3
     42,9076	   0,0189134	172,2	   0,0185578	170,9
     42,9096	   0,0189485	175,5	   0,0184811	163,2
     42,9115	   0,0189113	171,4	   0,0184283	172,5
     42,9135	   0,0187877	170,5	    0,018458	170,1
     42,9154	   0,0187344	171,5	   0,0183609	167,6
     42,9174	   0,0187146	171,0	   0,0183239	172,1
     42,9194	   0,0186452	172,5	   0,0184178	176,3
     42,9213	   0,0186065	172,0	   0,0183187	169,9
     42,9233	   0,0185865	171,1	   0,0183279	172,1
     42,9252	   0,0186059	169,8	   0,0182722	171,2
     42,9272	   0,0185589	169,7	   0,0182012	172,8
     42,9291	   0,0185749	173,7	   0,0180382	175,8
     42,9311	   0,0184801	175,9	   0,0180693	177,2
      42,933	   0,0183661	173,3	   0,0179925	172,6
      42,935	   0,0183999	171,7	   0,0180312	174,5
      42,937	   0,0183968	174,9	   0,0180144	176,5
     42,9389	   0,0183812	176,4	   0,0179927	176,3
     42,9409	   0,0183225	177,9	   0,0179027	172,6
     42,9428	   0,0182798	175,2	    0,017849	171,3
     42,9448	   0,0181787	173,7	   0,0179128	175,2
     42,9467	   0,0181107	179,0	   0,0178168	174,3
     42,9487	   0,0181202	176,6	    0,017814	176,0
     42,9506	   0,0180223	177,5	   0,0177769	177,1
     42,9526	    0,017969	177,7	   0,0175882	175,3
     42,9545	   0,0179422	176,4	   0,0176465	174,0
     42,9565	   0,0179164	173,5	   0,0177393	174,3
     42,9585	   0,0179038	173,6	   0,0176967	177,7
     42,9604	    0,017831	179,0	   0,0175677	180,0
     42,9624	   0,0177775	179,3	   0,0174427	179,1
     42,9643	   0,0177223	176,1	   0,0172157	177,7
     42,9663	   0,0176823	178,0	   0,0171058	177,4
     42,9682	   0,0176988	176,1	   0,0174152	179,8
     42,9702	   0,0176867	177,2	   0,0173415	183,1
     42,9721	   0,0177212	181,8	   0,0172701	182,4
     42,9741	   0,0176654	183,3	   0,0171303	179,9
     42,9761	    0,017636	177,8	   0,0171313	177,6
      42,978	   0,0175803	178,8	   0,0171171	180,7
       42,98	   0,0175227	178,8	   0,0172113	178,2
     42,9819	   0,0175264	180,3	   0,0170065	178,5
     42,9839	   0,0174786	184,0	   0,0170952	184,4
     42,9858	   0,0174672	181,1	   0,0169658	176,0
     42,9878	   0,0173069	178,3	   0,0169071	179,4
     42,9897	   0,0173105	177,8	   0,0168524	180,9
     42,9917	   0,0172918	177,2	   0,0168243	183,1
     42,9936	   0,0172343	182,3	   0,0167826	188,5
     42,9956	   0,0172325	182,8	   0,0165686	179,4
     42,9976	   0,0171673	181,9	   0,0166627	182,5
     42,9995	   0,0171172	182,3	   0,0166344	182,6
     43,0015	   0,0170064	179,6	   0,0165866	180,2
     43,0034	   0,0169705	180,7	   0,0167193	183,6
     43,0054	   0,0169178	185,3	   0,0164535	184,8
     43,0073	    0,016884	186,6	   0,0165007	183,3
     43,0093	   0,0168283	183,9	   0,0164647	181,3
     43,0112	   0,0168189	185,1	   0,0164741	183,7
     43,0132	   0,0167169	182,1	   0,0164734	184,2
     43,0152	   0,0166889	183,2	   0,0164803	185,5
     43,0171	   0,0166097	186,6	   0,0164123	181,6
     43,0191	   0,0165777	185,2	    0,016303	184,7
      43,021	   0,0164782	185,0	   0,0162267	181,4
      43,023	   0,0164535	184,7	   0,0162229	180,3
     43,0249	   0,0164458	183,1	   0,0161719	186,9
     43,0269	   0,0163873	182,1	   0,0161681	181,8
     43,0288	   0,0163796	184,3	   0,0161173	184,2
     43,0308	   0,0162927	186,3	   0,0161231	187,7
     43,0327	   0,0162176	186,5	   0,0159472	185,2
     43,0347	   0,0161467	187,9	   0,0158619	182,1
     43,0367	   0,0160961	187,8	   0,0159728	191,2
     43,0386	   0,0161158	185,5	   0,0158994	186,6
     43,0406	   0,0160286	191,3	   0,0156713	183,4
     43,0425	   0,0160383	189,3	   0,0156707	187,3
     43,0445	   0,0159613	187,0	   0,0155755	187,3
     43,0464	   0,0159252	185,1	   0,0153778	185,7
     43,0484	   0,0158459	186,5	   0,0155121	188,8
     43,0503	   0,0157997	186,5	   0,0154787	187,2
     43,0523	    0,015705	188,8	   0,0156035	187,7
     43,0543	   0,0156084	187,2	   0,0154796	184,0
     43,0562	   0,0156154	189,0	   0,0157066	185,6
     43,0582	   0,0155608	186,9	   0,0154724	190,0
     43,0601	   0,0155835	187,6	   0,0154567	188,7
     43,0621	   0,0154929	189,0	   0,0154385	188,7
      43,064	   0,0154404	192,5	    0,015257	188,4
      43,066	   0,0154295	193,3	   0,0154288	189,0
     43,0679	   0,0154253	190,4	   0,0153181	187,2
     43,0699	   0,0154238	189,4	   0,0152149	189,8
     43,0718	   0,0153337	188,8	   0,0151755	192,5
     43,0738	   0,0153419	187,6	   0,0149317	185,0
     43,0758	   0,0152747	192,6	   0,0152039	192,7
     43,0777	   0,0152107	190,7	    0,015022	186,4
     43,0797	   0,0152042	190,4	   0,0149898	186,8
     43,0816	    0,015132	195,8	   0,0147793	189,5
     43,0836	   0,0151052	188,0	   0,0150492	192,5
     43,0855	   0,0150806	188,0	   0,0148364	192,0
     43,0875	   0,0150021	191,5	   0,0148751	192,8
     43,0894	   0,0149161	194,0	   0,0146068	189,1
     43,0914	    0,014851	194,4	   0,0146489	193,6
     43,0934	    0,014812	193,5	   0,0145896	191,8
     43,0953	   0,0147833	192,1	   0,0146045	192,0
     43,0973	   0,0148245	192,1	   0,0147178	193,5
     43,0992	   0,0147985	190,8	   0,0145131	190,7
     43,1012	   0,0146865	189,7	   0,0145351	191,5
     43,1031	   0,0146776	194,7	   0,0143941	189,8
     43,1051	   0,0145362	195,1	   0,0143093	190,0
      43,107	   0,0145218	191,4	   0,0143853	197,1
      43,109	   0,0144927	192,4	   0,0143614	192,7
     43,1109	   0,0143903	193,2	   0,0142772	198,3
     43,1129	   0,0143629	194,0	   0,0141904	189,8
     43,1149	   0,0142468	196,1	    0,014305	194,6
     43,1168	   0,0142276	198,0	   0,0139555	192,2
     43,1188	   0,0141855	195,4	   0,0141504	199,4
     43,1207	   0,0141699	193,5	     0,01402	195,0
     43,1227	   0,0141616	192,9	   0,0141105	194,2
     43,1246	    0,014164	192,0	   0,0139995	191,6
     43,1266	   0,0141756	196,6	   0,0141223	194,3
     43,1285	    0,014181	195,5	   0,0139023	190,0
     43,1305	   0,0140404	191,9	   0,0137788	191,9
     43,1325	   0,0139867	195,7	   0,0137816	198,1
     43,1344	   0,0140054	196,2	   0,0136398	198,0
     43,1364	   0,0139313	195,1	   0,0137992	195,9
     43,1383	    0,013805	194,4	   0,0136396	195,5
     43,1403	   0,0137924	198,2	   0,0136907	194,0
     43,1422	     0,01377	199,4	   0,0136491	197,0
     43,1442	   0,0136853	195,6	   0,0136453	197,1
     43,1461	   0,0136909	194,8	   0,0135786	197,7
     43,1481	   0,0136539	194,1	    0,013557	197,7
       43,15	   0,0136863	193,3	   0,0134847	196,0
      43,152	    0,013731	197,3	   0,0134086	192,9
      43,154	   0,0136619	197,1	   0,0134279	195,4
     43,1559	   0,0135337	197,9	   0,0134145	196,8
     43,1579	   0,0134776	198,5	   0,0134147	197,2
     43,1598	   0,0134702	195,7	   0,0134006	-159,9
     43,1618	    0,013409	198,2	   0,0132986	-164,9
     43,1637	   0,0133145	199,2	   0,0132092	-161,8
     43,1657	   0,0132469	197,8	   0,0132158	-164,3
     43,1676	   0,0133645	197,4	   0,0131605	-162,7
     43,1696	   0,0132369	199,0	    0,013112	-158,8
     43,1716	   0,0131862	197,6	   0,0130701	-159,9
     43,1735	   0,0131775	196,4	   0,0130436	-162,5
     43,1755	   0,0131987	194,9	   0,0130474	-164,7
     43,1774	   0,0131551	198,6	   0,0130121	-163,2
     43,1794	    0,013067	-159,7	   0,0128789	-163,7
     43,1813	   0,0130136	-160,3	   0,0127672	-163,8
     43,1833	   0,0130024	-158,6	   0,0127383	-159,3
     43,1852	   0,0129966	-157,0	   0,0127743	-156,3
     43,1872	   0,0129172	-160,9	   0,0128861	-157,4
     43,1891	   0,0129048	-161,6	   0,0127921	-160,6
     43,1911	   0,0127601	-160,3	   0,0126422	-164,2
     43,1931	   0,0127681	-161,6	   0,0125738	-160,1
      43,195	    0,012763	-158,6	   0,0124667	-161,2
      43,197	   0,0127786	-160,7	   0,0125205	-161,5
     43,1989	   0,0127844	-160,9	    0,012637	-158,9
     43,2009	   0,0127536	-158,0	   0,0125891	-158,3
     43,2028	   0,0126379	-159,5	   0,0125936	-161,4
     43,2048	   0,0125758	-161,9	   0,0124977	-161,1
     43,2067	   0,0125202	-156,0	   0,0124549	-158,6
     43,2087	   0,0124991	-156,4	   0,0124368	-159,7
     43,2107	   0,0124534	-161,1	   0,0123775	-158,1
     43,2126	   0,0124087	-157,8	   0,0123781	-156,4
     43,2146	   0,0123026	-159,5	   0,0123127	-160,2
     43,2165	   0,0122844	-161,1	   0,0122519	-157,9
     43,2185	   0,0122404	-158,1	   0,0122338	-162,9
     43,2204	   0,0122785	-157,6	   0,0121859	-160,6
     43,2224	   0,0123157	-155,5	   0,0120929	-159,2
     43,2243	   0,0122648	-155,6	   0,0119893	-156,5
     43,2263	   0,0122968	-154,5	   0,0119984	-156,1
     43,2282	   0,0121052	-157,1	   0,0119873	-155,2
     43,2302	   0,0121468	-160,4	   0,0119348	-159,5
     43,2322	   0,0120818	-160,0	   0,0118773	-160,8
     43,2341	   0,0119876	-160,9	   0,0118346	-159,0
     43,2361	   0,0119422	-156,3	    0,011991	-160,7
      43,238	   0,0118763	-155,8	   0,0119395	-158,2
       43,24	   0,0118695	-157,3	   0,0118128	-156,8
     43,2419	   0,0118812	-153,6	    0,011822	-152,8
     43,2439	   0,0118136	-157,9	   0,0117816	-156,3
     43,2458	   0,0117838	-157,2	   0,0116797	-154,8
     43,2478	   0,0117024	-157,6	   0,0116186	-157,8
     43,2498	     0,01171	-154,9	   0,0114399	-162,0
     43,2517	    0,011651	-155,3	   0,0114219	-156,3
     43,2537	   0,0116043	-157,3	   0,0113912	-160,3
     43,2556	   0,0115428	-155,9	   0,0113394	-156,5
     43,2576	   0,0115758	-153,9	   0,0115795	-150,2
     43,2595	   0,0114929	-156,8	   0,0115136	-157,7
     43,2615	   0,0114542	-156,2	   0,0114024	-160,2
     43,2634	   0,0114341	-155,8	   0,0113536	-159,2
     43,2654	    0,011445	-157,0	   0,0112818	-156,2
     43,2673	   0,0114519	-154,3	   0,0111812	-156,2
     43,2693	   0,0113779	-154,9	   0,0112455	-149,8
     43,2713	   0,0113886	-156,9	   0,0113458	-153,3
     43,2732	   0,0113133	-159,3	   0,0111942	-155,7
     43,2752	   0,0112962	-158,3	   0,0112222	-158,8
     43,2771	   0,0111817	-157,2	   0,0111236	-159,2
     43,2791	   0,0111804	-155,1	   0,0108618	-157,4
      43,281	   0,0111744	-155,9	    0,010971	-150,8
      43,283	   0,0111817	-151,7	   0,0108956	-157,1
     43,2849	   0,0111132	-153,7	   0,0110343	-148,6
     43,2869	   0,0110049	-154,7	   0,0110813	-154,7
     43,2889	   0,0110102	-157,2	   0,0108763	-156,4
     43,2908	   0,0109895	-157,6	   0,0110107	-156,2
     43,2928	   0,0109357	-155,4	   0,0108622	-156,8
     43,2947	   0,0108599	-154,8	   0,0109315	-154,2
     43,2967	   0,0108824	-152,1	   0,0108215	-157,2
     43,2986	   0,0107446	-150,7	    0,010732	-156,6
     43,3006	   0,0108004	-151,7	   0,0107819	-151,1
     43,3025	   0,0109036	-151,1	   0,0108269	-150,9
     43,3045	   0,0108805	-156,8	   0,0107995	-151,9
     43,3064	   0,0108702	-155,5	   0,0107507	-156,1
     43,3084	   0,0107821	-154,7	   0,0106844	-156,4
     43,3104	   0,0107019	-156,2	   0,0105802	-156,7
     43,3123	   0,0106646	-153,9	   0,0105032	-155,4
     43,3143	   0,0106078	-150,0	   0,0105386	-150,7
     43,3162	   0,0105956	-150,7	   0,0105664	-153,5
     43,3182	   0,0105368	-149,4	   0,0105201	-150,0
     43,3201	   0,0105744	-152,7	   0,0106061	-150,8
     43,3221	   0,0105423	-153,7	   0,0105587	-154,5
      43,324	   0,0105327	-155,8	    0,010439	-156,1
      43,326	   0,0104733	-153,9	   0,0103483	-155,2
      43,328	   0,0104396	-152,1	    0,010354	-154,9
     43,3299	    0,010412	-150,1	   0,0104287	-152,6
     43,3319	   0,0103801	-148,5	   0,0103606	-150,5
     43,3338	   0,0103275	-148,8	   0,0102728	-152,0
     43,3358	   0,0102435	-149,5	   0,0101605	-150,4
     43,3377	   0,0101433	-152,6	   0,0101918	-151,3
     43,3397	     0,01011	-154,0	    0,010189	-153,6
     43,3416	   0,0101567	-156,3	   0,0102355	-152,0
     43,3436	   0,0101635	-152,2	   0,0103036	-153,3
     43,3456	   0,0101528	-150,2	   0,0103134	-151,8
     43,3475	      0,0102	-149,1	   0,0101244	-153,1
     43,3495	   0,0101364	-149,9	   0,0100189	-151,8
     43,3514	   0,0100319	-150,0	  0,00998766	-150,1
     43,3534	   0,0100254	-150,1	  0,00998204	-147,4
     43,3553	   0,0099512	-152,3	  0,00992376	-149,8
     43,3573	  0,00996265	-155,1	  0,00997778	-153,3
     43,3592	    0,010043	-156,2	  0,00998507	-152,4
     43,3612	  0,00990889	-149,2	  0,00995496	-153,4
     43,3631	  0,00989748	-147,8	   0,0099891	-149,6
     43,3651	  0,00979867	-147,6	  0,00993321	-149,7
     43,3671	  0,00986312	-148,7	   0,0098443	-148,0
      43,369	  0,00996336	-149,5	  0,00981225	-146,5
      43,371	  0,00985977	-149,5	  0,00974747	-153,0
     43,3729	  0,00980497	-150,7	  0,00975556	-152,1
     43,3749	  0,00973261	-154,4	  0,00968729	-153,1
     43,3768	  0,00965532	-150,8	  0,00972611	-151,5
     43,3788	  0,00968191	-149,0	  0,00969353	-152,9
     43,3807	  0,00968409	-148,2	  0,00961675	-149,9
     43,3827	  0,00960972	-147,6	  0,00958473	-147,6
     43,3847	  0,00961908	-148,3	  0,00956957	-148,3
     43,3866	   0,0096296	-149,6	  0,00955195	-148,6
     43,3886	  0,00965938	-149,3	  0,00947233	-150,5
     43,3905	   0,0096616	-151,0	  0,00953993	-149,7
     43,3925	  0,00958349	-152,2	  0,00949649	-150,8
     43,3944	  0,00959979	-148,9	  0,00951916	-153,0
     43,3964	  0,00955391	-148,7	  0,00950162	-150,2
     43,3983	  0,00945087	-150,5	  0,00946671	-148,8
     43,4003	  0,00940561	-151,6	   0,0094212	-148,7
     43,4022	  0,00952137	-151,2	  0,00935157	-148,3
     43,4042	  0,00947585	-147,5	  0,00930037	-147,5
     43,4062	  0,00934057	-148,5	  0,00940243	-147,7
     43,4081	  0,00923643	-149,8	  0,00929606	-153,0
     43,4101	  0,00929057	-149,1	  0,00929723	-151,7
      43,412	  0,00921549	-148,5	  0,00931574	-152,5
      43,414	  0,00925339	-150,9	  0,00918604	-151,8
     43,4159	  0,00927715	-149,2	  0,00921196	-145,9
     43,4179	  0,00938349	-148,4	  0,00916319	-147,9
     43,4198	  0,00926583	-146,5	  0,00911769	-146,7
     43,4218	  0,00919341	-146,7	  0,00908055	-146,3
     43,4238	  0,00911564	-146,6	  0,00911706	-150,7
     43,4257	  0,00914325	-144,9	  0,00910113	-150,5
     43,4277	  0,00901687	-146,1	  0,00896687	-150,8
     43,4296	   0,0090091	-148,6	  0,00890237	-149,3
     43,4316	  0,00895417	-151,5	    0,008824	-147,1
     43,4335	  0,00900824	-149,2	  0,00887599	-147,7
     43,4355	  0,00896043	-148,8	   0,0088675	-143,8
     43,4374	  0,00895829	-144,8	  0,00896989	-146,5
     43,4394	  0,00892635	-143,0	  0,00900158	-147,3
     43,4413	  0,00888613	-146,3	  0,00892877	-144,7
     43,4433	  0,00885944	-145,5	  0,00892619	-148,0
     43,4453	  0,00889153	-146,6	  0,00886406	-147,3
     43,4472	  0,00881862	-149,7	  0,00879231	-148,7
     43,4492	  0,00880919	-147,8	  0,00883164	-151,2
     43,4511	  0,00879079	-150,5	  0,00876644	-148,3
     43,4531	  0,00877666	-147,9	  0,00872685	-148,5
      43,455	  0,00877432	-146,7	  0,00871754	-146,9
      43,457	   0,0087674	-142,5	  0,00865299	-146,2
     43,4589	  0,00874166	-146,1	  0,00862398	-143,6
     43,4609	  0,00865597	-143,2	  0,00862851	-144,3
     43,4629	  0,00861752	-145,5	  0,00858905	-147,6
     43,4648	  0,00863498	-143,1	  0,00854168	-149,5
     43,4668	  0,00860157	-145,6	  0,00852357	-148,6
     43,4687	  0,00861027	-145,0	  0,00851365	-148,6
     43,4707	  0,00865445	-145,3	  0,00845275	-148,3
     43,4726	  0,00875357	-150,4	  0,00852526	-146,2
     43,4746	  0,00871448	-147,5	   0,0085541	-144,7
     43,4765	  0,00873274	-147,6	  0,00849576	-141,0
     43,4785	  0,00870686	-144,7	  0,00854842	-146,0
     43,4804	  0,00839971	-141,4	  0,00848189	-146,2
     43,4824	  0,00823473	-144,1	  0,00847817	-145,7
     43,4844	  0,00833809	-143,4	   0,0083767	-147,2
     43,4863	  0,00819515	-144,4	   0,0083788	-144,8
     43,4883	  0,00839381	-148,7	  0,00830511	-146,0
     43,4902	  0,00847865	-149,5	  0,00828353	-147,7
     43,4922	  0,00837553	-147,8	  0,00830629	-146,7
     43,4941	  0,00827459	-147,6	  0,00835424	-149,6
     43,4961	   0,0082215	-146,7	   0,0083391	-143,0
      43,498	  0,00825796	-145,3	  0,00829035	-147,0
        43,5	  0,00825462	-146,1	  0,00828604	-145,7

