X-Data [Hz]	Laser (M - Filtered) [m/s]	Phase [Deg]	Laser (M - Filtered) [m/s]	Phase [Deg]	
	002: [07-09-24 14:35]		003: [07-09-24 14:39]	
        40,5	   0,0504248	74,2	   0,0556721	73,3
     40,5029	   0,0528356	73,7	   0,0554202	73,8
     40,5059	   0,0540765	73,7	   0,0558524	73,4
     40,5088	    0,054084	75,6	    0,055997	73,5
     40,5117	   0,0553773	74,3	   0,0552619	73,8
     40,5147	   0,0556288	73,4	   0,0559476	73,3
     40,5176	   0,0557751	73,4	   0,0558328	73,4
     40,5205	   0,0559909	73,6	   0,0562544	73,6
     40,5235	   0,0560428	73,3	   0,0560642	73,4
     40,5264	   0,0561668	73,7	    0,055274	73,9
     40,5293	    0,056179	73,8	   0,0558349	73,7
     40,5323	   0,0562168	73,8	   0,0559644	73,8
     40,5352	   0,0563922	73,6	   0,0564251	73,5
     40,5381	   0,0563818	73,5	   0,0551166	73,8
     40,5411	   0,0564828	73,7	    0,055064	74,1
      40,544	   0,0558798	74,5	   0,0558126	73,7
     40,5469	    0,056557	73,5	   0,0549744	74,0
     40,5499	    0,056659	73,7	   0,0565762	73,5
     40,5528	   0,0567151	73,3	   0,0568706	73,6
     40,5557	   0,0567057	73,5	   0,0560697	73,9
     40,5587	   0,0569615	73,8	   0,0567604	73,8
     40,5616	   0,0569987	73,6	   0,0568703	73,7
     40,5645	   0,0569818	73,6	   0,0568654	73,8
     40,5674	   0,0572018	74,0	   0,0566943	74,0
     40,5704	   0,0571637	73,5	   0,0574749	73,8
     40,5733	   0,0572114	73,7	   0,0567947	74,3
     40,5762	   0,0573523	73,9	   0,0575879	73,8
     40,5792	   0,0573912	73,6	   0,0572309	73,7
     40,5821	   0,0574867	73,6	   0,0575557	73,5
      40,585	   0,0575195	73,5	   0,0570504	74,1
      40,588	   0,0575322	73,6	   0,0578499	73,7
     40,5909	   0,0576868	73,8	   0,0579667	74,0
     40,5938	   0,0577118	73,9	   0,0576795	74,0
     40,5968	   0,0578808	73,6	   0,0575728	72,5
     40,5997	   0,0578595	74,0	    0,057031	74,0
     40,6026	   0,0580663	73,6	    0,057965	74,1
     40,6056	   0,0578896	73,7	   0,0581547	73,6
     40,6085	   0,0582107	74,1	   0,0580948	74,1
     40,6114	   0,0581641	73,6	   0,0578965	74,2
     40,6144	   0,0582673	73,8	    0,058567	74,1
     40,6173	   0,0583648	73,8	   0,0585738	74,2
     40,6202	   0,0584024	73,7	   0,0586532	73,9
     40,6232	   0,0585263	73,9	   0,0583139	74,0
     40,6261	   0,0586231	73,6	   0,0576192	74,4
      40,629	   0,0586498	73,8	   0,0586516	74,0
      40,632	   0,0587208	73,9	   0,0589661	74,0
     40,6349	   0,0588715	73,9	   0,0591441	74,3
     40,6378	   0,0588303	73,9	   0,0591486	74,0
     40,6408	   0,0589794	74,0	   0,0593354	74,2
     40,6437	   0,0590317	73,7	   0,0592476	74,3
     40,6466	   0,0590638	73,9	   0,0594442	74,0
     40,6496	   0,0592283	74,0	   0,0594342	74,4
     40,6525	   0,0592772	74,1	   0,0595986	74,1
     40,6554	   0,0593289	74,1	   0,0596474	74,3
     40,6584	   0,0594536	74,1	   0,0596512	74,4
     40,6613	   0,0595591	74,0	   0,0597863	74,3
     40,6642	   0,0596092	74,3	   0,0598838	74,2
     40,6672	   0,0597139	74,1	   0,0600129	74,6
     40,6701	   0,0597219	74,0	   0,0601147	74,3
      40,673	   0,0598143	74,0	    0,060053	74,0
      40,676	   0,0599815	74,3	   0,0603392	74,2
     40,6789	   0,0599024	74,4	   0,0602553	74,3
     40,6818	   0,0601132	74,1	   0,0603095	74,3
     40,6847	   0,0601878	74,3	   0,0604708	74,3
     40,6877	   0,0602929	74,2	   0,0605529	74,4
     40,6906	   0,0603037	74,2	   0,0606226	74,5
     40,6936	   0,0604309	74,1	   0,0606117	74,4
     40,6965	   0,0605594	74,1	   0,0608259	74,4
     40,6994	   0,0605427	74,3	   0,0601854	74,2
     40,7023	   0,0607007	74,7	   0,0609663	74,5
     40,7053	   0,0607613	74,5	   0,0610926	74,4
     40,7082	   0,0608944	74,4	   0,0611492	74,2
     40,7111	   0,0609257	74,7	   0,0611425	74,3
     40,7141	   0,0611172	74,5	   0,0606232	74,7
      40,717	   0,0610807	74,4	   0,0614004	74,1
     40,7199	    0,061277	74,6	   0,0613051	74,7
     40,7229	   0,0603726	71,9	   0,0615887	74,3
     40,7258	   0,0613129	74,7	   0,0617707	74,3
     40,7287	   0,0614194	74,7	   0,0617517	74,6
     40,7317	   0,0615837	74,4	   0,0617814	74,5
     40,7346	   0,0616531	74,6	   0,0602784	74,5
     40,7375	   0,0617382	74,5	   0,0619487	74,8
     40,7405	   0,0617051	74,6	   0,0621636	74,6
     40,7434	   0,0619602	74,4	   0,0622471	74,6
     40,7463	   0,0619764	74,7	   0,0622994	74,8
     40,7493	   0,0620071	74,9	   0,0624785	74,6
     40,7522	   0,0621058	74,4	   0,0626256	74,4
     40,7551	   0,0613596	74,6	   0,0626285	74,9
     40,7581	   0,0623993	74,6	   0,0622794	75,0
      40,761	   0,0624696	74,7	   0,0629026	74,6
     40,7639	   0,0626219	74,7	   0,0628407	75,0
     40,7669	   0,0621842	74,7	   0,0630798	75,0
     40,7698	   0,0627474	74,4	   0,0630219	74,9
     40,7727	   0,0628277	74,7	   0,0623605	73,3
     40,7757	   0,0628867	74,7	   0,0629221	74,8
     40,7786	   0,0629797	74,6	    0,063347	74,9
     40,7815	   0,0631515	74,9	   0,0629955	74,7
     40,7845	   0,0631917	74,7	   0,0636059	74,9
     40,7874	   0,0633183	74,6	   0,0629799	74,9
     40,7903	    0,063422	74,8	   0,0637246	74,7
     40,7933	   0,0634626	75,1	   0,0639539	75,2
     40,7962	   0,0635731	75,1	   0,0633641	74,9
     40,7991	   0,0636753	74,8	   0,0640964	74,6
     40,8021	   0,0637756	75,0	   0,0641953	74,8
      40,805	   0,0639088	75,1	   0,0641608	75,1
     40,8079	   0,0640258	74,9	   0,0638062	74,8
     40,8109	   0,0640137	75,1	   0,0643378	74,8
     40,8138	   0,0641893	75,1	   0,0644604	75,2
     40,8167	   0,0643074	75,0	   0,0646559	75,3
     40,8196	   0,0644386	74,9	   0,0647718	74,9
     40,8226	   0,0644432	75,2	   0,0649234	75,2
     40,8255	   0,0646074	75,0	   0,0649196	75,5
     40,8284	    0,064656	74,8	   0,0645104	74,3
     40,8314	   0,0648532	75,1	   0,0652222	75,3
     40,8343	   0,0648171	75,2	   0,0653915	75,3
     40,8372	   0,0649741	75,1	   0,0654209	75,2
     40,8402	   0,0645967	75,1	   0,0651403	74,6
     40,8431	   0,0652141	75,1	   0,0649991	74,2
      40,846	   0,0653152	75,1	   0,0652063	74,5
      40,849	   0,0654521	75,0	   0,0648758	74,7
     40,8519	   0,0654505	75,2	    0,064998	75,3
     40,8548	   0,0655178	75,2	   0,0653486	75,3
     40,8578	   0,0656628	75,1	   0,0661943	75,1
     40,8607	   0,0659448	75,3	   0,0653361	75,3
     40,8636	   0,0658555	75,4	   0,0655814	74,6
     40,8666	   0,0659199	75,2	   0,0650805	74,5
     40,8695	   0,0660694	75,2	   0,0663092	75,1
     40,8724	   0,0662258	75,6	   0,0666841	75,6
     40,8754	   0,0662777	75,1	    0,066805	75,6
     40,8783	   0,0665589	75,4	   0,0660555	74,2
     40,8812	   0,0666216	75,5	    0,066394	74,4
     40,8842	   0,0666904	75,4	   0,0669595	75,3
     40,8871	   0,0667994	75,5	    0,066512	74,4
       40,89	   0,0669593	75,4	   0,0672641	75,5
      40,893	   0,0670043	75,6	   0,0658155	74,8
     40,8959	   0,0669305	75,0	   0,0671266	75,8
     40,8988	   0,0663905	75,6	   0,0669991	75,5
     40,9018	   0,0674608	75,7	   0,0677022	75,8
     40,9047	   0,0672642	75,8	   0,0669443	75,6
     40,9076	   0,0666959	74,0	   0,0681361	75,6
     40,9106	   0,0673244	75,2	   0,0681888	75,7
     40,9135	   0,0678086	75,8	   0,0681451	75,6
     40,9164	   0,0670182	74,2	   0,0683135	75,8
     40,9194	   0,0671292	74,0	   0,0685446	75,9
     40,9223	   0,0674014	75,9	   0,0677885	75,2
     40,9252	   0,0676796	74,7	   0,0687849	76,1
     40,9282	   0,0683618	75,6	   0,0682593	74,9
     40,9311	    0,067736	75,1	   0,0680459	74,6
      40,934	   0,0679903	75,8	   0,0691986	75,8
      40,937	   0,0677875	74,3	   0,0688888	76,1
     40,9399	   0,0679719	75,8	   0,0688972	75,9
     40,9428	   0,0685489	75,9	   0,0688656	75,9
     40,9457	   0,0686839	75,4	   0,0692248	76,0
     40,9487	   0,0683113	74,5	   0,0697527	76,4
     40,9516	   0,0680668	74,4	   0,0689965	75,8
     40,9545	    0,069463	76,1	   0,0682894	74,9
     40,9575	   0,0693845	76,3	   0,0698415	76,2
     40,9604	   0,0694277	75,5	   0,0699359	75,7
     40,9633	   0,0698196	76,3	   0,0696775	74,9
     40,9663	   0,0694326	76,1	   0,0700697	75,8
     40,9692	   0,0693331	76,1	   0,0697705	75,2
     40,9721	     0,06925	76,0	   0,0701683	75,4
     40,9751	   0,0692927	76,1	   0,0696917	75,8
      40,978	   0,0692663	75,9	    0,070063	75,6
     40,9809	   0,0695151	74,9	   0,0705739	76,4
     40,9839	   0,0696926	76,4	   0,0703723	76,1
     40,9868	   0,0702825	75,6	   0,0697598	75,3
     40,9897	    0,070414	75,4	   0,0700619	75,3
     40,9927	   0,0701818	74,9	   0,0713984	76,4
     40,9956	   0,0708548	76,3	   0,0700719	75,2
     40,9985	   0,0703989	75,1	   0,0710066	75,3
     41,0015	     0,07136	76,1	   0,0703782	75,3
     41,0044	   0,0706803	76,2	   0,0712472	75,6
     41,0073	    0,070704	76,3	   0,0707073	75,3
     41,0103	   0,0699705	75,0	   0,0715069	75,2
     41,0132	   0,0715275	75,6	   0,0717697	75,6
     41,0161	   0,0713828	76,5	    0,071007	75,4
     41,0191	   0,0702339	75,3	   0,0725281	76,7
      41,022	   0,0716433	76,9	   0,0721887	75,8
     41,0249	   0,0716675	75,4	   0,0714209	76,0
     41,0279	   0,0707409	75,2	   0,0724231	77,0
     41,0308	   0,0728495	77,0	   0,0727262	76,8
     41,0337	   0,0724117	76,9	   0,0734622	76,7
     41,0367	   0,0723818	76,7	   0,0729816	77,1
     41,0396	   0,0725568	76,8	   0,0729486	75,6
     41,0425	   0,0724176	76,9	   0,0731878	75,6
     41,0455	   0,0725378	76,9	    0,072495	75,7
     41,0484	   0,0723608	76,4	   0,0734764	76,1
     41,0513	   0,0729253	75,6	   0,0733244	75,8
     41,0543	   0,0737477	76,5	   0,0740773	77,1
     41,0572	   0,0733569	76,0	   0,0739669	77,0
     41,0601	   0,0732969	75,7	   0,0740118	77,4
      41,063	   0,0734819	76,9	   0,0750546	77,0
      41,066	   0,0734786	76,7	   0,0753892	77,0
     41,0689	   0,0728091	75,9	     0,07466	76,0
     41,0718	   0,0738707	76,7	   0,0748868	76,4
     41,0748	   0,0732874	76,0	    0,075499	77,6
     41,0777	   0,0731414	75,9	   0,0755922	76,6
     41,0806	   0,0745256	76,7	   0,0761814	77,6
     41,0836	   0,0749568	77,4	   0,0753602	77,8
     41,0865	   0,0744479	76,5	   0,0764982	77,5
     41,0894	   0,0739535	76,4	   0,0762501	77,6
     41,0924	   0,0754192	77,2	   0,0753273	76,8
     41,0953	   0,0761543	77,7	   0,0766147	77,1
     41,0982	   0,0763493	77,3	    0,075726	77,3
     41,1012	   0,0745882	76,2	   0,0766177	76,5
     41,1041	   0,0761687	77,7	    0,076385	77,8
      41,107	   0,0751551	76,1	   0,0767797	76,9
       41,11	   0,0761967	77,2	   0,0766981	78,0
     41,1129	   0,0761364	76,3	    0,076955	77,2
     41,1158	    0,075508	76,9	   0,0775971	77,9
     41,1188	   0,0764474	76,3	   0,0783619	78,1
     41,1217	   0,0766118	76,4	   0,0780112	77,5
     41,1246	   0,0767075	76,4	   0,0786216	77,9
     41,1276	   0,0769856	77,9	   0,0780049	78,1
     41,1305	    0,078012	78,1	   0,0780896	78,3
     41,1334	    0,076777	77,3	   0,0792828	78,5
     41,1364	   0,0766277	77,2	   0,0787282	78,4
     41,1393	   0,0778306	78,0	   0,0795842	78,1
     41,1422	   0,0772097	77,0	   0,0798154	78,0
     41,1452	   0,0780565	77,0	   0,0793618	77,6
     41,1481	   0,0785056	77,0	   0,0794401	77,8
      41,151	   0,0779345	77,5	   0,0797145	78,3
      41,154	   0,0795628	77,4	   0,0799174	78,6
     41,1569	   0,0789044	76,6	   0,0797976	78,6
     41,1598	   0,0800028	78,5	   0,0806402	78,7
     41,1628	   0,0802208	78,5	   0,0812375	78,6
     41,1657	    0,078547	77,5	   0,0803535	77,6
     41,1686	   0,0794053	77,4	   0,0813056	78,4
     41,1716	   0,0796895	77,2	   0,0806777	77,5
     41,1745	   0,0799445	78,4	   0,0802054	78,2
     41,1774	   0,0790647	77,6	   0,0812753	79,1
     41,1804	   0,0813285	79,0	   0,0815969	78,1
     41,1833	   0,0806878	77,9	   0,0815114	79,1
     41,1862	   0,0815674	78,8	    0,082626	78,9
     41,1891	   0,0807163	77,5	   0,0824834	78,6
     41,1921	   0,0809668	77,5	   0,0822436	77,9
      41,195	    0,081071	78,7	   0,0813953	78,1
     41,1979	   0,0816061	79,0	   0,0825185	79,0
     41,2009	   0,0805666	77,5	   0,0836061	79,2
     41,2038	   0,0817609	79,0	   0,0839782	79,2
     41,2067	    0,082134	78,0	   0,0838897	79,2
     41,2097	   0,0832446	78,9	   0,0839553	78,7
     41,2126	   0,0826717	78,8	   0,0835668	78,9
     41,2155	   0,0825495	77,9	   0,0848039	79,0
     41,2185	   0,0834445	79,2	   0,0833106	78,6
     41,2214	   0,0834887	78,5	   0,0854364	79,2
     41,2243	   0,0842749	79,5	   0,0852011	79,5
     41,2273	   0,0840966	78,9	    0,084359	79,0
     41,2302	   0,0835122	78,1	   0,0849606	78,7
     41,2331	   0,0844436	78,8	   0,0846236	78,6
     41,2361	   0,0853739	79,3	   0,0846182	78,8
      41,239	   0,0846896	79,1	   0,0858353	79,8
     41,2419	   0,0855347	80,0	   0,0869255	79,9
     41,2449	   0,0856778	79,6	   0,0871559	80,0
     41,2478	   0,0860155	79,4	   0,0872928	80,1
     41,2507	   0,0860286	79,2	   0,0877226	79,5
     41,2537	   0,0865256	79,5	   0,0879013	79,4
     41,2566	   0,0856347	79,4	   0,0874153	80,0
     41,2595	   0,0864862	79,8	   0,0882983	80,0
     41,2625	   0,0871987	79,7	   0,0884243	80,5
     41,2654	   0,0863186	79,3	   0,0888203	80,2
     41,2683	   0,0876163	79,9	   0,0890515	79,7
     41,2713	    0,087786	80,1	   0,0893256	79,7
     41,2742	   0,0882419	80,3	   0,0881028	79,7
     41,2771	   0,0883623	80,1	   0,0888763	80,5
     41,2801	   0,0884959	80,5	   0,0899211	80,1
      41,283	    0,088486	79,1	   0,0894102	79,7
     41,2859	   0,0890735	79,0	   0,0900245	79,9
     41,2889	   0,0890723	79,2	   0,0904748	80,5
     41,2918	   0,0897408	80,2	   0,0911577	80,6
     41,2947	   0,0899084	80,6	   0,0913821	80,8
     41,2977	   0,0902312	80,6	   0,0915772	80,2
     41,3006	   0,0904957	80,8	   0,0911395	80,4
     41,3035	   0,0905648	79,4	   0,0922741	81,2
     41,3064	   0,0909134	80,1	   0,0916189	80,7
     41,3094	   0,0910438	80,7	   0,0927182	81,0
     41,3123	   0,0914594	80,2	   0,0929264	80,4
     41,3153	   0,0915552	81,1	   0,0929532	80,5
     41,3182	   0,0920241	81,2	   0,0934838	81,1
     41,3211	    0,092128	80,0	   0,0941163	80,8
      41,324	   0,0925929	81,2	   0,0943414	81,7
      41,327	   0,0928891	81,1	   0,0946191	81,6
     41,3299	   0,0920402	81,5	   0,0949657	81,1
     41,3328	   0,0930011	80,3	   0,0952705	81,3
     41,3358	   0,0935537	81,2	   0,0954656	81,2
     41,3387	   0,0939361	80,9	   0,0959607	81,7
     41,3416	   0,0945224	81,1	   0,0961011	81,3
     41,3446	   0,0947147	81,6	   0,0962206	81,4
     41,3475	    0,094819	82,0	   0,0965276	81,6
     41,3504	   0,0950819	82,1	   0,0967788	81,7
     41,3534	   0,0954395	81,0	   0,0972929	82,3
     41,3563	   0,0960069	82,1	   0,0975929	82,2
     41,3592	   0,0962661	82,0	   0,0980655	82,2
     41,3622	   0,0965132	82,1	   0,0980585	81,6
     41,3651	   0,0966554	82,6	   0,0984216	82,4
      41,368	    0,097135	82,1	   0,0990779	83,0
      41,371	   0,0975756	82,4	   0,0993817	82,7
     41,3739	   0,0976587	81,6	    0,100028	82,9
     41,3768	   0,0981609	82,1	    0,100284	82,8
     41,3798	   0,0984466	82,0	    0,100911	83,2
     41,3827	    0,098796	81,9	    0,100761	82,7
     41,3856	   0,0991239	82,1	    0,101447	83,7
     41,3886	   0,0996213	82,4	    0,101835	83,2
     41,3915	   0,0996229	82,3	    0,101853	83,3
     41,3944	    0,100201	82,7	    0,102465	83,9
     41,3974	    0,100742	83,0	    0,102907	83,4
     41,4003	    0,101001	83,3	    0,102943	83,1
     41,4032	    0,100797	82,9	    0,103907	83,8
     41,4062	     0,10179	83,3	    0,104098	83,9
     41,4091	    0,102215	83,8	    0,104612	83,9
      41,412	    0,102118	83,1	    0,105288	84,6
      41,415	     0,10243	83,0	     0,10525	84,2
     41,4179	    0,103318	83,5	    0,106047	84,1
     41,4208	    0,103756	84,1	    0,106617	84,3
     41,4238	    0,103347	84,0	       0,107	85,1
     41,4267	    0,103928	84,0	    0,107716	85,5
     41,4296	    0,104199	84,1	    0,107331	84,6
     41,4326	    0,105042	84,3	    0,108031	85,6
     41,4355	    0,105444	84,5	    0,108216	84,6
     41,4384	    0,105284	84,6	    0,109085	85,7
     41,4413	    0,105834	84,0	    0,109731	87,0
     41,4443	    0,106469	84,7	    0,109787	85,5
     41,4472	    0,107259	84,9	    0,109884	86,6
     41,4501	    0,107733	85,1	    0,110007	85,7
     41,4531	    0,107015	85,3	    0,111173	85,7
      41,456	    0,107963	85,4	    0,111858	86,7
     41,4589	     0,10837	86,2	     0,11162	86,8
     41,4619	    0,109011	86,7	     0,11242	87,6
     41,4648	    0,109961	85,7	    0,112821	87,4
     41,4677	    0,108647	85,8	    0,114541	86,8
     41,4707	    0,109431	86,0	     0,11609	87,1
     41,4736	    0,109522	85,1	     0,11661	86,9
     41,4765	     0,11162	85,7	     0,11702	87,0
     41,4795	    0,110695	86,3	    0,118162	87,7
     41,4824	     0,11149	86,8	    0,119114	87,7
     41,4853	    0,112148	87,1	    0,120828	87,8
     41,4883	     0,11315	86,6	    0,122856	89,1
     41,4912	    0,114423	87,0	    0,124542	88,7
     41,4941	    0,112618	87,3	    0,128416	89,6
     41,4971	    0,114343	87,3	    0,131511	90,0
        41,5	    0,115101	86,9	    0,136139	91,5
     41,5029	    0,115356	87,0	    0,146048	93,5
     41,5059	    0,117673	87,9	    0,151726	95,8
     41,5088	    0,116519	88,2	    0,154341	98,5
     41,5117	    0,116673	87,4	    0,164004	101,5
     41,5147	    0,116863	87,4	    0,175145	104,7
     41,5176	    0,120317	88,1	    0,181733	107,1
     41,5205	    0,118912	89,2	    0,185476	109,7
     41,5235	    0,120562	89,3	    0,188646	112,7
     41,5264	    0,120517	88,9	    0,190582	116,0
     41,5293	    0,122568	89,7	    0,191523	119,0
     41,5323	    0,123409	90,1	    0,194908	119,6
     41,5352	    0,122177	89,5	    0,199481	122,3
     41,5381	    0,122478	90,0	    0,204287	124,1
     41,5411	    0,124229	89,6	    0,206434	125,8
      41,544	    0,126512	91,0	    0,206992	126,2
     41,5469	    0,127417	91,3	    0,209189	128,5
     41,5499	    0,126972	91,9	    0,210525	130,3
     41,5528	    0,126864	91,4	    0,215263	131,5
     41,5557	    0,128527	92,1	    0,214137	131,9
     41,5587	    0,128865	93,0	    0,215631	133,4
     41,5616	      0,1292	92,7	    0,220006	134,4
     41,5645	     0,13008	93,5	    0,220193	135,3
     41,5674	    0,130576	92,9	    0,221915	136,3
     41,5704	    0,134754	94,1	    0,219301	136,5
     41,5733	    0,133845	94,8	    0,223826	137,6
     41,5762	    0,135488	94,4	    0,224878	138,6
     41,5792	      0,1351	95,3	    0,224204	138,7
     41,5821	    0,139386	96,0	      0,2259	140,0
      41,585	    0,141012	96,9	     0,22622	140,7
      41,588	    0,141434	96,8	    0,226732	141,7
     41,5909	    0,143227	97,2	    0,226905	141,8
     41,5938	    0,145885	98,1	    0,226413	142,8
     41,5968	    0,149821	99,2	    0,226641	143,4
     41,5997	    0,148758	99,8	    0,226809	144,4
     41,6026	    0,150496	100,8	    0,227132	144,8
     41,6056	    0,154661	101,5	    0,226666	145,0
     41,6085	     0,15538	102,8	    0,226826	145,7
     41,6114	    0,154038	104,1	    0,227325	146,3
     41,6144	    0,155257	105,5	    0,227342	146,8
     41,6173	    0,159367	106,5	     0,22742	147,0
     41,6202	    0,166052	107,3	    0,227255	147,5
     41,6232	    0,168476	108,6	    0,228154	148,2
     41,6261	    0,173252	110,8	     0,22792	149,0
      41,629	    0,176163	112,7	    0,227463	149,2
      41,632	     0,18187	114,7	    0,227172	149,8
     41,6349	    0,182999	116,9	    0,227309	150,4
     41,6378	    0,185531	119,5	    0,227433	150,6
     41,6408	    0,189028	122,7	    0,227244	150,9
     41,6437	    0,194344	125,5	    0,226999	151,5
     41,6466	    0,197083	128,4	    0,227059	151,9
     41,6496	    0,199629	131,9	    0,227053	151,9
     41,6525	    0,206097	135,9	    0,226883	152,4
     41,6554	    0,216011	139,3	    0,226451	152,8
     41,6584	    0,221013	142,8	    0,226659	153,6
     41,6613	    0,224037	145,3	    0,227321	153,8
     41,6642	    0,225846	148,1	    0,227075	154,1
     41,6672	    0,227537	150,8	    0,226142	154,4
     41,6701	    0,227338	152,6	    0,226451	155,2
      41,673	    0,228325	153,6	    0,226113	155,0
      41,676	    0,228525	154,8	    0,225808	155,6
     41,6789	    0,228044	155,8	    0,226111	155,7
     41,6818	     0,22803	156,1	    0,226144	156,3
     41,6847	    0,227378	156,5	    0,225331	156,4
     41,6877	    0,227289	156,9	    0,225719	157,1
     41,6906	    0,227022	157,3	    0,226154	157,6
     41,6936	     0,22725	157,4	    0,226057	158,0
     41,6965	    0,226683	158,2	    0,225031	158,1
     41,6994	    0,226517	158,6	    0,224818	158,5
     41,7023	      0,2265	159,1	    0,224682	158,7
     41,7053	      0,2263	159,0	    0,225369	159,1
     41,7082	    0,226106	159,1	    0,225009	159,2
     41,7111	     0,22551	159,5	    0,224343	159,6
     41,7141	     0,22566	159,9	    0,224824	160,2
      41,717	    0,225348	160,0	    0,223706	160,0
     41,7199	    0,225215	160,6	    0,223481	160,3
     41,7229	     0,22497	160,7	     0,22264	160,9
     41,7258	     0,22471	161,4	    0,223991	161,4
     41,7287	    0,224492	161,3	    0,222472	161,6
     41,7317	    0,224216	161,9	    0,222166	161,8
     41,7346	     0,22397	162,4	    0,222056	162,2
     41,7375	    0,223789	162,7	     0,22296	162,6
     41,7405	    0,222851	162,8	    0,221823	162,5
     41,7434	    0,223259	163,3	    0,222489	163,2
     41,7463	    0,222979	163,4	    0,222439	163,2
     41,7493	    0,222751	163,3	    0,222213	163,4
     41,7522	    0,222573	163,6	    0,220874	163,5
     41,7551	    0,222326	164,1	    0,221589	164,0
     41,7581	    0,221987	164,2	    0,221375	164,3
      41,761	    0,221724	164,4	     0,22101	164,2
     41,7639	    0,221338	164,9	    0,220778	164,5
     41,7669	    0,221078	165,4	    0,220488	165,1
     41,7698	    0,220895	165,1	     0,22032	165,4
     41,7727	    0,220631	165,5	    0,220046	165,3
     41,7757	    0,220316	166,3	    0,219894	166,0
     41,7786	    0,219882	166,2	    0,219632	166,1
     41,7815	    0,219742	166,2	    0,219193	166,2
     41,7845	    0,219567	166,9	    0,218983	166,2
     41,7874	    0,219161	166,7	    0,218746	166,7
     41,7903	    0,218952	167,1	    0,218375	167,1
     41,7933	    0,218716	167,3	    0,218037	167,0
     41,7962	    0,218335	167,7	    0,218045	167,2
     41,7991	    0,218111	167,8	    0,217797	167,6
     41,8021	    0,217243	167,8	    0,217548	167,4
      41,805	    0,217476	168,2	    0,217353	168,0
     41,8079	    0,217324	168,5	     0,21665	168,3
     41,8109	    0,216975	168,6	    0,216595	168,6
     41,8138	    0,216499	168,7	     0,21643	168,5
     41,8167	    0,216231	169,2	    0,216063	169,2
     41,8196	    0,216104	169,2	    0,215758	169,4
     41,8226	    0,215761	169,7	    0,215547	169,6
     41,8255	    0,215138	170,1	    0,215243	169,7
     41,8284	    0,214818	170,3	    0,214994	170,2
     41,8314	    0,214653	170,2	     0,21466	170,2
     41,8343	    0,214599	170,8	    0,214517	170,3
     41,8372	     0,21405	170,9	    0,214213	170,7
     41,8402	    0,213891	170,8	    0,213878	170,8
     41,8431	    0,213629	171,1	    0,213637	171,0
      41,846	    0,213418	171,5	    0,213245	171,4
      41,849	    0,212775	171,8	    0,212996	171,4
     41,8519	    0,212875	171,8	    0,212709	171,5
     41,8548	    0,212492	171,9	    0,212253	171,7
     41,8578	    0,212171	172,1	    0,212119	172,0
     41,8607	    0,211826	172,3	     0,21181	171,9
     41,8636	    0,211473	172,7	    0,211172	172,5
     41,8666	      0,2112	172,8	    0,211285	172,8
     41,8695	    0,210838	172,7	    0,211021	172,8
     41,8724	    0,210471	173,2	    0,210776	172,9
     41,8754	    0,210168	173,4	    0,210447	173,5
     41,8783	    0,209982	173,5	    0,210107	173,8
     41,8812	    0,209697	173,7	    0,209829	173,7
     41,8842	    0,209366	174,1	    0,209551	174,1
     41,8871	    0,208934	173,9	    0,209222	174,3
       41,89	     0,20876	174,3	    0,208843	174,4
      41,893	    0,208346	174,9	    0,208637	174,6
     41,8959	    0,208059	174,9	     0,20828	175,2
     41,8988	     0,20781	175,0	    0,208056	174,9
     41,9018	    0,207305	175,5	    0,207607	175,2
     41,9047	    0,206997	175,5	    0,207339	175,3
     41,9076	     0,20674	175,7	    0,206599	175,5
     41,9106	    0,206536	176,0	    0,206747	175,8
     41,9135	    0,206181	175,9	    0,206392	176,3
     41,9164	    0,205931	176,0	    0,206386	176,1
     41,9194	    0,205591	176,7	    0,205671	176,1
     41,9223	    0,205249	176,8	    0,205295	176,3
     41,9252	    0,204975	176,9	    0,205217	176,1
     41,9282	    0,204544	176,9	    0,204717	175,8
     41,9311	    0,203974	176,9	    0,204567	176,9
      41,934	    0,203564	177,3	    0,204333	176,9
      41,937	    0,203775	177,7	    0,204006	177,0
     41,9399	    0,203423	177,8	     0,20357	177,5
     41,9428	    0,203031	177,7	    0,203364	177,7
     41,9457	    0,202697	178,1	    0,203039	177,5
     41,9487	    0,202485	178,3	    0,202754	178,1
     41,9516	     0,20217	178,4	    0,202479	177,8
     41,9545	    0,201808	178,7	    0,202001	178,1
     41,9575	    0,201282	178,9	    0,201779	178,5
     41,9604	    0,201069	178,7	      0,2015	178,8
     41,9633	    0,200775	179,2	    0,201078	178,6
     41,9663	    0,200394	179,1	    0,200742	179,0
     41,9692	    0,200042	179,3	    0,200454	179,0
     41,9721	     0,19978	179,7	    0,199992	179,5
     41,9751	    0,199548	179,9	    0,199527	179,8
      41,978	    0,199207	179,8	    0,199584	179,9
     41,9809	    0,198816	180,3	    0,199377	179,8
     41,9839	    0,198587	180,2	    0,199138	180,3
     41,9868	    0,197681	180,5	    0,198719	180,5
     41,9897	    0,197834	180,7	    0,198181	180,5
     41,9927	    0,197514	180,8	    0,198096	180,9
     41,9956	    0,197159	180,9	    0,197848	180,7
     41,9985	    0,196782	181,4	    0,197501	181,1
     42,0015	    0,196432	181,4	     0,19712	181,6
     42,0044	    0,196223	181,2	    0,196772	181,4
     42,0073	    0,195839	181,5	    0,196527	181,4
     42,0103	    0,195586	181,5	    0,196234	182,2
     42,0132	    0,195264	181,9	    0,195784	182,2
     42,0161	    0,194842	182,3	     0,19548	182,1
     42,0191	    0,194102	182,3	    0,195318	182,3
      42,022	    0,194094	182,3	    0,194942	182,2
     42,0249	    0,193838	182,7	    0,194614	182,6
     42,0279	    0,193557	182,5	     0,19432	183,0
     42,0308	    0,193226	182,9	    0,194032	182,7
     42,0337	    0,192721	183,2	    0,193675	183,1
     42,0367	    0,192355	183,1	    0,193323	183,6
     42,0396	    0,192232	183,5	    0,192866	183,3
     42,0425	    0,191794	183,9	    0,192523	183,7
     42,0455	    0,191492	183,6	    0,192348	183,7
     42,0484	    0,191201	184,2	    0,191653	184,1
     42,0513	    0,190971	183,9	     0,19181	184,2
     42,0543	    0,190562	184,1	    0,191339	184,1
     42,0572	    0,190181	184,5	      0,1911	184,1
     42,0601	    0,189833	184,5	    0,190681	184,7
      42,063	    0,189493	184,6	    0,190472	185,1
      42,066	    0,189214	185,0	    0,190166	184,9
     42,0689	    0,188976	185,1	    0,189746	185,2
     42,0718	    0,188607	185,1	    0,189501	184,8
     42,0748	    0,188266	185,5	    0,189079	185,4
     42,0777	    0,187752	185,1	    0,188844	185,5
     42,0806	    0,187327	185,9	    0,188581	185,2
     42,0836	    0,186813	185,6	    0,188318	185,7
     42,0865	    0,186774	185,5	    0,187891	185,9
     42,0894	    0,186418	186,1	    0,187601	185,8
     42,0924	    0,186082	186,0	    0,187069	186,1
     42,0953	    0,185713	186,5	    0,186707	185,8
     42,0982	    0,185453	186,7	    0,186442	186,2
     42,1012	    0,185294	186,4	    0,186249	186,7
     42,1041	    0,184773	187,0	    0,185945	186,4
      42,107	    0,184268	186,8	    0,185506	187,0
       42,11	    0,183966	186,8	    0,185151	187,2
     42,1129	    0,183658	187,5	    0,184714	186,9
     42,1158	    0,183377	187,4	    0,184328	187,3
     42,1188	    0,183044	187,2	    0,184067	187,5
     42,1217	    0,182633	187,9	    0,183778	187,1
     42,1246	    0,182293	187,9	    0,183549	187,9
     42,1276	    0,182191	187,8	    0,183173	187,7
     42,1305	    0,181594	188,1	    0,182867	188,2
     42,1334	    0,181401	188,1	    0,182463	188,1
     42,1364	    0,181012	188,8	    0,182145	187,9
     42,1393	    0,180489	188,6	    0,182002	188,6
     42,1422	    0,180449	188,8	    0,181446	188,4
     42,1452	    0,180155	189,7	    0,181183	188,4
     42,1481	    0,179235	189,4	    0,180863	189,0
      42,151	    0,179429	189,4	    0,180575	189,0
      42,154	    0,178884	189,4	    0,180082	189,4
     42,1569	    0,178908	189,4	    0,179762	189,3
     42,1598	    0,177944	190,1	    0,179467	189,4
     42,1628	    0,178212	189,8	    0,179163	189,8
     42,1657	    0,177615	189,7	    0,178831	189,7
     42,1686	    0,177398	190,2	     0,17849	189,9
     42,1716	    0,176894	189,9	    0,177963	190,1
     42,1745	    0,176946	190,4	    0,177973	190,3
     42,1774	    0,176282	190,0	    0,177673	190,7
     42,1804	    0,176169	190,4	    0,177329	190,4
     42,1833	    0,175786	190,8	    0,176821	190,4
     42,1862	    0,175538	190,5	    0,176839	190,8
     42,1891	    0,175008	190,4	    0,176464	191,1
     42,1921	    0,174769	191,0	    0,175954	191,0
      42,195	    0,174444	191,1	    0,175709	191,3
     42,1979	    0,174023	191,4	    0,174675	191,0
     42,2009	    0,173672	191,3	     0,17484	191,4
     42,2038	    0,173371	191,6	    0,174862	191,6
     42,2067	    0,173235	191,9	    0,174565	191,4
     42,2097	    0,172808	191,8	    0,174202	191,8
     42,2126	    0,172262	192,1	    0,173675	191,8
     42,2155	    0,172305	192,2	    0,173515	192,0
     42,2185	     0,17191	192,5	    0,173135	192,2
     42,2214	    0,171475	192,6	    0,172665	192,0
     42,2243	    0,171247	192,5	    0,172351	192,5
     42,2273	    0,170668	192,7	    0,172084	192,6
     42,2302	    0,170482	192,9	    0,171713	192,7
     42,2331	    0,169966	192,8	    0,171383	192,9
     42,2361	    0,169636	193,4	    0,171265	192,9
      42,239	    0,169512	193,3	    0,170782	193,4
     42,2419	    0,169217	193,5	    0,170443	193,2
     42,2449	    0,168836	193,5	    0,170112	193,6
     42,2478	     0,16842	193,4	    0,170016	193,9
     42,2507	    0,168196	193,7	    0,169348	193,6
     42,2537	    0,167824	193,5	    0,169284	193,7
     42,2566	    0,167515	193,7	    0,168164	194,2
     42,2595	    0,167192	193,8	    0,168203	194,0
     42,2625	    0,166891	194,0	    0,168481	194,5
     42,2654	    0,166441	194,4	    0,168059	194,2
     42,2683	    0,166128	194,2	    0,167537	194,1
     42,2713	    0,165741	194,7	    0,167042	194,4
     42,2742	    0,165397	194,6	    0,167005	194,5
     42,2771	    0,165297	195,0	    0,166752	194,7
     42,2801	    0,164909	195,4	     0,16641	194,5
      42,283	     0,16452	195,0	    0,165985	194,9
     42,2859	    0,164226	195,6	    0,165483	194,8
     42,2889	    0,164049	195,4	    0,165376	195,3
     42,2918	    0,163685	195,6	    0,164963	195,5
     42,2947	     0,16318	195,7	    0,164748	195,4
     42,2977	    0,162757	195,6	    0,164358	195,8
     42,3006	    0,162655	196,0	     0,16406	195,8
     42,3035	    0,162377	195,8	    0,163813	196,2
     42,3064	    0,161979	196,0	    0,163462	196,1
     42,3094	    0,161718	196,1	    0,163109	196,1
     42,3123	    0,161437	196,3	    0,162714	196,2
     42,3153	    0,161073	196,8	     0,16261	196,1
     42,3182	    0,160676	196,5	     0,16214	196,6
     42,3211	    0,160315	196,7	    0,161803	196,6
      42,324	    0,160053	197,0	    0,161569	196,8
      42,327	    0,159739	197,3	    0,161311	197,0
     42,3299	    0,159375	197,3	    0,161021	197,1
     42,3328	    0,159102	197,3	    0,160635	197,2
     42,3358	    0,158685	197,8	    0,160354	197,1
     42,3387	    0,158396	197,4	    0,159977	197,8
     42,3416	    0,158018	197,7	    0,159656	197,5
     42,3446	    0,157779	197,7	     0,15929	197,6
     42,3475	    0,157316	197,9	    0,158961	198,1
     42,3504	    0,157097	198,0	    0,158676	197,9
     42,3534	    0,156816	198,1	    0,158374	198,1
     42,3563	    0,156499	198,6	    0,158093	197,9
     42,3592	    0,156062	198,2	    0,157725	198,1
     42,3622	    0,155827	198,7	    0,157402	198,3
     42,3651	    0,155485	198,7	    0,157161	198,4
      42,368	    0,155252	198,8	    0,156836	198,7
      42,371	    0,154908	199,2	     0,15648	198,5
     42,3739	    0,154517	198,9	    0,156119	198,9
     42,3768	    0,154208	199,3	    0,155835	198,9
     42,3798	    0,153966	198,9	    0,155548	199,5
     42,3827	    0,153536	199,3	    0,155195	199,4
     42,3856	    0,153223	199,3	    0,154903	199,3
     42,3886	    0,152866	199,0	    0,154536	199,7
     42,3915	    0,152388	-160,0	    0,154298	199,2
     42,3944	    0,152326	-160,1	    0,153924	199,5
     42,3974	    0,151683	-159,7	    0,153536	199,7
     42,4003	    0,151692	-159,9	    0,153215	199,7
     42,4032	    0,151304	-159,5	    0,152963	199,9
     42,4062	    0,150981	-159,9	     0,15265	-159,8
     42,4091	    0,150631	-159,7	    0,152336	-159,6
      42,412	    0,150297	-159,5	    0,151687	-159,6
      42,415	     0,15013	-159,7	    0,151683	-159,3
     42,4179	    0,149688	-159,2	    0,151399	-159,2
     42,4208	    0,149423	-159,4	    0,150983	-159,0
     42,4238	    0,149044	-159,1	    0,150749	-159,4
     42,4267	    0,148799	-159,0	    0,150318	-159,0
     42,4296	    0,148407	-158,5	    0,150091	-159,0
     42,4326	    0,148019	-158,5	    0,149796	-159,0
     42,4355	      0,1478	-158,7	    0,149513	-158,7
     42,4384	    0,147491	-158,5	    0,149185	-158,9
     42,4413	    0,147186	-158,5	    0,148843	-158,5
     42,4443	    0,146892	-158,4	    0,148494	-158,5
     42,4472	    0,146548	-158,4	     0,14824	-157,9
     42,4501	    0,146179	-157,9	    0,147806	-158,1
     42,4531	    0,145907	-158,2	    0,147052	-158,1
      42,456	    0,145597	-157,8	    0,146823	-157,8
     42,4589	    0,145265	-157,8	    0,146837	-157,9
     42,4619	    0,144959	-157,6	    0,146578	-157,7
     42,4648	     0,14462	-157,3	    0,146301	-157,9
     42,4677	    0,144432	-157,4	    0,146038	-157,4
     42,4707	     0,14402	-157,5	     0,14569	-157,6
     42,4736	    0,143744	-157,3	     0,14535	-157,0
     42,4765	    0,143387	-157,0	    0,145063	-157,3
     42,4795	    0,143099	-157,3	    0,144682	-157,0
     42,4824	    0,142704	-156,8	    0,144431	-156,9
     42,4853	    0,142521	-156,8	    0,144084	-156,8
     42,4883	    0,142146	-156,7	    0,143792	-157,2
     42,4912	    0,141938	-156,3	    0,143461	-156,9
     42,4941	    0,141528	-156,2	    0,143156	-156,6
     42,4971	    0,141184	-156,0	    0,142858	-156,6
        42,5	    0,140899	-156,4	    0,142562	-156,2
     42,5029	    0,140575	-156,1	    0,142219	-156,1
     42,5059	    0,140189	-156,2	    0,141893	-156,0
     42,5088	    0,139997	-155,9	    0,141647	-155,8
     42,5117	    0,139758	-155,9	    0,141308	-155,9
     42,5147	    0,139321	-155,7	    0,141023	-156,3
     42,5176	    0,139052	-155,7	    0,140647	-155,7
     42,5205	    0,138838	-155,3	    0,140308	-155,6
     42,5235	    0,138517	-155,8	    0,139979	-155,7
     42,5264	    0,138107	-155,4	    0,139746	-155,4
     42,5293	     0,13781	-155,2	    0,139458	-154,9
     42,5323	    0,137543	-155,3	    0,139191	-155,3
     42,5352	    0,137218	-155,2	     0,13887	-155,0
     42,5381	    0,136926	-154,9	    0,138419	-154,8
     42,5411	    0,136654	-154,7	     0,13823	-155,1
      42,544	    0,136261	-154,7	    0,137883	-154,7
     42,5469	    0,136064	-154,4	     0,13767	-154,7
     42,5499	    0,135768	-154,6	    0,137296	-154,5
     42,5528	    0,135362	-154,4	    0,136991	-154,4
     42,5557	    0,135178	-154,5	    0,136687	-154,1
     42,5587	    0,134777	-154,1	    0,136415	-154,4
     42,5616	    0,134592	-154,3	    0,136114	-154,2
     42,5645	    0,134263	-153,9	    0,135814	-154,1
     42,5674	    0,133981	-153,9	    0,135418	-154,0
     42,5704	    0,133592	-153,5	    0,135116	-154,0
     42,5733	    0,133365	-153,9	    0,134873	-153,6
     42,5762	     0,13296	-153,6	    0,134616	-153,6
     42,5792	    0,132848	-153,7	     0,13418	-153,6
     42,5821	    0,132488	-153,1	    0,133916	-153,3
      42,585	    0,132181	-153,4	    0,133684	-153,4
      42,588	    0,131891	-153,0	    0,133365	-153,5
     42,5909	    0,131599	-153,4	    0,132982	-153,4
     42,5938	    0,131203	-152,8	    0,132704	-153,1
     42,5968	    0,130829	-153,1	    0,132492	-153,1
     42,5997	    0,130669	-153,0	     0,13216	-152,5
     42,6026	    0,130368	-152,9	    0,131827	-152,8
     42,6056	    0,130076	-152,4	    0,131425	-152,4
     42,6085	    0,129823	-152,4	    0,131186	-152,8
     42,6114	    0,129464	-152,0	    0,130869	-152,5
     42,6144	    0,129108	-152,4	    0,130655	-152,6
     42,6173	    0,128933	-152,2	    0,130416	-152,1
     42,6202	    0,128687	-152,3	    0,130103	-152,5
     42,6232	    0,128317	-151,8	    0,129708	-151,8
     42,6261	    0,128026	-152,0	    0,129395	-152,3
      42,629	    0,127777	-151,9	    0,129125	-152,0
      42,632	    0,127121	-152,0	    0,128855	-152,2
     42,6349	    0,127123	-151,7	    0,128585	-151,8
     42,6378	    0,126809	-151,7	    0,128292	-151,8
     42,6408	    0,126714	-151,8	    0,128085	-151,3
     42,6437	    0,126395	-151,3	    0,127803	-151,7
     42,6466	    0,125995	-150,9	    0,127336	-151,2
     42,6496	    0,125549	-151,5	     0,12698	-151,5
     42,6525	    0,125333	-151,1	    0,126646	-151,2
     42,6554	    0,125094	-151,3	     0,12649	-151,3
     42,6584	    0,124799	-150,9	    0,126217	-150,8
     42,6613	    0,124527	-151,1	    0,125952	-150,9
     42,6642	    0,124279	-151,0	    0,125692	-150,9
     42,6672	      0,1238	-150,6	    0,125337	-150,7
     42,6701	    0,123694	-150,5	    0,125061	-150,7
      42,673	    0,123444	-150,8	    0,124782	-151,0
      42,676	    0,123088	-150,5	    0,124447	-150,2
     42,6789	    0,122884	-150,5	    0,124168	-150,6
     42,6818	    0,122591	-150,1	    0,123836	-150,1
     42,6847	    0,122293	-150,2	    0,123489	-150,2
     42,6877	    0,122014	-149,8	    0,123336	-150,1
     42,6906	    0,121555	-150,0	    0,123047	-150,3
     42,6936	    0,121504	-149,9	     0,12264	-150,0
     42,6965	    0,121243	-150,3	    0,122365	-150,0
     42,6994	      0,1209	-149,7	    0,122122	-149,5
     42,7023	    0,120562	-149,7	    0,121924	-149,8
     42,7053	    0,120376	-149,2	    0,121637	-149,7
     42,7082	    0,119844	-149,3	    0,120801	-149,3
     42,7111	    0,119827	-149,5	    0,121088	-149,5
     42,7141	    0,119489	-149,5	    0,120756	-149,4
      42,717	    0,119162	-149,1	     0,12045	-149,2
     42,7199	    0,118957	-149,2	     0,12007	-149,1
     42,7229	    0,118658	-148,9	    0,119877	-148,8
     42,7258	    0,118368	-148,8	    0,119578	-149,1
     42,7287	    0,118074	-148,7	    0,119345	-149,0
     42,7317	    0,117811	-149,1	    0,119083	-148,5
     42,7346	    0,117457	-148,7	    0,118701	-148,6
     42,7375	    0,117276	-148,4	     0,11838	-148,4
     42,7405	    0,116876	-148,3	    0,118209	-148,9
     42,7434	    0,116742	-148,5	    0,117847	-148,5
     42,7463	    0,116371	-148,3	    0,117636	-148,7
     42,7493	    0,116194	-148,4	      0,1173	-148,1
     42,7522	    0,115953	-148,3	    0,117024	-148,3
     42,7551	    0,115333	-147,9	    0,116837	-148,0
     42,7581	    0,114865	-148,0	    0,116558	-148,0
      42,761	    0,114949	-147,9	      0,1162	-147,9
     42,7639	    0,114741	-148,0	      0,1159	-148,0
     42,7669	    0,114411	-147,9	    0,115554	-147,7
     42,7698	    0,114243	-147,8	    0,115417	-147,7
     42,7727	    0,113905	-147,3	    0,115134	-147,8
     42,7757	     0,11339	-147,2	    0,114902	-147,7
     42,7786	    0,113362	-147,5	    0,114486	-147,6
     42,7815	    0,113122	-147,5	    0,114222	-147,5
     42,7845	    0,112855	-147,2	    0,113984	-147,1
     42,7874	    0,112659	-147,0	    0,113721	-147,0
     42,7903	    0,112315	-147,1	    0,113424	-147,1
     42,7933	    0,111765	-146,7	    0,113163	-147,1
     42,7962	    0,111762	-146,9	    0,112962	-147,1
     42,7991	    0,111509	-147,1	    0,112624	-146,7
     42,8021	    0,111311	-146,8	    0,112232	-147,0
      42,805	     0,11094	-146,8	    0,112059	-146,5
     42,8079	    0,110691	-146,7	    0,111841	-146,8
     42,8109	    0,110485	-146,6	    0,111605	-146,7
     42,8138	    0,110295	-146,6	    0,111304	-146,7
     42,8167	    0,109819	-146,3	     0,11093	-146,2
     42,8196	    0,109281	-146,7	    0,110813	-146,4
     42,8226	    0,109199	-146,0	    0,110547	-146,2
     42,8255	    0,109225	-146,3	    0,110311	-146,3
     42,8284	    0,108787	-145,9	     0,11006	-146,2
     42,8314	     0,10848	-146,2	    0,109667	-146,0
     42,8343	    0,108345	-145,8	    0,109383	-145,9
     42,8372	    0,108121	-145,5	    0,109095	-145,9
     42,8402	    0,107879	-146,2	    0,108926	-146,1
     42,8431	    0,107637	-145,8	    0,108657	-145,7
      42,846	    0,107315	-145,9	    0,108154	-145,7
      42,849	    0,107064	-145,3	    0,107722	-145,1
     42,8519	    0,106875	-145,5	    0,107958	-145,7
     42,8548	    0,106636	-145,4	    0,107198	-145,1
     42,8578	    0,106372	-145,5	    0,107295	-145,4
     42,8607	    0,106072	-145,3	    0,107109	-145,5
     42,8636	    0,105847	-145,4	    0,106828	-145,1
     42,8666	    0,105557	-144,9	    0,106494	-145,2
     42,8695	    0,105338	-144,7	    0,106202	-145,0
     42,8724	     0,10474	-145,1	    0,106112	-145,2
     42,8754	    0,104612	-145,0	    0,105755	-144,8
     42,8783	    0,104506	-146,8	    0,105509	-144,7
     42,8812	    0,104109	-144,8	    0,105244	-144,8
     42,8842	    0,103829	-144,4	    0,105035	-145,0
     42,8871	     0,10376	-144,4	    0,104469	-144,4
       42,89	    0,103544	-144,3	    0,104391	-144,7
      42,893	    0,103262	-144,4	    0,104238	-144,5
     42,8959	     0,10298	-144,2	    0,103937	-144,4
     42,8988	    0,102833	-144,6	    0,103698	-144,6
     42,9018	    0,102495	-144,0	    0,103329	-144,3
     42,9047	    0,102255	-144,4	    0,103149	-144,2
     42,9076	     0,10199	-143,9	    0,102851	-144,1
     42,9106	    0,101731	-144,1	    0,102548	-144,1
     42,9135	    0,101583	-144,3	    0,102424	-144,1
     42,9164	    0,101214	-144,0	    0,102217	-143,8
     42,9194	     0,10096	-143,9	    0,101921	-143,7
     42,9223	    0,100784	-143,4	    0,101521	-143,6
     42,9252	     0,10058	-144,0	    0,101339	-143,8
     42,9282	    0,100247	-143,3	    0,101048	-143,5
     42,9311	     0,10005	-143,7	    0,100987	-143,3
      42,934	   0,0996549	-143,3	    0,100759	-143,6
      42,937	   0,0995651	-143,3	    0,100434	-143,4
     42,9399	   0,0994273	-143,6	    0,100172	-143,8
     42,9428	   0,0990054	-143,4	   0,0998294	-143,2
     42,9457	   0,0987908	-143,5	   0,0993998	-142,8
     42,9487	   0,0985751	-142,9	   0,0993551	-142,7
     42,9516	   0,0983402	-143,0	    0,099142	-143,4
     42,9545	   0,0980971	-143,1	   0,0989059	-143,1
     42,9575	   0,0978773	-143,2	    0,098649	-142,7
     42,9604	   0,0976407	-142,7	   0,0984341	-142,8
     42,9633	   0,0973649	-142,7	   0,0981523	-142,6
     42,9663	   0,0972431	-142,9	   0,0977247	-143,3
     42,9692	   0,0969379	-142,5	   0,0976632	-142,5
     42,9721	   0,0966188	-142,6	   0,0974997	-142,5
     42,9751	   0,0963684	-142,5	   0,0971846	-142,3
      42,978	    0,096239	-142,4	   0,0967217	-142,5
     42,9809	   0,0960559	-142,6	   0,0964979	-142,4
     42,9839	   0,0956927	-142,3	   0,0964993	-142,1
     42,9868	   0,0955259	-142,2	   0,0962303	-142,3
     42,9897	   0,0952457	-142,3	   0,0960504	-142,3
     42,9927	     0,09495	-142,4	   0,0956841	-142,1
     42,9956	    0,094739	-142,3	   0,0954067	-142,3
     42,9985	   0,0945824	-141,7	   0,0951951	-141,6
     43,0015	   0,0943879	-142,1	   0,0950571	-142,1
     43,0044	    0,094014	-142,1	   0,0949282	-142,1
     43,0073	   0,0938406	-142,2	   0,0944145	-141,9
     43,0103	   0,0936221	-141,7	   0,0943607	-141,6
     43,0132	   0,0934666	-141,5	    0,094167	-141,7
     43,0161	   0,0932177	-141,8	   0,0938495	-142,1
     43,0191	   0,0929229	-141,6	   0,0936146	-141,5
      43,022	   0,0927701	-141,6	    0,093384	-141,5
     43,0249	   0,0925183	-141,3	   0,0932137	-141,4
     43,0279	    0,092145	-141,4	   0,0929623	-141,5
     43,0308	   0,0920234	-141,3	   0,0927592	-141,5
     43,0337	   0,0917831	-141,0	    0,092507	-141,1
     43,0367	   0,0916426	-141,2	   0,0922692	-141,2
     43,0396	   0,0913813	-141,5	   0,0920291	-141,2
     43,0425	   0,0912055	-141,3	   0,0918168	-140,9
     43,0455	   0,0909228	-141,2	   0,0916223	-141,2
     43,0484	   0,0906371	-140,6	   0,0913388	-140,9
     43,0513	   0,0904251	-140,6	   0,0910434	-141,2
     43,0543	   0,0902376	-141,1	   0,0908756	-140,5
     43,0572	   0,0900254	-141,0	   0,0906385	-140,8
     43,0601	   0,0898907	-140,6	   0,0904056	-140,5
      43,063	    0,089655	-140,6	   0,0901833	-140,6
      43,066	   0,0894178	-140,7	   0,0900036	-140,6
     43,0689	   0,0891707	-140,4	   0,0896787	-139,8
     43,0718	   0,0889126	-140,2	   0,0895304	-140,2
     43,0748	   0,0888924	-140,5	   0,0892342	-140,1
     43,0777	   0,0884376	-140,3	   0,0890871	-140,4
     43,0806	   0,0882895	-140,1	   0,0888198	-139,8
     43,0836	   0,0880155	-140,3	    0,088696	-139,8
     43,0865	   0,0878744	-140,3	   0,0883427	-140,4
     43,0894	   0,0877125	-140,1	   0,0881013	-140,0
     43,0924	   0,0873618	-140,0	   0,0880269	-139,8
     43,0953	   0,0871953	-139,9	   0,0877277	-140,2
     43,0982	   0,0870361	-140,1	   0,0875926	-140,3
     43,1012	   0,0868273	-139,8	    0,087299	-139,9
     43,1041	   0,0865623	-139,7	   0,0871381	-139,9
      43,107	   0,0863433	-139,4	   0,0868907	-140,1
       43,11	   0,0861823	-139,9	    0,086672	-140,0
     43,1129	   0,0859183	-139,8	   0,0864852	-140,1
     43,1158	   0,0855887	-139,5	   0,0862167	-139,4
     43,1188	   0,0856548	-139,7	   0,0860759	-139,9
     43,1217	   0,0852747	-139,6	   0,0859209	-139,8
     43,1246	   0,0850721	-139,6	   0,0855848	-139,7
     43,1276	   0,0849346	-139,7	   0,0853751	-139,6
     43,1305	    0,084749	-139,5	   0,0852045	-139,5
     43,1334	   0,0844852	-139,4	    0,084979	-139,3
     43,1364	   0,0841981	-139,1	   0,0847834	-139,3
     43,1393	   0,0840189	-139,1	   0,0844218	-139,2
     43,1422	   0,0838975	-139,4	   0,0844432	-139,5
     43,1452	    0,083685	-139,4	   0,0842208	-139,3
     43,1481	   0,0833977	-139,1	   0,0838273	-139,0
      43,151	   0,0832547	-139,0	   0,0837259	-139,3
      43,154	   0,0830602	-138,9	   0,0835276	-139,0
     43,1569	   0,0828005	-138,9	   0,0832935	-138,6
     43,1598	   0,0826437	-138,8	   0,0830296	-138,9
     43,1628	   0,0824268	-138,6	   0,0827939	-138,9
     43,1657	   0,0822728	-139,0	   0,0827023	-138,8
     43,1686	   0,0818648	-138,6	   0,0825612	-138,9
     43,1716	   0,0818064	-138,5	     0,08225	-138,7
     43,1745	   0,0816577	-138,6	   0,0819827	-139,1
     43,1774	   0,0813431	-138,5	   0,0817951	-138,3
     43,1804	   0,0811385	-138,4	   0,0816764	-138,3
     43,1833	   0,0809683	-138,7	    0,081534	-138,8
     43,1862	   0,0808449	-138,4	   0,0811807	-138,3
     43,1891	   0,0806068	-138,6	   0,0810548	-138,2
     43,1921	   0,0803204	-138,2	   0,0808834	-138,6
      43,195	   0,0802319	-138,2	   0,0805854	-138,3
     43,1979	   0,0800605	-138,6	   0,0803243	-138,4
     43,2009	   0,0797799	-137,9	   0,0802894	-138,3
     43,2038	   0,0795218	-138,1	   0,0800029	-138,2
     43,2067	   0,0795553	-138,5	   0,0798796	-138,2
     43,2097	   0,0792467	-137,8	   0,0795885	-138,2
     43,2126	   0,0790379	-137,9	   0,0793548	-137,8
     43,2155	   0,0788502	-138,1	   0,0793433	-138,1
     43,2185	   0,0786163	-137,7	   0,0790483	-137,8
     43,2214	   0,0784068	-137,7	   0,0787955	-137,7
     43,2243	   0,0782402	-137,6	   0,0786059	-138,1
     43,2273	   0,0779818	-137,6	   0,0784718	-137,6
     43,2302	   0,0778385	-137,8	   0,0782783	-137,6
     43,2331	   0,0776291	-137,6	   0,0780463	-138,1
     43,2361	   0,0775192	-137,4	   0,0778704	-137,4
      43,239	    0,077338	-137,7	   0,0776924	-137,7
     43,2419	   0,0770958	-137,2	   0,0774374	-137,7
     43,2449	   0,0770027	-137,4	   0,0772216	-137,5
     43,2478	    0,076821	-137,7	   0,0770551	-137,4
     43,2507	   0,0765736	-137,3	   0,0769736	-137,5
     43,2537	   0,0763175	-137,2	   0,0767635	-137,3
     43,2566	   0,0761419	-137,5	     0,07646	-137,7
     43,2595	   0,0759503	-137,1	   0,0763499	-137,2
     43,2625	   0,0759019	-136,9	   0,0761861	-137,3
     43,2654	   0,0756554	-137,4	   0,0760175	-137,2
     43,2683	   0,0754536	-136,9	   0,0758365	-137,0
     43,2713	   0,0752384	-137,0	   0,0755676	-137,0
     43,2742	   0,0751241	-137,2	   0,0753807	-137,2
     43,2771	   0,0748496	-136,8	   0,0751729	-136,7
     43,2801	   0,0747239	-136,9	   0,0750682	-136,8
      43,283	   0,0745592	-137,1	   0,0749235	-137,3
     43,2859	   0,0742784	-136,8	   0,0745291	-136,7
     43,2889	   0,0741607	-136,6	   0,0745199	-136,6
     43,2918	   0,0740081	-136,4	   0,0743341	-137,2
     43,2947	   0,0737924	-136,6	   0,0741111	-136,6
     43,2977	   0,0735557	-136,7	   0,0738828	-136,7
     43,3006	   0,0734459	-136,6	    0,073714	-137,1
     43,3035	   0,0732336	-136,6	   0,0735984	-136,3
     43,3064	   0,0731658	-136,3	   0,0734129	-136,7
     43,3094	   0,0728123	-136,2	   0,0732171	-136,7
     43,3123	   0,0726785	-136,2	   0,0730364	-136,3
     43,3153	   0,0726362	-136,5	   0,0727864	-136,2
     43,3182	   0,0723517	-136,4	   0,0726978	-136,6
     43,3211	   0,0722599	-136,1	   0,0724577	-136,5
      43,324	   0,0720769	-136,4	   0,0722629	-136,6
      43,327	   0,0718208	-136,2	    0,072061	-136,5
     43,3299	   0,0716324	-135,9	   0,0719586	-136,2
     43,3328	   0,0714517	-136,3	   0,0717533	-136,0
     43,3358	   0,0713925	-135,6	   0,0716278	-136,2
     43,3387	   0,0710228	-135,8	   0,0713954	-136,0
     43,3416	   0,0709407	-136,2	   0,0712086	-135,9
     43,3446	   0,0708401	-136,0	   0,0711664	-136,2
     43,3475	   0,0706631	-136,0	   0,0708453	-136,1
     43,3504	   0,0705039	-136,1	   0,0707268	-135,9
     43,3534	    0,070177	-135,8	   0,0705512	-136,1
     43,3563	    0,070096	-135,5	   0,0703852	-135,9
     43,3592	   0,0699798	-136,0	   0,0701921	-135,7
     43,3622	    0,069815	-135,9	   0,0701323	-135,9
     43,3651	   0,0696862	-135,4	    0,069879	-135,9
      43,368	   0,0695368	-135,6	    0,069765	-135,2
      43,371	   0,0692656	-135,8	   0,0694528	-135,9
     43,3739	   0,0691701	-135,0	   0,0693477	-136,0
     43,3768	   0,0689562	-135,5	   0,0690792	-135,8
     43,3798	   0,0688057	-135,7	   0,0689585	-135,7
     43,3827	   0,0686652	-135,1	   0,0689134	-135,5
     43,3856	   0,0684752	-135,5	   0,0687288	-135,4
     43,3886	    0,068259	-135,7	   0,0684435	-135,4
     43,3915	   0,0681661	-135,1	   0,0683767	-135,2
     43,3944	   0,0679288	-135,4	   0,0681736	-135,4
     43,3974	   0,0678087	-135,4	   0,0679481	-135,5
     43,4003	   0,0677119	-134,9	   0,0679355	-135,3
     43,4032	    0,067379	-135,1	   0,0677611	-135,7
     43,4062	   0,0672461	-135,4	   0,0674581	-135,2
     43,4091	   0,0671993	-135,2	   0,0673694	-135,5
      43,412	   0,0670442	-135,0	   0,0672418	-135,1
      43,415	   0,0667343	-135,4	   0,0669519	-135,1
     43,4179	   0,0667141	-134,8	   0,0669585	-135,3
     43,4208	   0,0665032	-134,9	   0,0667324	-135,1
     43,4238	   0,0663746	-134,7	   0,0665075	-134,8
     43,4267	   0,0661637	-134,9	   0,0664351	-135,2
     43,4296	   0,0660504	-134,9	   0,0663759	-134,8
     43,4326	   0,0659599	-134,7	    0,066003	-134,6
     43,4355	   0,0657767	-134,9	   0,0659071	-134,9
     43,4384	   0,0655365	-135,0	   0,0658247	-134,9
     43,4413	   0,0654156	-134,8	   0,0655981	-134,5
     43,4443	   0,0653306	-134,6	   0,0653807	-135,0
     43,4472	   0,0650778	-134,7	   0,0652639	-134,9
     43,4501	   0,0650269	-134,3	   0,0651924	-134,8
     43,4531	   0,0647894	-134,5	   0,0650317	-134,6
      43,456	   0,0646018	-134,6	   0,0647944	-134,8
     43,4589	   0,0645318	-134,4	    0,064561	-134,5
     43,4619	   0,0643087	-134,5	   0,0644655	-134,5
     43,4648	   0,0641869	-134,7	   0,0642875	-134,5
     43,4677	   0,0640015	-134,3	   0,0641918	-134,8
     43,4707	   0,0638589	-134,3	   0,0639738	-134,6
     43,4736	   0,0637887	-134,7	   0,0638279	-134,4
     43,4765	   0,0636783	-134,1	   0,0637175	-134,8
     43,4795	    0,063439	-134,3	   0,0636101	-134,2
     43,4824	   0,0633117	-134,2	   0,0633496	-134,3
     43,4853	   0,0631127	-134,1	   0,0632082	-134,5
     43,4883	   0,0632058	-134,1	   0,0631592	-134,3
     43,4912	   0,0627893	-133,8	   0,0629122	-134,1
     43,4941	   0,0627128	-134,2	   0,0627733	-134,5
     43,4971	   0,0626489	-134,0	   0,0626429	-134,3
        43,5	    0,062489	-134,1	   0,0624397	-134,0

