X-Data [Hz]	Laser (M - Filtered) [m/s]	Phase [Deg]	Laser (M - Filtered) [m/s]	Phase [Deg]	
	002: [07-09-24 09:30]		003: [07-09-24 09:34]	
        40,5	   0,0369455	72,0	   0,0402974	70,9
     40,5029	   0,0383244	71,5	    0,040228	71,4
     40,5059	   0,0392598	71,2	   0,0403729	71,5
     40,5088	   0,0397963	71,0	   0,0403757	71,3
     40,5117	   0,0400048	71,2	   0,0404199	71,4
     40,5147	   0,0401653	71,4	    0,040493	71,2
     40,5176	    0,040309	71,4	   0,0404347	71,6
     40,5205	   0,0403545	71,7	   0,0405551	71,6
     40,5235	   0,0402176	71,0	   0,0405845	71,4
     40,5264	   0,0405409	71,1	   0,0406672	71,8
     40,5293	   0,0403696	71,2	   0,0407299	71,4
     40,5323	   0,0404885	71,5	   0,0406751	71,3
     40,5352	   0,0406278	71,2	   0,0408346	71,6
     40,5381	   0,0405356	71,5	   0,0409142	71,2
     40,5411	   0,0407237	71,3	   0,0407779	71,7
      40,544	   0,0406055	71,3	   0,0410365	71,7
     40,5469	   0,0408254	71,4	   0,0409517	71,5
     40,5499	   0,0406823	71,3	   0,0410148	71,5
     40,5528	   0,0409661	71,8	   0,0410892	71,7
     40,5557	   0,0407682	71,3	   0,0411095	71,5
     40,5587	   0,0409892	71,1	   0,0411136	72,0
     40,5616	   0,0409306	71,8	    0,041187	71,5
     40,5645	   0,0411189	71,3	   0,0412277	71,6
     40,5674	   0,0410873	71,3	   0,0413071	71,8
     40,5704	    0,041153	71,4	   0,0412955	71,2
     40,5733	   0,0410657	71,4	   0,0413892	71,8
     40,5762	    0,041175	71,9	   0,0414764	71,8
     40,5792	   0,0412241	71,5	   0,0414759	71,4
     40,5821	   0,0413125	71,4	   0,0415162	71,6
      40,585	   0,0413466	71,3	   0,0415805	71,9
      40,588	    0,041421	71,3	   0,0416316	71,6
     40,5909	    0,041464	71,4	   0,0417597	71,5
     40,5938	   0,0414586	71,9	   0,0416106	71,1
     40,5968	   0,0415643	71,5	    0,041835	71,4
     40,5997	   0,0416472	71,6	   0,0417961	71,8
     40,6026	   0,0416467	72,0	   0,0419141	71,2
     40,6056	   0,0415885	71,5	   0,0419444	71,6
     40,6085	   0,0417109	71,2	   0,0418679	72,0
     40,6114	   0,0418314	71,7	   0,0420627	71,7
     40,6144	   0,0417388	71,6	   0,0420138	71,6
     40,6173	   0,0419212	71,6	    0,042054	71,8
     40,6202	   0,0418746	71,9	   0,0420623	71,3
     40,6232	     0,04191	71,4	   0,0422323	71,8
     40,6261	   0,0420585	71,3	   0,0421938	71,8
      40,629	   0,0420242	71,7	   0,0424296	71,5
      40,632	   0,0421013	71,6	   0,0422307	71,9
     40,6349	   0,0420588	71,6	    0,042482	71,4
     40,6378	   0,0422627	72,0	   0,0423544	71,6
     40,6408	   0,0422128	71,8	   0,0425745	71,6
     40,6437	   0,0423704	71,9	   0,0424868	71,3
     40,6466	   0,0422917	71,9	   0,0427243	71,7
     40,6496	   0,0425112	71,4	   0,0426734	71,8
     40,6525	   0,0423943	71,7	   0,0427156	71,8
     40,6554	   0,0425707	71,4	   0,0427319	71,8
     40,6584	   0,0425286	71,7	   0,0427793	71,9
     40,6613	   0,0426471	71,8	   0,0428916	71,5
     40,6642	     0,04262	71,9	   0,0428401	71,8
     40,6672	   0,0427144	71,4	   0,0429582	71,9
     40,6701	   0,0427328	72,0	   0,0430251	71,7
      40,673	   0,0428729	71,7	   0,0431231	71,9
      40,676	   0,0428859	71,6	   0,0431471	72,0
     40,6789	   0,0428874	72,0	   0,0432648	72,2
     40,6818	   0,0429825	71,6	    0,043171	71,9
     40,6847	   0,0430214	72,0	    0,043424	71,9
     40,6877	   0,0430987	72,2	   0,0432654	71,9
     40,6906	    0,043028	71,8	    0,043415	72,0
     40,6936	   0,0431526	71,6	   0,0433925	71,7
     40,6965	   0,0432673	72,0	   0,0435203	71,8
     40,6994	   0,0432915	71,7	   0,0435654	72,1
     40,7023	   0,0434692	71,7	   0,0436535	72,2
     40,7053	   0,0433075	71,8	   0,0437643	71,9
     40,7082	   0,0435069	72,0	   0,0436771	72,1
     40,7111	   0,0434778	71,9	   0,0437761	72,0
     40,7141	   0,0434795	72,1	    0,043801	72,0
      40,717	   0,0436766	71,9	   0,0439825	71,8
     40,7199	   0,0436112	72,4	   0,0439382	72,6
     40,7229	   0,0437561	72,0	   0,0439985	71,9
     40,7258	   0,0436766	71,8	   0,0441023	72,2
     40,7287	   0,0438495	71,7	   0,0441048	72,4
     40,7317	   0,0438155	71,8	   0,0441286	72,3
     40,7346	   0,0439157	71,8	   0,0442186	71,8
     40,7375	    0,044039	71,9	   0,0443575	72,4
     40,7405	   0,0440958	72,0	   0,0444373	71,9
     40,7434	   0,0439856	72,0	   0,0443617	72,0
     40,7463	    0,044287	71,6	   0,0444637	72,2
     40,7493	   0,0440818	71,8	   0,0445878	72,1
     40,7522	   0,0442152	71,7	   0,0445833	72,3
     40,7551	   0,0442898	71,7	    0,044633	72,1
     40,7581	   0,0445383	72,0	   0,0446393	71,9
      40,761	   0,0443858	72,2	   0,0447556	72,0
     40,7639	   0,0444949	71,9	   0,0448142	72,2
     40,7669	    0,044558	71,9	   0,0448525	72,2
     40,7698	   0,0446106	72,1	    0,044819	71,8
     40,7727	   0,0446551	72,0	   0,0450344	72,3
     40,7757	   0,0447609	72,1	   0,0450855	72,1
     40,7786	   0,0447903	72,2	   0,0450939	72,0
     40,7815	   0,0447729	71,9	    0,045129	72,0
     40,7845	   0,0450211	72,1	   0,0452254	72,0
     40,7874	   0,0449463	72,3	   0,0453106	71,9
     40,7903	   0,0450245	72,1	   0,0454013	72,0
     40,7933	     0,04512	72,2	   0,0454494	72,7
     40,7962	   0,0450258	72,6	   0,0455385	72,5
     40,7991	   0,0452342	72,3	   0,0455491	72,3
     40,8021	   0,0452746	72,3	   0,0456417	72,4
      40,805	   0,0452698	72,5	   0,0456211	72,8
     40,8079	   0,0454351	72,4	   0,0456922	72,2
     40,8109	   0,0455043	72,0	   0,0457916	72,9
     40,8138	    0,045429	72,0	   0,0458167	72,4
     40,8167	   0,0455648	72,2	   0,0459533	72,4
     40,8196	   0,0456356	72,3	   0,0459299	72,3
     40,8226	    0,045699	72,2	   0,0461518	72,4
     40,8255	   0,0457089	72,4	   0,0459848	72,4
     40,8284	   0,0458028	72,2	   0,0461394	72,2
     40,8314	   0,0458516	72,0	    0,046177	72,7
     40,8343	   0,0459736	72,3	   0,0462824	72,4
     40,8372	   0,0460168	72,0	   0,0463925	72,3
     40,8402	   0,0460143	72,0	   0,0462799	72,6
     40,8431	   0,0460733	72,5	    0,046613	72,4
      40,846	   0,0461667	72,5	   0,0464283	72,4
      40,849	    0,046259	72,2	   0,0466136	72,3
     40,8519	   0,0463759	72,4	   0,0466318	72,7
     40,8548	   0,0463438	72,7	   0,0468337	72,3
     40,8578	   0,0465305	72,6	   0,0466982	72,5
     40,8607	   0,0464727	72,3	   0,0469883	72,8
     40,8636	   0,0465301	72,7	    0,046954	73,1
     40,8666	   0,0466816	72,4	   0,0470654	72,5
     40,8695	   0,0467598	72,2	   0,0470649	73,0
     40,8724	   0,0467175	72,8	   0,0471234	73,0
     40,8754	   0,0468025	72,7	   0,0471936	72,8
     40,8783	   0,0468806	72,1	   0,0473094	72,4
     40,8812	   0,0470108	72,1	   0,0473298	72,9
     40,8842	   0,0470276	72,2	   0,0473959	72,5
     40,8871	   0,0472036	72,3	   0,0475202	72,3
       40,89	   0,0471254	72,1	   0,0475736	72,7
      40,893	    0,047304	72,4	   0,0476051	72,5
     40,8959	   0,0473301	72,7	     0,04759	72,5
     40,8988	   0,0473711	72,3	   0,0479182	72,4
     40,9018	    0,047557	72,5	   0,0477858	72,9
     40,9047	   0,0476434	72,9	    0,047912	72,7
     40,9076	    0,047529	72,8	   0,0479209	72,5
     40,9106	   0,0476027	72,6	   0,0480587	72,8
     40,9135	   0,0477397	72,6	   0,0481855	72,9
     40,9164	   0,0477984	73,2	   0,0481168	72,7
     40,9194	   0,0478682	72,6	   0,0483177	73,0
     40,9223	   0,0479142	72,2	   0,0482709	72,8
     40,9252	   0,0479957	73,0	    0,048472	73,0
     40,9282	   0,0480069	72,7	   0,0484776	72,6
     40,9311	   0,0482224	72,5	   0,0485488	72,6
      40,934	   0,0482652	72,5	   0,0486326	72,9
      40,937	     0,04821	72,8	   0,0487835	72,5
     40,9399	   0,0484937	72,4	   0,0487799	72,6
     40,9428	   0,0484763	72,6	   0,0488791	72,8
     40,9457	   0,0483628	73,0	   0,0488814	73,0
     40,9487	   0,0486639	73,1	   0,0490254	72,9
     40,9516	   0,0486409	73,1	   0,0491434	72,9
     40,9545	   0,0487391	73,0	   0,0490776	73,1
     40,9575	   0,0488361	72,9	   0,0492162	73,1
     40,9604	   0,0488037	73,1	   0,0492573	72,9
     40,9633	   0,0489948	72,7	   0,0494761	72,9
     40,9663	   0,0489519	72,6	   0,0494287	73,2
     40,9692	   0,0491079	72,9	   0,0494723	73,3
     40,9721	   0,0491586	72,6	   0,0495216	73,1
     40,9751	    0,049325	72,6	   0,0497761	73,1
      40,978	   0,0492979	72,7	   0,0498021	73,6
     40,9809	   0,0493771	73,3	   0,0497894	73,2
     40,9839	   0,0494903	73,2	   0,0499424	73,2
     40,9868	     0,04956	73,1	    0,049974	73,5
     40,9897	   0,0496763	73,1	   0,0501419	73,5
     40,9927	   0,0495986	73,1	   0,0500535	73,1
     40,9956	   0,0497842	73,3	    0,050365	73,0
     40,9985	   0,0498481	72,7	   0,0502664	72,9
     41,0015	   0,0499654	73,3	   0,0504376	73,2
     41,0044	   0,0500221	73,0	   0,0503914	73,1
     41,0073	   0,0500493	73,0	   0,0506702	73,2
     41,0103	   0,0501726	73,0	   0,0506114	73,4
     41,0132	   0,0502478	73,3	   0,0507803	73,7
     41,0161	   0,0503268	73,4	   0,0507706	73,2
     41,0191	   0,0504746	73,3	   0,0509906	73,1
      41,022	   0,0505411	73,0	   0,0509765	73,7
     41,0249	   0,0506256	73,0	   0,0510185	73,4
     41,0279	   0,0507244	73,2	   0,0511262	73,3
     41,0308	   0,0507259	72,9	   0,0512251	73,1
     41,0337	   0,0508482	72,8	   0,0513148	73,4
     41,0367	    0,050795	73,3	   0,0513439	73,8
     41,0396	   0,0510804	73,5	    0,051524	73,8
     41,0425	   0,0509885	73,3	   0,0515891	73,6
     41,0455	   0,0512758	73,1	   0,0516433	73,7
     41,0484	   0,0512499	73,4	   0,0518392	73,7
     41,0513	   0,0512266	73,7	   0,0517856	73,8
     41,0543	   0,0515001	73,2	   0,0519297	73,4
     41,0572	   0,0514138	73,4	   0,0520335	73,6
     41,0601	   0,0515607	73,5	   0,0521642	73,8
      41,063	    0,051745	73,5	   0,0521652	73,7
      41,066	   0,0517335	73,5	   0,0523204	73,5
     41,0689	   0,0518449	73,2	   0,0524328	73,6
     41,0718	   0,0519203	73,7	   0,0524816	73,7
     41,0748	   0,0520612	74,0	   0,0525928	73,8
     41,0777	   0,0521243	73,9	   0,0526816	73,6
     41,0806	   0,0522086	73,5	   0,0527664	73,4
     41,0836	   0,0523359	73,8	   0,0528013	73,7
     41,0865	    0,052418	73,7	   0,0529016	73,7
     41,0894	   0,0524449	73,4	   0,0530029	73,6
     41,0924	   0,0526169	73,4	   0,0531684	73,6
     41,0953	    0,052691	73,4	   0,0532181	74,1
     41,0982	   0,0526948	74,0	   0,0533267	74,0
     41,1012	   0,0529205	73,4	   0,0534355	73,8
     41,1041	   0,0529243	73,7	   0,0534743	73,7
      41,107	   0,0530039	73,9	   0,0534713	73,7
       41,11	   0,0531285	73,8	   0,0536696	73,9
     41,1129	   0,0531531	73,8	   0,0537968	73,9
     41,1158	   0,0533766	73,6	    0,053918	73,7
     41,1188	   0,0534163	73,5	   0,0539546	74,1
     41,1217	   0,0534221	74,0	   0,0541104	74,1
     41,1246	   0,0536322	74,0	   0,0542488	74,5
     41,1276	   0,0536531	74,1	   0,0542671	73,9
     41,1305	   0,0537962	73,7	   0,0542874	73,9
     41,1334	   0,0539762	74,1	   0,0544566	73,7
     41,1364	   0,0538608	74,2	   0,0545809	74,1
     41,1393	   0,0540898	73,9	   0,0546744	73,9
     41,1422	   0,0541965	73,8	   0,0548163	74,1
     41,1452	   0,0542212	73,9	   0,0549891	74,2
     41,1481	    0,054368	73,9	   0,0549526	74,7
      41,151	   0,0544745	74,2	   0,0550932	74,5
      41,154	   0,0545641	74,0	   0,0552097	74,2
     41,1569	   0,0546995	73,8	   0,0553248	74,2
     41,1598	   0,0548428	74,0	   0,0553205	74,1
     41,1628	   0,0547951	74,2	   0,0555945	74,3
     41,1657	   0,0548853	73,9	    0,055553	74,8
     41,1686	    0,055048	73,8	   0,0556391	74,4
     41,1716	   0,0550953	74,3	   0,0557945	74,2
     41,1745	   0,0553359	74,3	   0,0558783	74,5
     41,1774	   0,0553661	74,4	   0,0561119	74,5
     41,1804	   0,0554713	74,5	   0,0561082	74,4
     41,1833	   0,0556611	74,0	   0,0561969	74,2
     41,1862	   0,0556794	74,0	   0,0564191	74,5
     41,1891	   0,0558333	74,3	   0,0565055	74,8
     41,1921	   0,0558417	74,1	   0,0567398	74,7
      41,195	   0,0560023	74,2	   0,0566244	74,6
     41,1979	   0,0562281	74,4	   0,0568186	74,3
     41,2009	   0,0563149	74,7	   0,0569466	74,4
     41,2038	   0,0563046	74,7	   0,0570122	74,9
     41,2067	   0,0564748	74,4	   0,0572268	75,0
     41,2097	    0,056631	74,0	   0,0572472	75,0
     41,2126	   0,0566171	74,3	   0,0572781	74,6
     41,2155	   0,0567441	74,5	   0,0576484	74,9
     41,2185	   0,0569571	74,6	   0,0575866	75,2
     41,2214	   0,0570463	74,5	   0,0577353	74,7
     41,2243	   0,0571637	74,4	   0,0579558	75,1
     41,2273	   0,0571849	74,2	   0,0579338	75,0
     41,2302	   0,0573625	74,9	   0,0580127	75,2
     41,2331	    0,057414	74,7	   0,0583379	75,3
     41,2361	   0,0575961	74,8	    0,058312	75,1
      41,239	   0,0577438	74,7	    0,058463	74,9
     41,2419	   0,0578582	74,9	   0,0585421	75,2
     41,2449	   0,0579103	75,0	   0,0587641	75,2
     41,2478	   0,0579647	74,9	   0,0588647	75,5
     41,2507	   0,0581943	74,7	   0,0588593	75,3
     41,2537	   0,0582691	74,9	   0,0590854	75,1
     41,2566	   0,0584452	74,8	   0,0592358	74,9
     41,2595	    0,058568	75,3	   0,0592929	75,0
     41,2625	   0,0586316	75,2	   0,0592968	75,3
     41,2654	   0,0587405	75,1	   0,0595528	75,6
     41,2683	   0,0588243	74,8	   0,0597496	75,5
     41,2713	   0,0590593	75,0	   0,0597266	75,3
     41,2742	    0,059153	74,9	   0,0599596	74,9
     41,2771	   0,0592885	75,5	   0,0601825	75,2
     41,2801	    0,059342	75,1	   0,0601825	75,3
      41,283	   0,0595081	75,0	   0,0603236	75,5
     41,2859	   0,0595545	74,9	   0,0605052	75,4
     41,2889	   0,0597191	75,4	   0,0605208	75,3
     41,2918	   0,0598857	75,4	   0,0607323	75,0
     41,2947	   0,0600446	75,5	    0,060957	75,4
     41,2977	   0,0602024	75,6	   0,0610732	75,4
     41,3006	   0,0602171	75,0	   0,0612185	75,6
     41,3035	   0,0604815	75,6	   0,0612645	75,8
     41,3064	   0,0604508	75,4	   0,0614338	75,4
     41,3094	   0,0605955	75,7	   0,0615933	75,5
     41,3123	   0,0607447	75,7	   0,0616092	75,9
     41,3153	   0,0609189	75,8	   0,0617654	76,0
     41,3182	   0,0611038	75,8	   0,0621228	76,2
     41,3211	   0,0612635	75,6	   0,0621154	75,8
      41,324	    0,061308	75,5	   0,0622597	75,4
      41,327	   0,0614795	76,0	   0,0624142	76,1
     41,3299	   0,0616616	75,2	    0,062621	76,1
     41,3328	     0,06172	75,6	   0,0628118	76,6
     41,3358	   0,0620073	75,3	   0,0628751	75,9
     41,3387	      0,0621	75,6	   0,0629948	76,1
     41,3416	    0,061906	76,3	   0,0631988	75,9
     41,3446	   0,0623006	75,9	   0,0633124	76,1
     41,3475	   0,0625776	75,8	   0,0633562	76,3
     41,3504	   0,0626709	75,6	   0,0636862	76,6
     41,3534	   0,0626861	76,2	   0,0638201	76,3
     41,3563	   0,0629106	76,2	   0,0638454	76,0
     41,3592	   0,0631081	76,0	   0,0640732	75,9
     41,3622	   0,0631621	76,1	   0,0642496	76,4
     41,3651	   0,0631192	76,6	   0,0643802	76,7
      41,368	   0,0633817	76,7	   0,0644935	76,9
      41,371	   0,0637684	76,0	   0,0646394	76,4
     41,3739	   0,0638118	76,1	   0,0649103	76,3
     41,3768	   0,0637756	76,4	   0,0649398	76,3
     41,3798	   0,0639844	77,1	    0,065187	76,6
     41,3827	   0,0641334	76,7	   0,0653852	76,8
     41,3856	   0,0643741	76,3	   0,0654874	76,9
     41,3886	   0,0644932	76,0	     0,06567	76,8
     41,3915	   0,0645932	76,3	    0,065811	76,1
     41,3944	   0,0646865	76,5	   0,0659675	76,5
     41,3974	   0,0649371	77,0	    0,066151	76,8
     41,4003	   0,0652436	76,3	   0,0663316	76,7
     41,4032	   0,0653878	76,3	   0,0664397	76,9
     41,4062	   0,0655643	76,4	   0,0666275	76,8
     41,4091	   0,0653196	76,7	   0,0668632	76,6
      41,412	   0,0654672	77,8	   0,0670759	77,4
      41,415	   0,0660764	76,9	   0,0669809	77,0
     41,4179	   0,0661711	76,8	   0,0673584	77,5
     41,4208	   0,0662834	76,6	   0,0677025	77,0
     41,4238	   0,0663871	76,5	   0,0677616	77,6
     41,4267	   0,0663692	77,1	   0,0679891	77,4
     41,4296	    0,066778	76,7	   0,0679654	77,4
     41,4326	   0,0671117	77,0	   0,0680231	77,4
     41,4355	   0,0672761	77,2	   0,0684694	77,2
     41,4384	   0,0671812	77,6	   0,0686475	77,5
     41,4413	   0,0675057	77,4	   0,0687034	78,3
     41,4443	   0,0675983	77,7	   0,0688434	77,8
     41,4472	    0,067833	77,4	   0,0692932	77,4
     41,4501	   0,0678892	77,1	   0,0692402	78,2
     41,4531	   0,0680173	77,8	   0,0694994	77,7
      41,456	   0,0683577	77,7	   0,0696627	78,4
     41,4589	   0,0683717	78,0	   0,0700351	78,1
     41,4619	   0,0689742	77,2	   0,0702961	77,8
     41,4648	   0,0689446	77,4	   0,0704532	77,6
     41,4677	   0,0689987	77,9	   0,0704707	78,3
     41,4707	   0,0692417	77,9	   0,0706551	78,2
     41,4736	   0,0694583	78,3	   0,0707528	77,9
     41,4765	   0,0694855	78,0	   0,0713345	77,6
     41,4795	   0,0699824	77,8	   0,0715111	78,1
     41,4824	   0,0699978	77,6	   0,0716701	78,6
     41,4853	   0,0703591	78,0	   0,0716255	78,9
     41,4883	    0,070499	77,7	   0,0720967	78,4
     41,4912	   0,0703492	77,8	   0,0721932	78,1
     41,4941	   0,0708319	78,2	   0,0725152	78,3
     41,4971	   0,0711266	78,5	   0,0726383	78,7
        41,5	   0,0712486	78,6	   0,0730788	78,5
     41,5029	   0,0715036	77,7	   0,0733043	78,3
     41,5059	   0,0717677	78,2	   0,0734433	78,7
     41,5088	   0,0720413	78,0	   0,0734921	79,2
     41,5117	   0,0723778	78,5	   0,0735589	79,5
     41,5147	   0,0724344	78,5	     0,07418	78,7
     41,5176	   0,0726618	78,3	   0,0742907	78,9
     41,5205	   0,0728339	78,7	   0,0742764	79,3
     41,5235	   0,0730633	78,7	   0,0747475	79,8
     41,5264	   0,0733465	78,4	   0,0751541	79,7
     41,5293	   0,0732308	78,4	   0,0752456	79,3
     41,5323	   0,0737815	78,2	   0,0753871	79,7
     41,5352	   0,0738696	78,7	   0,0755585	80,1
     41,5381	   0,0743181	79,2	   0,0759673	79,3
     41,5411	   0,0743292	78,9	   0,0764917	79,2
      41,544	   0,0744079	79,4	    0,076488	79,2
     41,5469	   0,0745815	79,0	   0,0768587	79,6
     41,5499	   0,0750876	79,4	   0,0770225	80,0
     41,5528	   0,0751689	78,9	   0,0775735	80,0
     41,5557	   0,0751903	79,0	   0,0774124	80,2
     41,5587	   0,0757641	79,3	   0,0779884	79,8
     41,5616	    0,076315	79,2	   0,0782246	80,3
     41,5645	   0,0763974	79,5	   0,0784101	80,1
     41,5674	    0,076636	79,7	   0,0787929	80,0
     41,5704	   0,0765772	79,8	    0,079126	79,7
     41,5733	   0,0771852	79,6	   0,0794437	80,2
     41,5762	   0,0774221	79,8	   0,0795506	80,6
     41,5792	   0,0777793	79,5	   0,0798843	80,8
     41,5821	   0,0779269	79,3	   0,0797248	80,9
      41,585	   0,0782949	79,6	    0,080653	80,8
      41,588	   0,0785196	79,8	   0,0809743	80,4
     41,5909	   0,0788414	79,9	   0,0808712	81,0
     41,5938	   0,0792356	80,1	   0,0811135	80,6
     41,5968	   0,0794296	80,0	   0,0817609	80,8
     41,5997	   0,0796946	80,4	   0,0816322	81,4
     41,6026	   0,0799908	80,3	   0,0824654	81,4
     41,6056	   0,0801109	80,0	   0,0826107	81,5
     41,6085	   0,0805422	80,0	   0,0827933	81,6
     41,6114	   0,0807971	80,4	   0,0834987	81,7
     41,6144	   0,0809938	80,4	   0,0836322	81,7
     41,6173	   0,0813752	80,4	   0,0840096	81,7
     41,6202	   0,0818457	80,7	   0,0842344	81,3
     41,6232	   0,0821438	81,0	   0,0848198	81,8
     41,6261	   0,0824356	81,0	   0,0848278	82,0
      41,629	   0,0827455	80,9	   0,0853219	81,5
      41,632	   0,0831716	80,9	   0,0856715	82,1
     41,6349	   0,0833635	80,9	   0,0861721	82,7
     41,6378	   0,0835392	81,3	   0,0863723	82,5
     41,6408	    0,084007	81,3	   0,0869394	82,3
     41,6437	   0,0843462	81,2	   0,0871928	82,6
     41,6466	   0,0846693	81,6	   0,0877969	82,5
     41,6496	   0,0850007	81,7	   0,0881756	82,5
     41,6525	    0,085466	81,7	    0,088454	82,8
     41,6554	   0,0854025	81,6	   0,0887293	82,8
     41,6584	   0,0861531	82,0	   0,0891187	83,2
     41,6613	   0,0865212	81,8	   0,0897006	83,7
     41,6642	   0,0868566	82,0	   0,0904193	83,5
     41,6672	   0,0871969	82,0	   0,0908099	83,5
     41,6701	   0,0876144	82,3	    0,091048	84,0
      41,673	   0,0879861	82,4	   0,0914671	83,7
      41,676	   0,0882921	82,3	   0,0921184	83,7
     41,6789	   0,0887967	82,7	    0,092482	83,6
     41,6818	   0,0888114	82,6	   0,0928718	84,1
     41,6847	    0,089518	83,1	   0,0936118	84,1
     41,6877	   0,0899223	82,7	   0,0939512	84,4
     41,6906	   0,0903202	82,8	   0,0946543	84,3
     41,6936	   0,0908567	83,2	   0,0949922	84,9
     41,6965	   0,0906732	83,0	   0,0958087	85,2
     41,6994	   0,0916092	83,4	    0,096406	85,0
     41,7023	   0,0919465	83,4	   0,0968783	84,8
     41,7053	   0,0922688	83,5	   0,0973568	85,1
     41,7082	   0,0925283	83,8	   0,0979699	85,6
     41,7111	   0,0933533	84,1	   0,0988091	85,3
     41,7141	   0,0934044	84,2	   0,0995157	85,8
      41,717	   0,0944685	84,6	    0,100048	86,1
     41,7199	   0,0948056	84,7	    0,100872	86,8
     41,7229	   0,0955373	84,3	    0,101625	86,5
     41,7258	    0,095935	84,3	    0,102499	87,0
     41,7287	   0,0963696	84,7	    0,103578	87,2
     41,7317	   0,0970596	84,7	    0,105207	87,4
     41,7346	   0,0971258	85,1	    0,106379	87,8
     41,7375	    0,098103	85,3	    0,108561	87,8
     41,7405	   0,0986119	85,5	    0,111056	88,0
     41,7434	   0,0990027	86,2	    0,115528	89,3
     41,7463	   0,0997818	85,9	    0,120216	89,8
     41,7493	    0,100178	86,9	    0,125856	91,0
     41,7522	    0,100746	86,5	    0,131281	92,6
     41,7551	    0,101373	86,5	    0,138167	95,1
     41,7581	    0,101962	86,4	    0,143912	97,3
      41,761	    0,102374	86,9	    0,150855	101,0
     41,7639	    0,103371	87,1	    0,154798	104,5
     41,7669	    0,103622	87,1	    0,161382	105,5
     41,7698	     0,10442	87,2	    0,165931	108,8
     41,7727	    0,104963	88,1	    0,169835	111,5
     41,7757	    0,105904	88,3	    0,174892	113,6
     41,7786	    0,106589	88,5	    0,178259	115,6
     41,7815	     0,10679	88,4	    0,180968	117,9
     41,7845	    0,108172	89,3	    0,182436	120,0
     41,7874	    0,108393	88,7	    0,184648	121,9
     41,7903	    0,109348	89,7	    0,187651	124,1
     41,7933	    0,110507	90,1	    0,189142	125,7
     41,7962	    0,111335	90,4	    0,190284	126,4
     41,7991	    0,111912	89,7	    0,193002	128,3
     41,8021	    0,113081	90,9	    0,193058	130,1
      41,805	    0,113966	91,0	    0,193502	131,6
     41,8079	    0,114897	90,4	    0,195367	132,3
     41,8109	    0,115621	91,2	    0,195809	133,6
     41,8138	    0,116746	91,6	    0,196906	135,0
     41,8167	    0,117444	92,0	    0,197723	135,6
     41,8196	    0,118514	92,8	    0,198307	136,3
     41,8226	    0,120096	93,7	    0,199479	137,6
     41,8255	    0,121769	93,9	    0,199508	138,6
     41,8284	    0,122363	93,6	    0,199937	139,2
     41,8314	    0,123967	94,6	    0,199601	140,0
     41,8343	    0,125199	95,4	    0,200735	141,1
     41,8372	    0,126518	95,6	    0,200472	141,6
     41,8402	    0,127934	96,9	    0,201474	142,6
     41,8431	    0,130162	97,5	    0,201845	143,6
      41,846	    0,132077	98,2	    0,201773	144,1
      41,849	    0,133081	98,9	    0,202032	144,5
     41,8519	    0,135358	99,8	    0,202223	145,7
     41,8548	    0,136663	100,6	    0,202377	146,4
     41,8578	    0,138656	101,7	    0,201891	146,7
     41,8607	    0,141213	102,2	    0,202464	147,6
     41,8636	    0,143319	103,4	    0,202416	148,4
     41,8666	    0,144836	105,2	    0,202365	148,5
     41,8695	    0,149114	106,2	    0,202595	148,9
     41,8724	    0,152838	107,6	    0,202734	149,7
     41,8754	    0,153974	109,3	    0,202817	150,1
     41,8783	    0,157198	111,2	     0,20214	150,5
     41,8812	      0,1609	112,8	    0,202515	150,9
     41,8842	    0,163372	115,3	    0,202376	151,8
     41,8871	    0,168001	118,4	    0,202695	151,7
       41,89	    0,172097	121,1	    0,202148	152,7
      41,893	    0,176562	123,4	    0,202211	153,3
     41,8959	    0,180908	126,4	    0,202485	153,4
     41,8988	      0,1844	129,9	    0,201962	153,4
     41,9018	     0,18839	133,9	    0,202113	154,1
     41,9047	      0,1906	136,7	    0,202202	155,1
     41,9076	    0,193847	140,3	    0,201997	155,0
     41,9106	    0,196406	143,0	    0,201729	156,0
     41,9135	    0,200131	146,8	    0,201593	155,8
     41,9164	    0,201719	149,1	    0,201667	156,3
     41,9194	    0,201801	151,5	    0,201114	157,2
     41,9223	    0,202564	152,9	    0,201978	157,9
     41,9252	    0,202902	155,2	    0,201188	157,5
     41,9282	    0,203342	157,1	    0,201417	158,6
     41,9311	    0,203184	156,9	    0,201296	159,1
      41,934	    0,203732	158,1	    0,200744	158,7
      41,937	    0,203258	158,8	    0,200616	159,8
     41,9399	    0,203543	159,2	    0,200393	160,2
     41,9428	    0,202144	159,8	    0,200195	160,0
     41,9457	    0,202108	160,3	    0,199854	159,9
     41,9487	    0,201437	160,0	    0,199986	161,1
     41,9516	    0,200981	160,9	    0,199462	160,7
     41,9545	    0,201257	161,2	    0,199068	161,1
     41,9575	    0,200361	161,1	    0,198947	162,1
     41,9604	    0,200538	161,5	    0,198617	162,0
     41,9633	    0,201517	162,1	    0,198438	162,0
     41,9663	    0,199742	162,5	    0,198144	163,1
     41,9692	    0,199479	163,0	    0,198269	162,9
     41,9721	    0,199557	163,3	    0,197668	163,5
     41,9751	    0,199168	163,4	    0,198521	164,4
      41,978	    0,199128	163,7	    0,197639	164,0
     41,9809	    0,198642	164,6	    0,197353	165,0
     41,9839	    0,198387	164,6	    0,197127	165,2
     41,9868	    0,198603	164,3	    0,197042	164,9
     41,9897	    0,197861	165,3	    0,197054	165,4
     41,9927	    0,198291	165,2	    0,196825	166,0
     41,9956	    0,197434	166,1	    0,196753	165,6
     41,9985	    0,197152	166,3	    0,196542	165,9
     42,0015	    0,197506	166,3	    0,195383	166,9
     42,0044	     0,19693	166,5	    0,195477	166,8
     42,0073	    0,196291	167,2	    0,195208	167,6
     42,0103	    0,196113	167,0	    0,194622	167,7
     42,0132	    0,195652	167,9	     0,19477	167,4
     42,0161	    0,195328	168,0	    0,194249	168,4
     42,0191	    0,195139	167,8	     0,19355	168,6
      42,022	    0,195009	168,5	    0,193486	168,0
     42,0249	    0,194003	168,6	     0,19339	169,0
     42,0279	    0,193859	168,3	    0,193428	169,3
     42,0308	    0,193985	169,0	    0,193079	169,5
     42,0337	    0,193378	169,4	    0,193049	169,6
     42,0367	    0,194108	169,3	    0,192758	169,9
     42,0396	    0,192621	170,4	    0,192322	169,8
     42,0425	    0,192414	169,9	    0,191471	170,4
     42,0455	    0,192422	170,0	    0,191733	170,7
     42,0484	    0,191562	170,9	    0,191144	170,3
     42,0513	    0,191584	170,9	    0,190709	171,5
     42,0543	    0,191813	171,8	    0,191382	171,2
     42,0572	    0,191462	171,7	    0,190183	171,7
     42,0601	    0,190973	171,5	    0,189697	172,2
      42,063	    0,190863	172,3	    0,189528	171,8
      42,066	    0,190548	172,8	    0,189343	172,5
     42,0689	    0,189751	172,5	    0,189422	172,9
     42,0718	     0,18906	173,5	    0,189259	172,7
     42,0748	    0,188816	173,6	    0,188994	173,3
     42,0777	     0,18881	173,3	    0,188369	173,8
     42,0806	    0,188385	174,1	    0,187703	173,3
     42,0836	    0,188199	174,0	    0,187118	174,1
     42,0865	     0,18817	174,0	    0,187733	173,9
     42,0894	    0,187789	174,9	    0,187634	173,7
     42,0924	     0,18718	174,7	    0,186286	174,6
     42,0953	    0,187019	175,4	    0,186685	174,5
     42,0982	    0,186133	175,2	    0,186054	174,8
     42,1012	      0,1866	175,3	    0,185543	175,6
     42,1041	    0,185491	176,2	    0,185471	175,3
      42,107	     0,18523	175,7	    0,185555	176,2
       42,11	    0,185286	176,1	    0,184911	176,4
     42,1129	    0,184775	176,4	    0,185149	176,6
     42,1158	     0,18454	176,7	    0,184588	176,6
     42,1188	    0,184987	177,0	    0,184054	177,0
     42,1217	    0,184577	177,3	    0,183655	176,8
     42,1246	    0,184086	176,9	    0,183791	177,7
     42,1276	    0,183151	177,6	    0,182935	177,5
     42,1305	    0,183111	178,1	    0,182783	177,2
     42,1334	    0,182775	177,9	    0,182271	178,7
     42,1364	    0,182456	178,5	    0,181994	178,0
     42,1393	     0,18171	178,2	    0,181574	178,9
     42,1422	    0,181559	178,6	    0,181917	178,7
     42,1452	    0,180832	179,2	    0,181854	178,6
     42,1481	    0,180595	178,8	    0,181082	179,3
      42,151	    0,180725	179,6	    0,181094	179,2
      42,154	    0,181218	179,2	    0,180464	179,7
     42,1569	    0,181012	179,6	    0,179782	180,4
     42,1598	    0,179532	180,2	    0,179474	179,8
     42,1628	    0,178997	179,8	    0,179485	180,4
     42,1657	    0,178439	180,8	    0,179383	180,6
     42,1686	    0,178646	180,5	    0,178442	180,2
     42,1716	    0,177293	180,5	    0,178499	180,9
     42,1745	    0,177927	181,3	    0,178336	180,8
     42,1774	    0,177359	181,3	    0,177663	181,0
     42,1804	    0,177519	181,9	     0,17747	181,0
     42,1833	    0,176138	182,0	    0,177292	181,1
     42,1862	    0,177498	181,7	    0,176759	182,0
     42,1891	    0,176533	182,6	    0,176635	181,5
     42,1921	    0,175937	182,4	    0,176212	181,5
      42,195	    0,175616	182,5	    0,176269	182,0
     42,1979	    0,174792	183,1	    0,175367	182,1
     42,2009	    0,174525	182,9	    0,175332	182,2
     42,2038	     0,17474	183,3	    0,175155	182,9
     42,2067	    0,173774	183,3	    0,174945	182,8
     42,2097	    0,173864	183,2	    0,173801	183,8
     42,2126	    0,173685	183,7	    0,173559	183,6
     42,2155	    0,172777	183,6	    0,173272	183,6
     42,2185	    0,172419	183,6	     0,17256	184,4
     42,2214	    0,172733	184,1	    0,172822	184,2
     42,2243	    0,172916	183,9	    0,172571	185,0
     42,2273	    0,171673	184,5	    0,172446	184,1
     42,2302	     0,17181	184,9	    0,171397	184,7
     42,2331	    0,170883	184,6	    0,171442	185,3
     42,2361	    0,170712	185,3	    0,171185	185,0
      42,239	    0,170543	185,1	    0,170615	185,7
     42,2419	    0,169908	185,8	     0,17049	185,1
     42,2449	    0,170785	185,9	    0,170045	185,4
     42,2478	    0,169943	186,1	    0,169769	185,9
     42,2507	    0,168867	186,4	    0,169301	185,7
     42,2537	    0,169019	186,4	    0,169279	186,2
     42,2566	    0,167812	186,6	    0,168895	185,7
     42,2595	    0,168343	185,9	    0,168619	186,8
     42,2625	    0,167559	187,1	    0,168322	187,0
     42,2654	    0,167053	187,1	    0,168598	186,4
     42,2683	    0,166491	187,0	    0,167181	187,6
     42,2713	    0,166963	187,2	    0,167101	187,1
     42,2742	    0,165862	187,0	    0,167139	188,0
     42,2771	     0,16655	187,8	    0,166146	188,0
     42,2801	    0,165303	187,9	    0,166781	187,6
      42,283	    0,165299	188,3	    0,165652	188,8
     42,2859	    0,164558	188,2	    0,165476	187,7
     42,2889	    0,163855	188,0	    0,165053	188,6
     42,2918	    0,163802	189,2	    0,164993	188,1
     42,2947	    0,163524	188,7	    0,165303	188,6
     42,2977	    0,162805	189,6	    0,164198	189,1
     42,3006	    0,162783	189,5	    0,164234	188,5
     42,3035	    0,163658	189,2	    0,163353	188,9
     42,3064	    0,162479	189,8	    0,163258	189,2
     42,3094	     0,16254	189,2	    0,163485	188,9
     42,3123	    0,161705	189,9	    0,162483	189,6
     42,3153	    0,161102	190,3	    0,161424	189,8
     42,3182	    0,161415	189,8	    0,161587	190,0
     42,3211	    0,160608	190,4	     0,16144	189,9
      42,324	    0,160012	190,3	    0,161541	190,7
      42,327	     0,15987	191,0	    0,160949	190,5
     42,3299	     0,15916	190,7	    0,161026	190,8
     42,3328	    0,159038	190,5	    0,160032	191,2
     42,3358	    0,158766	191,1	    0,159927	190,9
     42,3387	    0,158698	191,5	    0,159192	191,3
     42,3416	    0,157798	191,6	    0,159518	191,0
     42,3446	    0,158411	191,5	    0,159218	191,3
     42,3475	     0,15724	192,0	    0,158139	191,6
     42,3504	    0,156651	191,7	    0,158597	191,6
     42,3534	    0,156121	192,0	    0,157548	192,3
     42,3563	     0,15614	191,9	    0,158036	192,3
     42,3592	    0,156668	192,0	    0,157211	192,5
     42,3622	    0,155858	192,5	    0,157313	192,9
     42,3651	    0,155416	192,4	    0,156831	192,8
      42,368	    0,155713	193,4	    0,155606	193,5
      42,371	     0,15561	193,2	    0,156138	192,8
     42,3739	    0,154235	193,7	    0,154408	193,2
     42,3768	    0,154024	193,4	     0,15506	192,6
     42,3798	    0,153351	193,5	    0,154185	193,7
     42,3827	    0,153142	194,1	    0,154069	193,4
     42,3856	    0,153053	193,6	    0,154208	193,8
     42,3886	    0,152048	194,5	    0,153139	193,7
     42,3915	    0,152692	193,6	     0,15347	194,5
     42,3944	    0,151734	194,0	    0,152384	195,0
     42,3974	     0,15166	194,3	    0,153192	194,5
     42,4003	    0,151344	194,1	    0,152916	195,1
     42,4032	    0,151129	195,2	    0,152693	194,6
     42,4062	    0,150417	195,2	    0,151519	195,0
     42,4091	    0,150005	195,5	    0,151184	195,1
      42,412	    0,149382	195,2	    0,151451	195,0
      42,415	    0,149409	195,9	    0,150929	195,1
     42,4179	    0,150288	195,2	    0,150821	195,3
     42,4208	    0,148543	195,2	    0,149735	195,7
     42,4238	    0,148379	195,7	    0,149831	195,6
     42,4267	    0,148388	195,6	    0,149136	196,6
     42,4296	     0,14828	196,1	    0,149604	196,1
     42,4326	    0,147698	197,0	     0,14897	196,9
     42,4355	    0,146641	196,9	    0,148188	196,4
     42,4384	     0,14664	196,5	    0,147456	196,5
     42,4413	    0,146818	197,0	    0,147175	197,3
     42,4443	     0,14681	196,6	    0,147745	196,6
     42,4472	    0,145918	196,9	    0,147382	197,0
     42,4501	     0,14555	196,9	    0,147094	197,0
     42,4531	    0,144516	197,4	    0,146206	197,8
      42,456	    0,144329	197,4	    0,146427	197,7
     42,4589	    0,144245	197,4	    0,145564	197,7
     42,4619	    0,143575	198,4	    0,145052	197,7
     42,4648	    0,144349	198,0	    0,145647	198,1
     42,4677	    0,143939	198,5	    0,144371	197,8
     42,4707	    0,143473	197,9	    0,144727	198,0
     42,4736	    0,142909	198,6	    0,143201	198,3
     42,4765	    0,143559	198,1	    0,144118	198,2
     42,4795	    0,141891	199,0	    0,143683	198,6
     42,4824	    0,142549	198,6	     0,14385	198,9
     42,4853	    0,141284	198,8	    0,143007	198,9
     42,4883	    0,140657	199,3	    0,142936	199,4
     42,4912	    0,140517	199,8	    0,142743	199,5
     42,4941	    0,140472	199,5	    0,142048	199,1
     42,4971	    0,140207	199,3	    0,141655	199,3
        42,5	    0,139789	-160,0	    0,141342	199,4
     42,5029	    0,139716	-160,8	    0,141446	199,5
     42,5059	    0,140342	-160,3	    0,141015	-160,0
     42,5088	    0,139842	-160,1	    0,140475	-160,3
     42,5117	     0,13834	-159,1	    0,138919	-159,5
     42,5147	    0,137593	-159,4	    0,140063	-159,5
     42,5176	    0,137417	-159,1	    0,138544	-159,4
     42,5205	    0,137454	-160,0	    0,139507	-159,7
     42,5235	    0,136774	-158,8	    0,138161	-159,0
     42,5264	    0,136374	-159,3	    0,138473	-159,4
     42,5293	    0,136391	-158,4	    0,137069	-158,8
     42,5323	    0,136277	-159,1	    0,137535	-158,9
     42,5352	    0,135432	-158,5	    0,137315	-158,7
     42,5381	    0,135194	-158,3	    0,136258	-158,2
     42,5411	    0,134829	-158,0	    0,136934	-158,0
      42,544	    0,135681	-158,7	    0,136257	-158,5
     42,5469	    0,134355	-158,2	    0,136169	-158,3
     42,5499	    0,134871	-158,1	    0,135338	-158,2
     42,5528	    0,133481	-157,9	    0,135712	-158,1
     42,5557	    0,133137	-157,6	     0,13531	-157,7
     42,5587	    0,132717	-157,4	    0,135003	-157,8
     42,5616	    0,133458	-157,9	     0,13414	-157,2
     42,5645	    0,132298	-157,2	    0,134382	-157,3
     42,5674	    0,131952	-156,9	    0,133373	-157,4
     42,5704	    0,132193	-157,2	    0,133622	-157,6
     42,5733	    0,131434	-156,8	    0,133035	-156,7
     42,5762	    0,130426	-157,1	    0,133277	-157,2
     42,5792	     0,13067	-156,5	    0,132672	-156,5
     42,5821	    0,130317	-156,6	    0,132509	-156,7
      42,585	    0,129406	-155,6	    0,131634	-155,7
      42,588	     0,13027	-156,5	    0,131236	-156,1
     42,5909	     0,12964	-156,2	    0,131578	-156,1
     42,5938	    0,129986	-156,1	    0,131224	-156,5
     42,5968	    0,128562	-155,7	    0,130872	-156,3
     42,5997	    0,129459	-155,9	    0,130057	-156,0
     42,6026	    0,127848	-155,0	    0,129994	-155,2
     42,6056	    0,128451	-155,8	     0,12985	-155,7
     42,6085	    0,128037	-155,1	     0,12944	-155,4
     42,6114	    0,128019	-155,6	    0,129055	-155,3
     42,6144	    0,126948	-155,3	     0,12841	-155,3
     42,6173	    0,126737	-155,2	    0,128579	-155,2
     42,6202	    0,126647	-154,3	    0,127735	-154,5
     42,6232	    0,125734	-154,5	     0,12781	-154,7
     42,6261	    0,125432	-154,5	    0,127584	-154,3
      42,629	    0,125765	-154,9	    0,126805	-154,6
      42,632	     0,12476	-154,3	    0,126339	-154,4
     42,6349	    0,124217	-154,3	    0,126591	-154,6
     42,6378	    0,124482	-154,4	    0,126407	-154,6
     42,6408	     0,12487	-154,1	    0,125666	-154,1
     42,6437	    0,123863	-153,9	    0,125539	-153,6
     42,6466	    0,123734	-153,2	    0,125131	-154,0
     42,6496	     0,12292	-153,6	    0,125104	-153,8
     42,6525	    0,123608	-154,0	    0,124354	-153,4
     42,6554	    0,122461	-153,1	    0,124532	-153,8
     42,6584	    0,122469	-153,1	    0,123933	-153,4
     42,6613	    0,121678	-152,6	    0,123837	-153,5
     42,6642	    0,121178	-153,0	    0,123496	-152,8
     42,6672	    0,121304	-153,4	    0,122772	-152,9
     42,6701	    0,120811	-152,9	    0,122251	-153,3
      42,673	    0,120324	-152,7	    0,122389	-153,0
      42,676	    0,120975	-152,6	     0,12093	-152,5
     42,6789	    0,120144	-151,6	    0,121845	-152,5
     42,6818	    0,119787	-152,5	    0,121618	-152,1
     42,6847	    0,119836	-152,1	    0,120772	-152,0
     42,6877	    0,119658	-152,6	    0,120621	-152,4
     42,6906	    0,119432	-151,8	    0,120226	-151,9
     42,6936	    0,118277	-151,6	    0,120263	-152,2
     42,6965	    0,118296	-151,1	    0,120144	-152,0
     42,6994	    0,118012	-151,7	    0,119871	-151,9
     42,7023	    0,118405	-151,8	    0,119449	-151,6
     42,7053	    0,117282	-151,5	    0,119144	-151,5
     42,7082	    0,116888	-151,1	    0,118798	-151,4
     42,7111	    0,117221	-151,5	    0,118625	-151,8
     42,7141	    0,116813	-150,5	    0,118175	-151,0
      42,717	    0,116116	-151,3	    0,117969	-151,2
     42,7199	    0,116554	-151,5	     0,11748	-150,8
     42,7229	    0,115962	-150,9	    0,117275	-151,2
     42,7258	    0,115782	-150,8	    0,116889	-150,9
     42,7287	    0,115533	-150,5	    0,116789	-150,9
     42,7317	     0,11539	-150,7	    0,115703	-150,5
     42,7346	    0,114595	-150,3	    0,116001	-150,7
     42,7375	     0,11477	-150,7	    0,115592	-150,1
     42,7405	    0,113809	-149,9	    0,115498	-150,4
     42,7434	    0,114153	-150,3	     0,11518	-150,2
     42,7463	    0,113444	-149,2	    0,114975	-150,5
     42,7493	    0,113074	-150,2	    0,114481	-149,9
     42,7522	    0,112568	-149,4	    0,114091	-149,5
     42,7551	    0,112608	-150,0	    0,113417	-149,0
     42,7581	    0,112278	-148,9	    0,113483	-149,5
      42,761	    0,111958	-149,3	    0,113017	-149,8
     42,7639	    0,112007	-149,6	    0,112802	-148,9
     42,7669	    0,111493	-149,3	    0,112654	-149,3
     42,7698	    0,111116	-148,9	    0,112467	-149,1
     42,7727	    0,110289	-148,5	    0,112186	-149,4
     42,7757	    0,110933	-149,0	    0,111855	-149,0
     42,7786	    0,110098	-148,4	    0,111706	-149,3
     42,7815	    0,110233	-149,0	     0,11135	-148,6
     42,7845	    0,109741	-148,4	    0,111013	-148,7
     42,7874	    0,109556	-148,8	    0,110647	-148,6
     42,7903	    0,109008	-148,3	    0,110363	-148,7
     42,7933	    0,108134	-147,8	    0,109877	-148,3
     42,7962	    0,108596	-147,9	     0,10976	-148,2
     42,7991	    0,108298	-148,2	    0,109528	-148,1
     42,8021	    0,108186	-148,0	    0,109205	-148,0
      42,805	    0,107557	-147,5	    0,108868	-148,0
     42,8079	    0,107471	-147,4	    0,108638	-148,1
     42,8109	    0,107005	-147,7	    0,108364	-148,0
     42,8138	    0,107129	-147,9	    0,107972	-147,2
     42,8167	    0,106184	-147,4	    0,107724	-147,4
     42,8196	    0,106545	-147,7	    0,107524	-147,2
     42,8226	    0,106167	-146,7	    0,107213	-147,9
     42,8255	    0,105853	-147,3	    0,106821	-147,4
     42,8284	    0,105649	-147,1	    0,106568	-147,4
     42,8314	    0,105376	-147,4	    0,106342	-147,0
     42,8343	    0,105153	-146,8	    0,105964	-147,0
     42,8372	    0,104408	-146,4	    0,105749	-146,9
     42,8402	    0,104624	-147,0	    0,105497	-147,0
     42,8431	    0,103963	-146,3	    0,105141	-146,7
      42,846	    0,104006	-146,8	    0,104792	-146,4
      42,849	    0,103624	-146,3	    0,104567	-146,6
     42,8519	    0,103345	-146,4	    0,104328	-146,2
     42,8548	    0,103087	-145,9	    0,104054	-146,6
     42,8578	    0,102834	-146,4	    0,103707	-146,0
     42,8607	      0,1026	-146,5	    0,103345	-146,0
     42,8636	    0,102296	-145,6	    0,103077	-145,7
     42,8666	    0,102067	-146,2	    0,102899	-146,0
     42,8695	    0,101704	-145,6	     0,10262	-146,2
     42,8724	    0,101421	-146,4	    0,102347	-145,3
     42,8754	    0,100837	-144,6	    0,102019	-145,6
     42,8783	    0,100528	-145,3	    0,101672	-145,3
     42,8812	    0,100513	-145,5	    0,101373	-145,9
     42,8842	    0,100342	-145,6	    0,101136	-145,2
     42,8871	    0,100102	-145,5	    0,100985	-145,2
       42,89	   0,0997957	-144,7	    0,100679	-145,2
      42,893	   0,0995103	-145,2	    0,100339	-145,2
     42,8959	   0,0992877	-145,2	   0,0999844	-145,3
     42,8988	   0,0989714	-145,4	   0,0996854	-144,9
     42,9018	   0,0986918	-144,8	   0,0995016	-144,9
     42,9047	   0,0983388	-144,4	   0,0992647	-144,8
     42,9076	   0,0981921	-145,2	   0,0989937	-144,9
     42,9106	   0,0978347	-144,5	   0,0985834	-144,7
     42,9135	   0,0976512	-145,0	   0,0983983	-144,6
     42,9164	     0,09742	-144,2	   0,0980275	-144,1
     42,9194	   0,0971743	-144,2	   0,0978378	-144,2
     42,9223	   0,0967843	-144,7	   0,0975145	-144,4
     42,9252	   0,0964881	-144,5	   0,0972332	-144,3
     42,9282	   0,0962871	-144,0	    0,096993	-144,2
     42,9311	   0,0961091	-143,7	   0,0966957	-144,0
      42,934	   0,0957936	-144,3	   0,0965938	-144,0
      42,937	   0,0954313	-143,8	   0,0962114	-144,3
     42,9399	   0,0952467	-144,2	   0,0958481	-143,7
     42,9428	   0,0949516	-143,4	   0,0956786	-144,1
     42,9457	   0,0947359	-143,5	   0,0952411	-143,4
     42,9487	   0,0944313	-143,8	   0,0949937	-144,0
     42,9516	   0,0941381	-143,5	   0,0949261	-143,2
     42,9545	   0,0939478	-143,4	   0,0946828	-143,3
     42,9575	   0,0936337	-143,0	   0,0944862	-143,5
     42,9604	   0,0933621	-143,2	   0,0940238	-143,5
     42,9633	   0,0931461	-143,3	   0,0938363	-143,4
     42,9663	   0,0927895	-142,8	   0,0935331	-142,8
     42,9692	   0,0926788	-143,0	   0,0932496	-143,0
     42,9721	   0,0924056	-142,5	   0,0929839	-142,5
     42,9751	   0,0921275	-143,2	   0,0929442	-143,0
      42,978	   0,0917957	-142,9	   0,0925241	-142,9
     42,9809	   0,0914373	-142,5	   0,0922512	-142,2
     42,9839	   0,0914177	-143,1	   0,0919007	-142,5
     42,9868	   0,0910884	-142,5	   0,0916814	-142,3
     42,9897	   0,0907668	-142,7	   0,0914773	-142,8
     42,9927	    0,090634	-142,0	   0,0912809	-142,2
     42,9956	   0,0903973	-142,4	   0,0909535	-142,3
     42,9985	   0,0901662	-142,5	   0,0907017	-142,1
     43,0015	   0,0897992	-141,9	   0,0904045	-142,2
     43,0044	   0,0895103	-141,9	   0,0902059	-142,0
     43,0073	   0,0892997	-141,9	   0,0899617	-141,7
     43,0103	   0,0891572	-142,0	   0,0896683	-142,1
     43,0132	   0,0888314	-142,1	   0,0893511	-141,9
     43,0161	   0,0886221	-141,2	   0,0890777	-141,8
     43,0191	   0,0883342	-141,6	   0,0889163	-141,6
      43,022	   0,0880715	-141,8	    0,088594	-141,3
     43,0249	   0,0878651	-141,8	     0,08839	-142,0
     43,0279	   0,0875558	-141,2	   0,0881594	-141,5
     43,0308	   0,0872876	-141,2	    0,087932	-141,3
     43,0337	   0,0870973	-141,5	   0,0876219	-141,0
     43,0367	   0,0868784	-141,2	   0,0873546	-141,2
     43,0396	   0,0866319	-140,9	   0,0871176	-141,5
     43,0425	   0,0863798	-141,2	   0,0869885	-140,9
     43,0455	   0,0861549	-141,1	    0,086718	-140,8
     43,0484	   0,0858995	-140,7	   0,0864802	-140,9
     43,0513	   0,0855043	-140,4	   0,0861733	-140,7
     43,0543	   0,0853858	-140,7	   0,0859801	-140,8
     43,0572	   0,0851623	-140,9	    0,085693	-140,8
     43,0601	   0,0849122	-140,2	   0,0854344	-140,8
      43,063	   0,0847105	-140,5	   0,0851689	-140,8
      43,066	   0,0844223	-140,3	   0,0849341	-139,9
     43,0689	    0,084301	-140,5	   0,0848204	-140,5
     43,0718	   0,0839544	-140,3	   0,0845876	-140,6
     43,0748	   0,0837182	-139,9	   0,0842192	-140,9
     43,0777	   0,0834717	-140,4	   0,0840192	-140,3
     43,0806	   0,0831888	-140,3	    0,083693	-139,8
     43,0836	   0,0829387	-139,7	   0,0835241	-140,5
     43,0865	   0,0828587	-140,2	   0,0833208	-140,1
     43,0894	   0,0825839	-139,8	   0,0830628	-140,1
     43,0924	   0,0823147	-139,8	   0,0828037	-139,7
     43,0953	   0,0820038	-139,7	    0,082615	-139,9
     43,0982	   0,0818306	-139,8	   0,0823185	-140,2
     43,1012	   0,0815799	-140,1	   0,0820908	-139,3
     43,1041	   0,0813507	-139,4	   0,0818216	-139,6
      43,107	   0,0811671	-139,3	   0,0816209	-140,2
       43,11	   0,0809076	-139,2	   0,0813896	-139,2
     43,1129	    0,080695	-139,4	   0,0811909	-139,1
     43,1158	   0,0804818	-139,3	   0,0809852	-139,4
     43,1188	   0,0802692	-139,4	   0,0807277	-139,3
     43,1217	    0,079992	-139,2	     0,08049	-139,3
     43,1246	   0,0798455	-139,6	   0,0802319	-138,6
     43,1276	   0,0795325	-138,6	   0,0800564	-139,4
     43,1305	   0,0793722	-138,8	   0,0798364	-139,5
     43,1334	   0,0790982	-139,3	   0,0795053	-138,3
     43,1364	   0,0788982	-138,7	   0,0794126	-138,9
     43,1393	   0,0786734	-138,7	   0,0791469	-139,0
     43,1422	   0,0786083	-138,9	   0,0788875	-138,6
     43,1452	   0,0783699	-138,5	    0,078807	-138,8
     43,1481	   0,0780798	-138,2	   0,0785956	-138,9
      43,151	   0,0777639	-138,3	   0,0781295	-139,2
      43,154	   0,0776254	-138,6	   0,0780211	-138,5
     43,1569	   0,0774234	-138,2	   0,0777896	-138,1
     43,1598	   0,0771299	-137,7	   0,0776716	-138,7
     43,1628	   0,0769916	-138,3	   0,0773216	-138,5
     43,1657	   0,0768718	-138,4	   0,0770521	-137,9
     43,1686	   0,0765048	-137,9	   0,0769814	-138,6
     43,1716	   0,0763716	-138,0	    0,076768	-138,2
     43,1745	   0,0759564	-138,0	   0,0764905	-137,9
     43,1774	   0,0758792	-138,0	   0,0761722	-137,8
     43,1804	   0,0758208	-138,0	   0,0760391	-137,7
     43,1833	   0,0755428	-137,8	    0,075888	-138,0
     43,1862	   0,0752824	-137,7	   0,0756482	-137,5
     43,1891	   0,0751128	-137,6	   0,0754515	-137,7
     43,1921	   0,0747952	-137,6	   0,0751891	-138,2
      43,195	   0,0746775	-137,7	    0,075018	-137,4
     43,1979	   0,0745306	-137,4	   0,0748099	-137,4
     43,2009	   0,0742613	-136,8	    0,074606	-138,3
     43,2038	    0,074004	-137,5	   0,0743411	-137,5
     43,2067	   0,0737923	-137,3	   0,0741613	-137,4
     43,2097	   0,0735706	-136,9	   0,0739204	-137,6
     43,2126	   0,0734019	-137,7	   0,0738079	-137,2
     43,2155	   0,0732445	-137,2	   0,0735786	-137,6
     43,2185	   0,0730014	-136,8	   0,0733625	-136,8
     43,2214	   0,0728412	-137,3	   0,0731323	-137,1
     43,2243	   0,0725359	-137,3	   0,0729049	-137,1
     43,2273	   0,0724059	-137,2	   0,0726676	-136,7
     43,2302	     0,07224	-137,0	   0,0724764	-137,0
     43,2331	   0,0718722	-136,8	   0,0723191	-137,4
     43,2361	   0,0718196	-136,9	   0,0721822	-136,5
      43,239	   0,0716861	-136,4	   0,0718397	-136,9
     43,2419	   0,0713117	-136,4	   0,0716568	-137,2
     43,2449	   0,0712202	-137,0	   0,0714642	-136,3
     43,2478	   0,0709708	-136,5	   0,0713851	-136,7
     43,2507	     0,07078	-136,3	    0,071252	-136,8
     43,2537	   0,0706521	-137,0	   0,0709008	-136,7
     43,2566	   0,0704759	-136,4	   0,0706635	-136,5
     43,2595	    0,070156	-135,9	   0,0705102	-136,5
     43,2625	   0,0699782	-136,7	   0,0701447	-136,4
     43,2654	   0,0697385	-136,2	   0,0700705	-136,2
     43,2683	   0,0695941	-135,9	    0,069892	-136,0
     43,2713	   0,0695846	-136,5	   0,0696721	-136,3
     43,2742	   0,0692238	-135,9	   0,0694963	-136,3
     43,2771	   0,0689943	-135,7	   0,0693595	-136,1
     43,2801	   0,0689334	-136,3	   0,0691811	-136,0
      43,283	   0,0687753	-136,1	   0,0690159	-136,5
     43,2859	   0,0684822	-135,3	   0,0687399	-135,8
     43,2889	    0,068285	-135,7	   0,0685605	-135,8
     43,2918	    0,068054	-135,7	   0,0684315	-136,1
     43,2947	    0,067851	-135,3	   0,0682117	-135,5
     43,2977	   0,0677598	-135,7	   0,0679544	-135,8
     43,3006	   0,0675541	-135,6	   0,0678337	-135,8
     43,3035	   0,0673306	-135,6	   0,0675867	-135,6
     43,3064	   0,0671865	-135,4	   0,0673513	-135,5
     43,3094	   0,0669453	-135,3	   0,0673465	-136,2
     43,3123	   0,0668494	-135,7	   0,0670739	-135,4
     43,3153	   0,0666122	-135,1	   0,0668684	-135,4
     43,3182	   0,0664089	-135,3	   0,0667518	-135,8
     43,3211	   0,0661956	-134,8	   0,0665001	-135,3
      43,324	   0,0660361	-135,1	   0,0663408	-135,1
      43,327	   0,0658543	-135,3	   0,0662103	-135,9
     43,3299	    0,065841	-135,1	   0,0658997	-135,1
     43,3328	   0,0656339	-135,1	   0,0657374	-135,0
     43,3358	   0,0653039	-134,6	   0,0656899	-135,5
     43,3387	   0,0651731	-134,9	    0,065389	-135,0
     43,3416	   0,0650142	-135,0	   0,0651838	-134,9
     43,3446	   0,0647598	-134,4	     0,06503	-135,5
     43,3475	   0,0646096	-135,1	   0,0648248	-134,9
     43,3504	   0,0645205	-134,8	   0,0647118	-134,7
     43,3534	   0,0642981	-134,5	   0,0645669	-135,4
     43,3563	    0,064049	-134,8	    0,064304	-134,8
     43,3592	    0,063977	-134,4	   0,0641285	-134,4
     43,3622	   0,0638128	-134,4	   0,0641046	-135,1
     43,3651	   0,0634724	-134,6	   0,0639291	-135,0
      43,368	   0,0634292	-134,6	   0,0636193	-134,3
      43,371	    0,063248	-134,7	   0,0634675	-135,0
     43,3739	   0,0631581	-134,5	   0,0632455	-134,7
     43,3768	   0,0629192	-134,8	   0,0631449	-133,9
     43,3798	   0,0627544	-134,1	   0,0628876	-134,9
     43,3827	   0,0625293	-134,2	   0,0627275	-134,6
     43,3856	   0,0624389	-134,0	   0,0625286	-134,0
     43,3886	   0,0621538	-134,0	   0,0624708	-134,5
     43,3915	   0,0620785	-134,1	   0,0622462	-134,5
     43,3944	   0,0618832	-134,4	   0,0620676	-134,2
     43,3974	   0,0617665	-134,1	   0,0619738	-134,3
     43,4003	   0,0616332	-134,0	   0,0617163	-134,5
     43,4032	   0,0614021	-134,1	   0,0615568	-133,9
     43,4062	   0,0613132	-133,9	   0,0613162	-134,1
     43,4091	   0,0610063	-134,1	   0,0612822	-134,4
      43,412	   0,0608882	-133,5	   0,0610745	-133,7
      43,415	    0,060834	-134,1	   0,0608804	-134,1
     43,4179	   0,0606345	-134,1	   0,0607118	-134,1
     43,4208	   0,0604551	-133,6	   0,0605907	-134,0
     43,4238	   0,0603241	-133,8	   0,0604025	-133,8
     43,4267	   0,0600989	-134,1	   0,0602615	-133,8
     43,4296	   0,0599324	-133,3	   0,0601501	-133,8
     43,4326	   0,0597675	-133,7	   0,0598218	-133,7
     43,4355	   0,0596679	-134,1	   0,0598092	-133,7
     43,4384	   0,0595814	-133,3	   0,0595555	-134,0
     43,4413	   0,0593509	-133,3	   0,0594363	-133,7
     43,4443	   0,0590423	-133,3	   0,0593558	-133,9
     43,4472	   0,0589711	-132,9	   0,0591578	-133,9
     43,4501	   0,0588136	-133,3	   0,0588946	-133,8
     43,4531	   0,0587321	-133,6	   0,0587042	-133,0
      43,456	   0,0584998	-133,3	   0,0586394	-133,4
     43,4589	   0,0583825	-133,1	   0,0585914	-133,8
     43,4619	   0,0582442	-133,7	   0,0582654	-133,0
     43,4648	   0,0580806	-133,0	    0,058039	-133,3
     43,4677	   0,0578928	-133,0	    0,058048	-133,8
     43,4707	   0,0577606	-132,9	    0,057885	-133,0
     43,4736	   0,0576826	-133,4	   0,0577201	-133,4
     43,4765	   0,0574511	-133,2	   0,0574611	-133,3
     43,4795	   0,0573306	-133,1	   0,0574414	-132,6
     43,4824	   0,0571585	-133,0	   0,0572608	-133,3
     43,4853	   0,0569426	-133,1	   0,0571267	-133,2
     43,4883	   0,0568359	-132,5	   0,0569073	-133,1
     43,4912	   0,0567434	-132,9	   0,0567272	-133,0
     43,4941	   0,0565751	-133,0	   0,0565763	-133,0
     43,4971	   0,0563899	-132,4	     0,05636	-133,2
        43,5	   0,0563427	-133,1	   0,0563131	-132,8

