X-Data [Hz]	Laser (M - Filtered) [m/s]	Phase [Deg]	Laser (M - Filtered) [m/s]	Phase [Deg]	
	002: [07-10-24 09:58]		003: [07-10-24 10:01]	
        41,5	    0,020418	78,3	   0,0221418	78,1
      41,502	   0,0206748	77,7	   0,0222621	76,9
     41,5039	   0,0210012	79,3	   0,0223005	77,6
     41,5059	   0,0216088	78,7	    0,022394	77,5
     41,5078	   0,0218957	78,4	    0,022417	78,1
     41,5098	   0,0219842	76,9	   0,0223973	77,0
     41,5117	   0,0220904	77,4	   0,0223503	76,7
     41,5137	   0,0222336	78,3	   0,0224032	78,0
     41,5156	   0,0222287	78,0	   0,0225633	77,3
     41,5176	   0,0222268	78,2	   0,0226982	78,4
     41,5196	    0,022285	77,1	   0,0226911	77,7
     41,5215	   0,0222771	77,3	   0,0226446	78,4
     41,5235	   0,0224004	77,9	   0,0225687	78,2
     41,5254	   0,0224906	78,9	    0,022681	78,0
     41,5274	   0,0225026	79,1	   0,0227022	78,6
     41,5293	   0,0224536	78,2	   0,0227351	77,7
     41,5313	   0,0225426	79,0	   0,0227463	77,6
     41,5332	   0,0226522	78,0	   0,0228206	77,7
     41,5352	    0,022745	79,0	    0,022838	77,8
     41,5371	   0,0227076	78,6	   0,0228313	78,4
     41,5391	   0,0226365	77,3	   0,0228972	78,0
     41,5411	   0,0226126	78,3	   0,0230144	77,6
      41,543	   0,0228426	77,7	   0,0230612	77,1
      41,545	   0,0228642	78,0	   0,0231031	77,0
     41,5469	   0,0228337	78,2	   0,0231628	79,0
     41,5489	   0,0228522	77,9	    0,023202	78,9
     41,5508	   0,0229195	78,4	   0,0232346	78,6
     41,5528	   0,0229787	77,8	   0,0232729	78,0
     41,5547	    0,023013	79,5	   0,0232634	77,7
     41,5567	   0,0230622	79,1	   0,0233006	79,1
     41,5587	   0,0231029	79,0	   0,0233148	78,5
     41,5606	   0,0231175	78,5	    0,023395	79,4
     41,5626	   0,0231653	78,1	   0,0234827	77,4
     41,5645	   0,0232234	78,1	   0,0234883	78,1
     41,5665	   0,0232372	78,0	   0,0235578	77,9
     41,5684	   0,0232347	78,6	    0,023639	77,7
     41,5704	   0,0233124	78,8	   0,0236414	79,2
     41,5723	   0,0233265	78,1	    0,023576	78,2
     41,5743	   0,0233709	78,7	   0,0235852	79,1
     41,5762	   0,0233374	78,2	   0,0236623	78,5
     41,5782	   0,0234981	80,0	   0,0237749	78,6
     41,5802	   0,0235248	78,8	   0,0238436	79,0
     41,5821	   0,0234736	78,8	   0,0238575	78,5
     41,5841	   0,0235239	79,2	   0,0238894	78,6
      41,586	   0,0235697	78,6	   0,0239106	78,3
      41,588	   0,0235992	79,4	   0,0239013	79,0
     41,5899	    0,023745	78,7	   0,0239572	79,2
     41,5919	   0,0237543	78,8	    0,024018	79,1
     41,5938	   0,0237705	78,1	   0,0240892	79,1
     41,5958	   0,0238355	78,1	   0,0241292	77,9
     41,5978	   0,0239887	80,0	   0,0240741	79,5
     41,5997	   0,0240009	78,7	   0,0241617	79,0
     41,6017	   0,0240299	78,7	   0,0242752	78,7
     41,6036	   0,0239185	78,8	   0,0243635	79,3
     41,6056	   0,0238993	78,6	   0,0243573	79,0
     41,6075	   0,0239699	79,6	   0,0244063	79,8
     41,6095	   0,0241318	79,2	   0,0243832	79,0
     41,6114	   0,0242312	79,6	    0,024459	79,8
     41,6134	   0,0242035	80,5	   0,0245303	80,6
     41,6153	   0,0241735	79,1	   0,0245377	79,2
     41,6173	    0,024232	78,9	   0,0246501	79,4
     41,6193	   0,0243346	78,8	   0,0247478	79,1
     41,6212	   0,0244369	79,6	      0,0248	79,9
     41,6232	   0,0244794	79,4	    0,024807	78,6
     41,6251	    0,024518	79,1	   0,0248058	79,1
     41,6271	   0,0244835	79,7	   0,0248274	79,9
      41,629	   0,0244645	78,5	   0,0247765	79,0
      41,631	   0,0245594	78,7	   0,0248357	80,0
     41,6329	   0,0246497	79,1	   0,0249412	79,4
     41,6349	   0,0246453	78,7	   0,0251537	80,1
     41,6369	   0,0246663	79,9	   0,0251819	81,1
     41,6388	   0,0247011	78,5	   0,0250831	78,7
     41,6408	   0,0247715	80,1	   0,0251242	79,5
     41,6427	   0,0248453	79,4	   0,0251679	79,9
     41,6447	   0,0249014	80,5	   0,0251944	79,5
     41,6466	   0,0249387	80,7	   0,0252737	80,2
     41,6486	   0,0249221	79,2	   0,0254043	79,9
     41,6505	   0,0249761	79,7	   0,0253447	79,6
     41,6525	   0,0251255	79,1	   0,0254288	79,0
     41,6544	   0,0251959	79,9	   0,0254088	79,1
     41,6564	   0,0251571	79,5	   0,0254208	80,5
     41,6584	   0,0250397	79,4	   0,0254777	80,1
     41,6603	   0,0251631	80,4	   0,0255743	80,7
     41,6623	   0,0253793	79,6	   0,0256373	80,1
     41,6642	   0,0254832	79,1	   0,0257782	79,7
     41,6662	   0,0255383	80,4	   0,0256883	80,9
     41,6681	   0,0255421	79,8	   0,0259098	79,5
     41,6701	   0,0254878	80,6	   0,0259375	80,8
      41,672	   0,0255487	80,6	    0,025885	80,2
      41,674	   0,0255426	79,7	   0,0258888	79,8
      41,676	   0,0256146	80,7	   0,0259909	79,9
     41,6779	   0,0257221	80,4	   0,0260803	79,5
     41,6799	   0,0257736	81,2	   0,0261472	81,7
     41,6818	    0,025845	80,0	   0,0261709	81,4
     41,6838	   0,0258759	80,3	   0,0262231	80,6
     41,6857	    0,025968	79,9	   0,0262257	81,9
     41,6877	   0,0258927	79,5	   0,0262561	80,5
     41,6896	   0,0259767	81,5	   0,0262329	81,1
     41,6916	   0,0261028	81,3	   0,0263666	80,7
     41,6936	    0,026181	80,3	   0,0265831	80,9
     41,6955	   0,0262231	80,7	   0,0266778	81,5
     41,6975	   0,0261608	80,2	   0,0265893	80,2
     41,6994	   0,0262307	80,4	   0,0266369	80,1
     41,7014	   0,0262926	80,7	   0,0266809	80,8
     41,7033	   0,0264141	80,3	   0,0268043	79,9
     41,7053	   0,0264995	81,6	   0,0269014	81,6
     41,7072	   0,0263922	79,8	   0,0268722	81,1
     41,7092	   0,0264408	80,4	   0,0269409	81,2
     41,7111	    0,026457	80,7	   0,0270077	81,2
     41,7131	   0,0265225	80,9	   0,0269733	80,3
     41,7151	   0,0265633	82,0	   0,0271118	81,5
      41,717	   0,0266575	81,9	   0,0271483	80,9
      41,719	    0,026917	81,3	    0,027283	80,9
     41,7209	   0,0269649	81,8	   0,0273595	81,1
     41,7229	   0,0269881	79,7	   0,0273296	80,4
     41,7248	   0,0269716	81,5	   0,0273702	82,3
     41,7268	   0,0270143	81,1	    0,027384	81,4
     41,7287	    0,027061	81,3	   0,0274988	81,5
     41,7307	   0,0271237	81,0	   0,0275561	82,1
     41,7327	   0,0271159	80,4	   0,0275997	80,9
     41,7346	   0,0271948	81,6	     0,02762	82,0
     41,7366	   0,0272314	81,5	   0,0276468	81,0
     41,7385	   0,0273166	82,2	   0,0277457	80,4
     41,7405	   0,0274834	82,7	   0,0278055	81,0
     41,7424	   0,0275562	82,3	   0,0277794	82,1
     41,7444	   0,0275812	81,0	   0,0278883	81,5
     41,7463	   0,0275144	82,8	    0,028017	82,4
     41,7483	   0,0275808	80,6	   0,0280778	81,3
     41,7502	   0,0276349	81,1	   0,0280949	82,1
     41,7522	   0,0277838	81,5	   0,0281923	81,7
     41,7542	    0,027704	82,0	   0,0283321	82,2
     41,7561	   0,0277489	82,8	   0,0283501	82,5
     41,7581	   0,0278812	81,8	   0,0284504	81,3
       41,76	   0,0280503	82,3	   0,0284679	81,6
      41,762	   0,0280605	81,9	   0,0285071	81,8
     41,7639	   0,0280547	82,1	   0,0284951	81,3
     41,7659	   0,0281102	83,2	   0,0285351	83,2
     41,7678	   0,0281937	81,7	   0,0285934	82,1
     41,7698	   0,0283065	81,8	     0,02878	83,1
     41,7718	   0,0283896	81,5	   0,0289336	83,5
     41,7737	   0,0284002	81,1	   0,0289394	81,4
     41,7757	   0,0284716	83,1	   0,0289964	82,0
     41,7776	   0,0285214	82,3	   0,0290051	81,6
     41,7796	   0,0284955	82,8	   0,0290963	81,7
     41,7815	    0,028512	84,0	   0,0291778	83,4
     41,7835	   0,0286306	81,0	   0,0291742	83,7
     41,7854	   0,0287278	82,4	   0,0292918	82,9
     41,7874	   0,0288449	81,6	   0,0293807	83,4
     41,7893	   0,0289084	81,9	   0,0295024	81,6
     41,7913	   0,0288885	83,5	   0,0295613	82,2
     41,7933	    0,028937	83,0	   0,0295457	82,8
     41,7952	   0,0291276	82,9	   0,0295812	82,1
     41,7972	   0,0292411	83,2	   0,0297279	84,3
     41,7991	   0,0293063	81,5	   0,0297741	83,0
     41,8011	   0,0292738	82,2	   0,0299301	82,9
      41,803	   0,0293012	82,5	   0,0299177	83,7
      41,805	   0,0292808	82,9	   0,0299266	82,7
     41,8069	   0,0294863	83,8	   0,0299652	83,6
     41,8089	   0,0295409	83,3	    0,030065	83,8
     41,8109	    0,029685	82,9	   0,0301944	82,9
     41,8128	   0,0297049	83,7	   0,0302756	84,8
     41,8148	   0,0298034	83,1	   0,0303147	84,0
     41,8167	   0,0297942	83,6	   0,0304049	82,8
     41,8187	   0,0299037	83,1	   0,0304853	83,7
     41,8206	   0,0299362	83,6	   0,0306423	83,1
     41,8226	   0,0299742	84,6	   0,0307068	83,4
     41,8245	   0,0301547	82,9	   0,0307787	84,0
     41,8265	   0,0302211	83,0	   0,0308053	83,7
     41,8284	   0,0302453	83,6	   0,0308839	84,2
     41,8304	   0,0302852	83,4	   0,0309739	83,9
     41,8324	   0,0303942	84,5	   0,0310341	84,3
     41,8343	   0,0304423	85,0	   0,0310714	84,1
     41,8363	   0,0304516	83,8	   0,0311498	83,6
     41,8382	   0,0306154	84,1	   0,0312105	84,2
     41,8402	   0,0305793	82,4	   0,0313099	84,2
     41,8421	    0,030611	83,8	   0,0314364	83,4
     41,8441	   0,0307921	84,5	   0,0314504	84,4
      41,846	     0,03087	84,4	   0,0315287	83,7
      41,848	   0,0309452	85,1	   0,0316318	83,7
       41,85	   0,0310322	85,9	   0,0317357	85,8
     41,8519	   0,0312116	83,3	    0,031831	84,3
     41,8539	   0,0312089	84,0	   0,0319559	84,9
     41,8558	   0,0312714	83,7	   0,0320143	84,9
     41,8578	   0,0312902	83,9	   0,0320066	84,3
     41,8597	   0,0314205	85,4	   0,0321027	84,7
     41,8617	   0,0314951	84,6	   0,0322901	84,8
     41,8636	   0,0315416	85,1	   0,0323224	84,3
     41,8656	   0,0317096	85,7	    0,032349	85,5
     41,8675	   0,0318638	84,2	   0,0324853	84,8
     41,8695	   0,0318715	84,8	   0,0325137	85,3
     41,8715	   0,0318561	85,1	    0,032651	85,5
     41,8734	   0,0318636	85,0	   0,0327392	84,3
     41,8754	   0,0319733	85,4	   0,0329216	85,5
     41,8773	   0,0320928	85,2	   0,0329863	85,8
     41,8793	   0,0321538	84,9	   0,0330352	85,5
     41,8812	   0,0323343	85,4	   0,0330401	86,0
     41,8832	   0,0323953	84,4	   0,0331276	85,7
     41,8851	     0,03239	85,3	   0,0331839	85,9
     41,8871	   0,0325745	85,8	   0,0334085	85,8
     41,8891	   0,0326225	85,0	   0,0334575	85,7
      41,891	   0,0326978	85,6	   0,0335412	85,4
      41,893	   0,0327552	85,6	   0,0336221	86,2
     41,8949	   0,0328678	85,4	   0,0336121	85,8
     41,8969	   0,0329558	85,8	   0,0337833	85,6
     41,8988	   0,0330234	85,8	   0,0339034	87,0
     41,9008	   0,0331476	85,5	   0,0341056	86,0
     41,9027	   0,0331722	86,4	   0,0342186	86,1
     41,9047	   0,0332699	86,0	    0,034275	87,2
     41,9066	    0,033388	85,9	    0,034394	86,5
     41,9086	   0,0334582	86,4	   0,0344795	86,5
     41,9106	   0,0335077	85,7	   0,0346112	87,0
     41,9125	   0,0336353	86,9	   0,0346885	86,2
     41,9145	   0,0337022	86,3	   0,0347218	88,0
     41,9164	   0,0339146	87,1	   0,0347544	87,5
     41,9184	   0,0340526	87,3	   0,0349068	86,7
     41,9203	   0,0341362	86,2	   0,0350259	86,6
     41,9223	   0,0341658	86,6	   0,0352267	86,0
     41,9242	   0,0342325	86,6	   0,0353379	86,1
     41,9262	   0,0343344	86,6	   0,0354442	87,8
     41,9282	   0,0345445	86,8	   0,0354809	86,9
     41,9301	   0,0346553	87,7	   0,0355158	88,4
     41,9321	   0,0347204	86,5	    0,035578	88,4
      41,934	   0,0347513	88,1	   0,0357204	86,8
      41,936	   0,0347968	87,9	   0,0358811	87,2
     41,9379	   0,0349005	87,4	   0,0360652	87,1
     41,9399	   0,0349275	88,3	   0,0361782	86,2
     41,9418	   0,0350217	87,3	   0,0363028	88,8
     41,9438	   0,0351328	86,9	   0,0362914	89,2
     41,9457	   0,0352128	87,4	    0,036444	88,5
     41,9477	   0,0353291	88,0	   0,0365708	89,3
     41,9497	    0,035551	88,3	   0,0366334	89,6
     41,9516	   0,0357158	88,7	   0,0368536	87,6
     41,9536	   0,0357981	87,6	    0,036889	88,5
     41,9555	   0,0358715	88,6	   0,0371101	88,0
     41,9575	   0,0359782	87,9	   0,0372401	88,1
     41,9594	    0,036024	88,0	   0,0373894	89,6
     41,9614	   0,0360917	88,6	   0,0375069	89,3
     41,9633	   0,0362393	88,5	   0,0375068	89,6
     41,9653	   0,0364019	88,7	   0,0376135	90,2
     41,9673	   0,0365657	89,1	   0,0378016	88,6
     41,9692	   0,0367119	89,1	   0,0378635	89,1
     41,9712	   0,0368244	88,7	   0,0378877	89,1
     41,9731	   0,0368804	88,6	   0,0381197	88,1
     41,9751	   0,0369692	88,5	   0,0382174	90,1
      41,977	   0,0370511	88,2	   0,0383069	90,7
      41,979	   0,0371188	89,6	   0,0385303	89,4
     41,9809	    0,037145	90,0	   0,0386196	89,9
     41,9829	    0,037328	89,1	   0,0388544	90,9
     41,9848	   0,0374537	90,6	   0,0389467	90,2
     41,9868	    0,037672	89,6	   0,0390491	90,3
     41,9888	   0,0377403	89,4	    0,039141	90,7
     41,9907	   0,0379575	90,2	   0,0392167	89,2
     41,9927	   0,0380065	89,4	   0,0394454	89,6
     41,9946	   0,0380865	89,3	    0,039526	90,6
     41,9966	   0,0382329	90,7	   0,0396455	90,1
     41,9985	    0,038237	90,3	    0,039829	91,2
     42,0005	   0,0383973	90,2	   0,0399071	91,5
     42,0024	   0,0385024	91,0	   0,0400731	90,8
     42,0044	   0,0386437	90,8	     0,04029	91,4
     42,0064	   0,0388149	90,5	   0,0405215	89,9
     42,0083	   0,0389705	91,8	   0,0405884	90,9
     42,0103	   0,0391394	89,4	   0,0407196	90,8
     42,0122	   0,0391687	90,3	   0,0408295	91,4
     42,0142	   0,0393097	90,9	   0,0409548	90,8
     42,0161	   0,0395181	91,3	   0,0411646	92,7
     42,0181	   0,0395898	90,8	   0,0413193	92,7
       42,02	   0,0397439	93,2	   0,0415561	91,6
      42,022	   0,0399609	91,6	   0,0417023	93,2
     42,0239	   0,0400367	92,1	   0,0417682	91,9
     42,0259	    0,040194	92,6	    0,041888	91,8
     42,0279	   0,0403147	91,3	   0,0420081	93,2
     42,0298	   0,0404391	91,3	   0,0420671	93,0
     42,0318	    0,040599	92,2	   0,0422542	93,0
     42,0337	   0,0407161	91,2	   0,0423874	93,8
     42,0357	   0,0409204	93,7	   0,0427032	93,2
     42,0376	    0,040976	93,6	    0,042932	92,9
     42,0396	    0,041147	92,2	   0,0430875	94,1
     42,0415	   0,0412198	93,4	   0,0432206	93,1
     42,0435	   0,0413323	93,0	   0,0433672	93,3
     42,0455	    0,041459	93,0	   0,0435248	94,8
     42,0474	   0,0416467	93,7	   0,0436826	93,3
     42,0494	   0,0418472	94,1	    0,043842	93,4
     42,0513	   0,0419447	93,1	   0,0440029	94,2
     42,0533	   0,0420646	94,0	   0,0441266	94,8
     42,0552	    0,042402	94,3	   0,0442964	93,7
     42,0572	   0,0424968	93,3	   0,0445549	95,4
     42,0591	   0,0425906	94,1	    0,044761	95,7
     42,0611	   0,0427143	94,4	    0,044976	94,8
      42,063	   0,0427951	94,9	   0,0451585	95,3
      42,065	   0,0431107	94,4	    0,045326	94,6
      42,067	   0,0432879	95,1	   0,0455391	96,0
     42,0689	    0,043449	94,0	   0,0457741	96,4
     42,0709	   0,0435602	94,5	   0,0459714	96,5
     42,0728	   0,0436414	95,7	   0,0460892	96,7
     42,0748	   0,0438096	95,2	   0,0462976	97,0
     42,0767	    0,044023	96,5	     0,04647	97,4
     42,0787	    0,044191	96,3	   0,0467042	95,9
     42,0806	   0,0443891	95,2	   0,0468467	97,1
     42,0826	   0,0445039	95,4	   0,0470673	97,0
     42,0846	   0,0446499	96,9	   0,0472588	96,1
     42,0865	   0,0449297	94,9	   0,0475026	97,3
     42,0885	   0,0450571	95,7	   0,0476374	98,1
     42,0904	   0,0453567	96,9	   0,0478093	98,3
     42,0924	   0,0455166	96,4	    0,048019	98,3
     42,0943	   0,0456464	97,4	    0,048271	98,2
     42,0963	   0,0457905	98,3	   0,0484086	98,6
     42,0982	   0,0459577	97,3	   0,0487303	99,7
     42,1002	    0,046154	97,5	   0,0489449	98,9
     42,1021	   0,0464027	97,8	   0,0491658	98,2
     42,1041	   0,0465359	97,7	   0,0493171	99,5
     42,1061	   0,0467946	97,4	   0,0495256	99,7
      42,108	   0,0470073	98,4	   0,0497983	99,3
       42,11	   0,0472151	97,6	   0,0499506	99,1
     42,1119	   0,0473449	98,2	   0,0502677	100,6
     42,1139	   0,0474903	99,2	   0,0504784	100,3
     42,1158	   0,0476512	98,7	   0,0507327	101,6
     42,1178	   0,0478037	99,6	   0,0509363	101,4
     42,1197	   0,0478791	100,5	   0,0512595	100,6
     42,1217	   0,0481196	97,9	   0,0514856	101,2
     42,1237	   0,0483217	99,1	   0,0517308	102,0
     42,1256	   0,0486272	100,6	   0,0519609	101,5
     42,1276	   0,0488179	99,9	   0,0521106	101,0
     42,1295	   0,0491071	100,0	   0,0524572	102,4
     42,1315	   0,0493122	100,7	   0,0526462	101,9
     42,1334	   0,0496247	100,2	   0,0529826	102,5
     42,1354	   0,0497416	101,0	   0,0532982	103,3
     42,1373	   0,0498858	101,2	   0,0535045	103,4
     42,1393	    0,050177	102,3	   0,0537875	103,4
     42,1413	   0,0502973	101,9	   0,0539837	104,3
     42,1432	   0,0506153	103,3	   0,0542994	103,6
     42,1452	   0,0508514	103,0	   0,0545075	103,6
     42,1471	   0,0511602	101,2	     0,05478	104,5
     42,1491	   0,0513218	102,3	   0,0550881	104,4
      42,151	   0,0516973	102,9	   0,0554119	104,8
      42,153	   0,0518888	102,2	    0,055624	105,1
     42,1549	   0,0522338	104,7	   0,0558817	105,7
     42,1569	   0,0524602	104,9	    0,056139	105,9
     42,1588	   0,0526976	104,0	   0,0564213	107,6
     42,1608	   0,0529208	104,4	   0,0566296	107,4
     42,1628	   0,0531957	105,0	   0,0569851	106,4
     42,1647	    0,053384	105,2	   0,0571639	106,9
     42,1667	   0,0536809	105,2	   0,0575097	107,7
     42,1686	   0,0539036	105,7	   0,0578097	107,8
     42,1706	   0,0541825	105,1	   0,0581319	107,9
     42,1725	   0,0544274	105,1	   0,0584453	108,8
     42,1745	   0,0546131	106,2	   0,0587356	108,8
     42,1764	   0,0549769	106,0	   0,0590706	107,9
     42,1784	   0,0551771	106,4	   0,0592382	109,3
     42,1804	   0,0554278	107,6	    0,059589	110,6
     42,1823	   0,0556454	108,4	   0,0598475	109,6
     42,1843	   0,0559458	107,9	   0,0601918	111,2
     42,1862	   0,0561625	108,4	   0,0604336	112,0
     42,1882	   0,0564311	108,5	    0,060751	110,8
     42,1901	   0,0567136	108,3	   0,0610651	111,3
     42,1921	   0,0570883	108,7	   0,0613719	112,5
      42,194	    0,057216	109,7	   0,0617035	112,7
      42,196	   0,0574692	109,8	   0,0620184	112,0
     42,1979	   0,0577828	109,2	   0,0622712	113,5
     42,1999	   0,0579934	109,7	   0,0626073	113,1
     42,2019	     0,05832	110,6	   0,0629079	112,5
     42,2038	   0,0586301	111,0	   0,0631381	114,8
     42,2058	   0,0588482	111,9	   0,0634679	114,7
     42,2077	   0,0591597	111,9	   0,0637153	115,0
     42,2097	    0,059401	112,0	   0,0639336	115,1
     42,2116	   0,0596619	113,2	   0,0643791	116,3
     42,2136	   0,0598366	113,2	   0,0646514	116,2
     42,2155	   0,0601315	112,1	   0,0649185	116,8
     42,2175	   0,0603842	112,7	   0,0651169	118,0
     42,2195	   0,0606726	114,1	   0,0654893	116,4
     42,2214	   0,0609397	113,0	   0,0658048	116,8
     42,2234	   0,0611408	113,6	   0,0661029	118,3
     42,2253	    0,061445	115,0	   0,0663965	118,4
     42,2273	   0,0617082	115,0	   0,0666426	119,1
     42,2292	   0,0620852	114,8	   0,0669238	119,1
     42,2312	   0,0623579	115,5	   0,0672311	120,1
     42,2331	   0,0626896	117,0	   0,0674952	120,6
     42,2351	   0,0629503	116,4	   0,0678069	122,4
      42,237	   0,0631925	117,9	   0,0680536	122,2
      42,239	    0,063477	118,1	   0,0683223	121,5
      42,241	   0,0637459	117,1	   0,0685514	122,7
     42,2429	   0,0640054	117,6	   0,0687251	122,6
     42,2449	   0,0642557	119,4	   0,0689704	123,6
     42,2468	   0,0645465	119,2	    0,069164	122,9
     42,2488	   0,0649036	118,6	   0,0694913	124,5
     42,2507	    0,065142	119,3	   0,0696765	125,3
     42,2527	   0,0655111	119,9	   0,0699568	123,4
     42,2546	   0,0657418	120,5	   0,0697641	124,7
     42,2566	    0,066101	122,1	   0,0704317	125,9
     42,2586	   0,0663746	122,4	   0,0705991	125,6
     42,2605	   0,0666203	122,4	   0,0707889	126,6
     42,2625	   0,0667797	122,3	   0,0710305	127,2
     42,2644	   0,0671492	123,5	   0,0712868	127,6
     42,2664	   0,0673298	124,1	   0,0714204	127,2
     42,2683	   0,0676271	123,3	   0,0716389	129,7
     42,2703	   0,0678396	124,6	    0,071878	129,9
     42,2722	   0,0681542	124,3	     0,07214	128,8
     42,2742	   0,0683256	124,4	   0,0722625	130,1
     42,2761	   0,0686721	125,9	   0,0725155	130,8
     42,2781	   0,0688824	126,4	    0,072671	131,7
     42,2801	   0,0691129	125,8	   0,0729592	130,8
      42,282	   0,0692714	126,3	   0,0730517	131,7
      42,284	   0,0696214	127,8	   0,0732106	131,9
     42,2859	   0,0699236	127,4	   0,0734267	132,5
     42,2879	   0,0701257	127,5	   0,0735549	133,0
     42,2898	   0,0702713	128,5	   0,0735934	133,1
     42,2918	    0,070549	130,2	   0,0738025	133,6
     42,2937	   0,0706837	129,7	   0,0739373	133,8
     42,2957	   0,0709095	131,1	   0,0741082	135,6
     42,2977	   0,0711867	131,3	   0,0741006	135,4
     42,2996	   0,0714125	130,4	   0,0742408	135,9
     42,3016	    0,071634	131,0	   0,0743635	136,4
     42,3035	   0,0718064	132,4	   0,0745867	136,5
     42,3055	   0,0721561	132,9	   0,0745838	136,8
     42,3074	   0,0723531	132,2	    0,074668	137,7
     42,3094	   0,0725252	133,2	   0,0747746	138,5
     42,3113	   0,0726993	134,8	   0,0748773	138,0
     42,3133	   0,0729777	133,7	   0,0749903	137,7
     42,3153	   0,0730503	133,8	   0,0751676	139,4
     42,3172	   0,0732851	136,1	   0,0752484	140,0
     42,3192	   0,0734468	136,2	   0,0752669	138,8
     42,3211	   0,0735421	136,3	   0,0752876	139,4
     42,3231	   0,0736507	136,7	   0,0754106	141,5
      42,325	   0,0737775	138,5	   0,0754191	141,4
      42,327	   0,0739136	138,2	   0,0754867	142,2
     42,3289	   0,0740445	139,1	   0,0756452	142,8
     42,3309	   0,0742385	139,9	   0,0757098	142,2
     42,3328	   0,0744228	139,0	   0,0757933	142,9
     42,3348	   0,0745444	139,6	   0,0758336	143,2
     42,3368	   0,0746414	140,8	   0,0757945	144,8
     42,3387	   0,0747274	141,7	   0,0758294	145,6
     42,3407	   0,0748507	140,4	   0,0759878	144,6
     42,3426	   0,0749741	141,1	   0,0759791	145,4
     42,3446	   0,0751909	142,7	   0,0761018	145,6
     42,3465	   0,0752671	142,0	   0,0761491	145,8
     42,3485	    0,075359	142,2	    0,076262	146,4
     42,3504	   0,0754607	143,5	   0,0761753	147,1
     42,3524	   0,0755487	144,3	    0,076107	145,9
     42,3544	   0,0755904	143,8	    0,076118	146,9
     42,3563	   0,0756893	144,1	   0,0760214	147,4
     42,3583	   0,0756783	146,5	    0,076069	148,0
     42,3602	   0,0757567	146,4	   0,0761264	148,2
     42,3622	   0,0757619	146,3	   0,0761339	148,5
     42,3641	   0,0758214	147,0	   0,0761254	148,7
     42,3661	   0,0759241	148,4	   0,0760758	150,5
      42,368	   0,0759926	148,2	   0,0761245	149,7
       42,37	   0,0760569	148,3	    0,076143	151,6
     42,3719	   0,0761046	148,8	   0,0761803	151,5
     42,3739	   0,0760346	148,7	   0,0761413	151,1
     42,3759	    0,076028	149,1	     0,07606	151,6
     42,3778	   0,0761014	149,3	    0,076059	153,0
     42,3798	   0,0761652	150,7	   0,0759791	153,2
     42,3817	   0,0762847	149,6	   0,0759314	153,5
     42,3837	   0,0762986	150,4	   0,0759971	153,6
     42,3856	   0,0762542	152,0	   0,0759355	154,3
     42,3876	   0,0762531	152,0	   0,0759047	153,6
     42,3895	   0,0761669	151,4	   0,0759106	154,0
     42,3915	   0,0761628	152,1	   0,0758546	154,9
     42,3935	    0,076168	153,9	   0,0758957	155,6
     42,3954	   0,0762014	153,9	   0,0757803	154,5
     42,3974	   0,0761724	153,8	   0,0758113	154,7
     42,3993	   0,0761734	154,2	   0,0756481	155,9
     42,4013	   0,0761479	155,4	   0,0756355	156,3
     42,4032	   0,0761114	155,3	   0,0756044	156,0
     42,4052	   0,0760688	156,3	   0,0755188	156,5
     42,4071	   0,0760878	156,7	   0,0754614	158,1
     42,4091	   0,0760353	156,4	   0,0753867	157,0
      42,411	   0,0759683	156,5	   0,0752638	157,1
      42,413	   0,0758945	156,5	   0,0750871	159,4
      42,415	   0,0758979	158,4	   0,0750676	158,9
     42,4169	    0,075837	158,6	    0,074945	159,1
     42,4189	   0,0758186	157,5	   0,0748964	159,3
     42,4208	   0,0757474	158,2	    0,074862	161,0
     42,4228	   0,0757462	159,5	   0,0748325	161,2
     42,4247	   0,0757163	160,0	   0,0747427	160,2
     42,4267	   0,0756356	159,0	   0,0747274	161,0
     42,4286	    0,075535	159,6	   0,0746583	161,9
     42,4306	    0,075412	160,6	   0,0745465	161,9
     42,4326	   0,0753559	160,1	   0,0745658	161,8
     42,4345	   0,0753904	160,4	   0,0744609	162,9
     42,4365	   0,0752819	161,5	   0,0743794	163,4
     42,4384	   0,0752545	161,1	   0,0742405	162,2
     42,4404	   0,0751197	161,1	   0,0741248	162,0
     42,4423	   0,0750923	162,1	   0,0740292	163,7
     42,4443	   0,0749958	163,9	   0,0739368	164,0
     42,4462	    0,074736	162,7	   0,0738327	162,6
     42,4482	   0,0747859	162,7	   0,0737232	163,3
     42,4501	   0,0746959	164,8	    0,073723	165,2
     42,4521	   0,0746657	164,8	   0,0736426	165,4
     42,4541	   0,0744836	164,3	   0,0734849	164,7
      42,456	   0,0744351	165,2	   0,0733766	164,8
      42,458	   0,0744063	166,0	   0,0732663	166,3
     42,4599	   0,0742078	167,0	   0,0732068	166,5
     42,4619	   0,0740724	166,3	   0,0730525	166,5
     42,4638	   0,0739085	166,9	   0,0729497	166,2
     42,4658	   0,0737983	167,0	   0,0728166	167,8
     42,4677	   0,0737287	167,2	   0,0727726	167,4
     42,4697	   0,0736018	167,3	   0,0725687	167,0
     42,4717	   0,0735329	167,4	   0,0724406	167,8
     42,4736	   0,0733456	168,2	   0,0723251	169,2
     42,4756	   0,0732374	168,9	   0,0721809	168,7
     42,4775	   0,0731571	167,4	   0,0720328	169,0
     42,4795	   0,0730577	167,9	    0,071955	169,5
     42,4814	   0,0729632	169,9	   0,0718384	169,7
     42,4834	   0,0728862	168,8	   0,0717992	170,2
     42,4853	    0,072744	168,8	   0,0716735	170,2
     42,4873	   0,0726653	169,8	    0,071497	171,3
     42,4892	   0,0726556	170,1	   0,0714396	170,8
     42,4912	   0,0724505	169,3	   0,0713042	171,0
     42,4932	   0,0722819	169,3	   0,0711158	171,1
     42,4951	   0,0721498	171,2	   0,0709942	172,3
     42,4971	   0,0720504	172,0	   0,0708018	171,3
      42,499	   0,0718918	170,6	   0,0706972	172,0
      42,501	   0,0718637	170,3	   0,0706527	172,2
     42,5029	   0,0716442	172,4	   0,0705378	173,4
     42,5049	    0,071555	172,0	   0,0704062	172,3
     42,5068	   0,0713259	172,1	   0,0703415	172,6
     42,5088	   0,0713103	172,0	   0,0702273	173,6
     42,5108	   0,0711626	174,1	   0,0701615	174,0
     42,5127	   0,0709569	174,2	   0,0699676	173,0
     42,5147	   0,0707667	173,5	   0,0699042	173,5
     42,5166	   0,0706305	173,0	   0,0697796	173,4
     42,5186	    0,070504	175,1	   0,0695857	174,7
     42,5205	   0,0704382	175,3	    0,069469	174,1
     42,5225	   0,0703716	174,9	   0,0693425	173,8
     42,5244	   0,0701484	175,4	   0,0691053	175,8
     42,5264	   0,0700784	175,5	   0,0690403	175,8
     42,5283	   0,0699554	176,2	    0,068787	175,1
     42,5303	   0,0697798	175,9	   0,0686566	175,4
     42,5323	   0,0696079	175,6	   0,0684998	176,7
     42,5342	    0,069482	176,4	   0,0684488	177,3
     42,5362	   0,0694036	177,7	   0,0682832	176,5
     42,5381	   0,0692692	176,7	    0,068194	176,2
     42,5401	   0,0691376	176,9	   0,0680816	176,5
      42,542	   0,0689827	178,4	   0,0679239	178,5
      42,544	   0,0687798	178,8	   0,0677205	177,6
     42,5459	    0,068652	178,6	   0,0676021	177,4
     42,5479	   0,0685501	178,9	   0,0674682	178,7
     42,5499	   0,0683395	179,4	   0,0673904	179,2
     42,5518	    0,068108	178,9	   0,0671775	178,5
     42,5538	   0,0678589	179,1	   0,0669906	178,3
     42,5557	   0,0677437	179,1	   0,0668087	180,0
     42,5577	    0,067629	180,8	   0,0667416	179,8
     42,5596	   0,0675119	178,7	   0,0665498	179,5
     42,5616	   0,0673539	178,7	   0,0664207	179,5
     42,5635	   0,0672514	179,8	   0,0662689	179,5
     42,5655	   0,0671093	180,9	    0,066148	181,5
     42,5674	   0,0669906	181,7	   0,0660304	181,0
     42,5694	   0,0668523	180,1	   0,0657998	180,8
     42,5714	    0,066688	181,2	   0,0656927	180,5
     42,5733	   0,0664946	181,8	    0,065554	183,3
     42,5753	   0,0663689	182,4	   0,0654148	181,1
     42,5772	   0,0662875	180,9	   0,0652861	182,0
     42,5792	   0,0661511	181,5	   0,0651414	182,4
     42,5811	   0,0659494	182,5	   0,0650173	183,5
     42,5831	   0,0657304	182,9	   0,0648839	182,7
      42,585	   0,0655464	180,8	    0,064772	182,7
      42,587	    0,065413	182,0	   0,0646449	182,5
      42,589	   0,0652939	183,4	    0,064474	183,6
     42,5909	   0,0652588	183,3	   0,0642891	184,3
     42,5929	   0,0649145	182,8	   0,0641724	183,1
     42,5948	   0,0647866	182,6	    0,064024	183,9
     42,5968	   0,0646489	184,5	   0,0639909	184,9
     42,5987	   0,0645261	184,8	    0,063844	185,2
     42,6007	   0,0643537	183,6	   0,0635252	183,5
     42,6026	   0,0641165	183,9	   0,0634137	184,8
     42,6046	   0,0640627	184,0	   0,0631791	185,4
     42,6065	   0,0638521	185,2	   0,0630201	185,8
     42,6085	   0,0638024	184,8	   0,0629198	185,0
     42,6105	   0,0635921	185,1	   0,0627469	185,3
     42,6124	   0,0634763	184,8	   0,0625618	186,1
     42,6144	   0,0633361	186,3	    0,062474	186,0
     42,6163	   0,0632001	186,5	   0,0623308	185,0
     42,6183	   0,0629297	184,6	   0,0621817	185,5
     42,6202	   0,0628577	185,9	   0,0619954	186,8
     42,6222	    0,062695	186,8	   0,0618093	187,8
     42,6241	   0,0624993	186,7	   0,0617671	186,0
     42,6261	   0,0623662	186,3	   0,0615798	186,3
     42,6281	   0,0622944	186,9	   0,0613852	186,7
       42,63	   0,0621772	188,4	    0,061233	188,3
      42,632	   0,0620107	187,9	   0,0610643	188,2
     42,6339	   0,0618668	187,7	   0,0609421	186,7
     42,6359	   0,0616897	186,8	   0,0608003	187,9
     42,6378	    0,061506	188,9	   0,0606143	188,7
     42,6398	   0,0613635	188,5	    0,060439	187,4
     42,6417	   0,0611491	188,0	   0,0604146	188,0
     42,6437	   0,0609666	188,2	   0,0602098	188,9
     42,6456	   0,0608177	188,9	   0,0600065	189,0
     42,6476	    0,060664	189,8	   0,0599979	188,1
     42,6496	    0,060397	189,8	   0,0597858	188,1
     42,6515	   0,0603332	188,7	   0,0596212	188,7
     42,6535	   0,0601556	190,7	   0,0594668	189,9
     42,6554	    0,060018	190,8	   0,0592788	190,7
     42,6574	   0,0598281	190,4	   0,0591723	189,5
     42,6593	   0,0596619	189,6	   0,0589888	189,8
     42,6613	   0,0594453	190,5	   0,0588587	190,2
     42,6632	    0,059369	190,8	    0,058774	191,1
     42,6652	   0,0592744	191,4	   0,0586262	190,3
     42,6672	   0,0591233	190,3	   0,0585633	191,3
     42,6691	   0,0590566	190,2	   0,0584602	190,3
     42,6711	    0,058847	191,6	   0,0582967	191,2
      42,673	   0,0587437	191,6	   0,0581565	191,8
      42,675	   0,0585848	191,7	   0,0579405	191,6
     42,6769	   0,0584376	191,9	   0,0577894	191,4
     42,6789	   0,0581563	192,3	   0,0576671	192,2
     42,6808	   0,0579956	192,6	   0,0574806	192,5
     42,6828	   0,0578228	192,2	   0,0573138	192,6
     42,6847	   0,0576907	192,1	   0,0572566	191,6
     42,6867	   0,0575921	193,7	   0,0571537	192,7
     42,6887	    0,057475	193,1	   0,0570271	193,1
     42,6906	   0,0573319	194,4	   0,0569781	193,2
     42,6926	   0,0570797	193,1	   0,0568418	193,3
     42,6945	   0,0569479	192,8	   0,0565991	192,7
     42,6965	   0,0568879	193,3	   0,0565131	193,2
     42,6984	   0,0566494	195,1	   0,0562567	193,8
     42,7004	   0,0565059	194,0	   0,0560379	194,3
     42,7023	   0,0563134	193,7	   0,0560504	193,4
     42,7043	   0,0562489	193,1	   0,0558928	193,8
     42,7063	   0,0559419	195,4	   0,0557967	194,6
     42,7082	     0,05588	194,9	   0,0556294	195,6
     42,7102	   0,0557838	194,7	   0,0554547	194,3
     42,7121	   0,0555876	193,8	   0,0553102	194,3
     42,7141	   0,0553512	194,4	   0,0550458	195,4
      42,716	   0,0552418	196,3	   0,0550277	196,4
      42,718	   0,0551727	195,9	   0,0548985	195,0
     42,7199	   0,0550314	195,3	   0,0547434	195,1
     42,7219	   0,0549537	195,0	   0,0545888	195,6
     42,7239	   0,0548731	196,5	    0,054386	196,7
     42,7258	   0,0547411	195,5	   0,0541879	195,9
     42,7278	   0,0545206	196,2	   0,0540872	196,2
     42,7297	   0,0543271	194,9	   0,0538898	196,4
     42,7317	   0,0542228	197,0	   0,0538706	197,1
     42,7336	   0,0540197	197,6	   0,0537629	196,8
     42,7356	   0,0537736	198,2	   0,0535056	196,9
     42,7375	   0,0536819	196,0	   0,0534225	196,6
     42,7395	   0,0535733	196,4	   0,0532541	197,3
     42,7414	    0,053389	197,4	   0,0531608	197,5
     42,7434	    0,053208	198,3	   0,0529775	197,9
     42,7454	   0,0530373	197,5	   0,0528395	197,6
     42,7473	   0,0528388	197,7	   0,0526071	197,3
     42,7493	   0,0527609	197,9	   0,0524835	197,4
     42,7512	   0,0525602	198,5	   0,0523553	199,2
     42,7532	   0,0524272	198,0	   0,0522814	199,3
     42,7551	   0,0523506	198,2	   0,0521645	198,3
     42,7571	   0,0522224	198,3	   0,0521177	199,0
      42,759	   0,0521356	199,0	   0,0520471	197,8
      42,761	    0,051948	199,0	   0,0518458	198,7
      42,763	    0,051823	199,4	   0,0516707	199,0
     42,7649	   0,0517003	199,9	   0,0514254	198,6
     42,7669	   0,0515892	199,8	   0,0513372	198,1
     42,7688	   0,0514221	-159,4	   0,0511126	199,4
     42,7708	   0,0512202	-159,4	   0,0509773	199,3
     42,7727	   0,0510344	-159,0	   0,0508506	199,3
     42,7747	   0,0509018	-160,0	    0,050756	199,0
     42,7766	   0,0508491	-159,5	   0,0506562	-159,5
     42,7786	   0,0507519	-159,0	   0,0505221	-160,0
     42,7805	   0,0505636	-158,5	   0,0504264	-160,4
     42,7825	   0,0503879	-159,3	   0,0503028	-160,2
     42,7845	   0,0502119	-159,8	     0,05018	-159,9
     42,7864	   0,0500396	-157,8	   0,0500626	-160,3
     42,7884	   0,0498874	-158,4	   0,0499249	-159,5
     42,7903	   0,0497057	-158,7	   0,0497598	-159,4
     42,7923	   0,0496766	-158,9	   0,0495481	-160,5
     42,7942	   0,0495358	-157,6	   0,0493638	-160,2
     42,7962	   0,0494318	-157,8	   0,0492394	-159,0
     42,7981	   0,0493715	-157,9	   0,0491791	-158,1
     42,8001	   0,0491531	-157,5	   0,0490324	-159,8
     42,8021	   0,0490052	-158,3	   0,0489008	-159,3
      42,804	   0,0488202	-158,2	   0,0487484	-158,6
      42,806	   0,0487466	-158,8	   0,0486149	-158,7
     42,8079	   0,0485532	-157,2	   0,0484226	-158,4
     42,8099	   0,0484494	-158,1	   0,0482991	-157,6
     42,8118	   0,0483425	-157,7	   0,0482083	-158,9
     42,8138	   0,0482072	-156,8	   0,0481306	-157,9
     42,8157	   0,0481581	-157,3	   0,0479752	-156,8
     42,8177	   0,0480502	-157,3	   0,0478307	-156,2
     42,8196	     0,04791	-157,3	   0,0476854	-157,7
     42,8216	   0,0477109	-157,0	   0,0476228	-157,3
     42,8236	   0,0475625	-157,0	   0,0474394	-156,8
     42,8255	   0,0473509	-156,6	   0,0473962	-155,6
     42,8275	   0,0472787	-156,0	   0,0472491	-156,9
     42,8294	   0,0471373	-156,7	   0,0470699	-157,3
     42,8314	   0,0470008	-157,3	   0,0468466	-157,0
     42,8333	   0,0468685	-156,4	   0,0467245	-156,5
     42,8353	   0,0466677	-155,1	   0,0465608	-155,6
     42,8372	   0,0465641	-156,7	   0,0464451	-155,0
     42,8392	   0,0465192	-156,5	   0,0463308	-156,7
     42,8412	   0,0462859	-156,5	   0,0462641	-157,0
     42,8431	   0,0461961	-155,2	   0,0461547	-155,8
     42,8451	   0,0459762	-155,2	   0,0460804	-156,0
      42,847	   0,0459011	-154,2	   0,0459887	-156,1
      42,849	   0,0457143	-154,2	   0,0458437	-156,6
     42,8509	   0,0456769	-155,2	   0,0456911	-156,0
     42,8529	   0,0455814	-154,2	   0,0455361	-156,0
     42,8548	   0,0455299	-153,4	   0,0454539	-154,8
     42,8568	   0,0453593	-153,5	    0,045336	-155,2
     42,8587	   0,0453081	-154,2	   0,0451939	-156,7
     42,8607	   0,0451057	-154,2	   0,0450562	-156,0
     42,8627	   0,0449756	-153,5	   0,0448963	-154,8
     42,8646	   0,0449443	-152,8	     0,04489	-154,4
     42,8666	   0,0447324	-153,5	   0,0447948	-155,2
     42,8685	   0,0447213	-153,5	   0,0446244	-155,2
     42,8705	   0,0445098	-153,4	   0,0444547	-154,4
     42,8724	   0,0443864	-153,9	   0,0442126	-154,7
     42,8744	   0,0442689	-152,5	   0,0441629	-153,8
     42,8763	   0,0440558	-153,7	    0,044065	-154,1
     42,8783	    0,043899	-154,4	   0,0439972	-152,5
     42,8803	   0,0438036	-154,4	   0,0438575	-154,0
     42,8822	   0,0437457	-153,9	   0,0437577	-153,8
     42,8842	   0,0437563	-152,9	   0,0436336	-152,7
     42,8861	   0,0435387	-152,7	   0,0435827	-152,5
     42,8881	   0,0433828	-153,5	   0,0433626	-153,6
       42,89	   0,0433523	-153,3	   0,0432433	-153,4
      42,892	   0,0431721	-153,3	   0,0430872	-152,8
     42,8939	   0,0430933	-152,2	   0,0430464	-152,9
     42,8959	   0,0430192	-152,5	   0,0428408	-152,6
     42,8979	   0,0429314	-151,3	   0,0427681	-152,8
     42,8998	   0,0428512	-152,8	   0,0425987	-153,2
     42,9018	   0,0426196	-152,6	   0,0425482	-153,3
     42,9037	   0,0424593	-150,9	   0,0423771	-152,3
     42,9057	   0,0421756	-151,0	   0,0423464	-152,0
     42,9076	   0,0421692	-151,7	   0,0421801	-152,2
     42,9096	   0,0420325	-151,8	   0,0420694	-153,4
     42,9115	   0,0419016	-152,1	   0,0419615	-153,0
     42,9135	   0,0417605	-150,9	   0,0419213	-151,9
     42,9154	   0,0415324	-149,8	   0,0418007	-152,3
     42,9174	   0,0414993	-150,5	   0,0417311	-152,4
     42,9194	   0,0414703	-151,4	   0,0415664	-151,9
     42,9213	   0,0413449	-152,6	   0,0414442	-152,9
     42,9233	   0,0412691	-151,0	   0,0413083	-152,3
     42,9252	   0,0412385	-150,5	   0,0411716	-151,0
     42,9272	   0,0410432	-150,6	   0,0410683	-150,6
     42,9291	    0,040935	-151,0	   0,0409987	-151,1
     42,9311	   0,0408646	-152,3	   0,0408061	-150,3
      42,933	   0,0407501	-150,4	   0,0406231	-151,0
      42,935	   0,0406932	-150,2	   0,0405361	-150,1
      42,937	   0,0404911	-150,4	   0,0404435	-150,0
     42,9389	   0,0404312	-150,0	   0,0403205	-149,5
     42,9409	   0,0402394	-150,0	   0,0402417	-151,6
     42,9428	   0,0401392	-150,9	   0,0402651	-151,2
     42,9448	   0,0400444	-150,0	   0,0400568	-150,2
     42,9467	   0,0399323	-148,6	   0,0399557	-150,8
     42,9487	   0,0397563	-148,6	   0,0398847	-150,3
     42,9506	   0,0395898	-149,8	   0,0398353	-150,3
     42,9526	   0,0396045	-149,3	   0,0396914	-151,1
     42,9545	   0,0394528	-148,6	   0,0395074	-150,2
     42,9565	   0,0393771	-148,4	   0,0394482	-149,9
     42,9585	   0,0393591	-149,3	   0,0393382	-150,2
     42,9604	   0,0392793	-149,1	   0,0391959	-149,9
     42,9624	   0,0390728	-149,9	   0,0391072	-149,1
     42,9643	   0,0389821	-149,2	   0,0390707	-150,2
     42,9663	    0,038885	-149,5	   0,0389708	-149,8
     42,9682	   0,0388001	-148,4	   0,0388483	-147,2
     42,9702	   0,0387579	-148,3	   0,0387646	-147,8
     42,9721	   0,0385773	-149,3	   0,0386682	-149,0
     42,9741	   0,0384749	-149,0	   0,0385327	-149,8
     42,9761	   0,0383671	-148,1	   0,0384715	-148,3
      42,978	   0,0382711	-148,1	   0,0384705	-149,1
       42,98	   0,0382554	-148,7	    0,038292	-148,1
     42,9819	   0,0381131	-148,0	   0,0380363	-149,1
     42,9839	    0,037943	-148,8	   0,0380203	-148,8
     42,9858	   0,0378869	-148,0	   0,0379262	-149,3
     42,9878	   0,0377623	-147,6	   0,0378198	-148,5
     42,9897	   0,0378133	-146,8	   0,0377271	-148,6
     42,9917	   0,0376906	-146,4	   0,0375677	-148,4
     42,9936	   0,0374461	-147,1	   0,0374585	-148,1
     42,9956	    0,037334	-148,0	    0,037349	-148,5
     42,9976	   0,0372258	-148,6	    0,037356	-148,7
     42,9995	   0,0371056	-147,5	   0,0372664	-147,8
     43,0015	   0,0370633	-148,1	   0,0370791	-146,5
     43,0034	   0,0368772	-147,0	   0,0369666	-146,7
     43,0054	   0,0367683	-147,0	   0,0368132	-147,5
     43,0073	    0,036632	-148,6	   0,0367783	-147,6
     43,0093	   0,0367251	-147,9	   0,0367036	-147,3
     43,0112	   0,0365369	-146,9	   0,0367912	-147,9
     43,0132	   0,0364664	-146,0	    0,036631	-146,9
     43,0152	   0,0364337	-146,7	   0,0364493	-147,1
     43,0171	   0,0362232	-146,9	   0,0363051	-147,4
     43,0191	   0,0361618	-146,3	   0,0361716	-148,0
      43,021	   0,0359997	-146,9	   0,0360745	-147,9
      43,023	   0,0358807	-144,7	   0,0360405	-147,4
     43,0249	   0,0358885	-145,8	    0,035843	-147,1
     43,0269	   0,0358293	-145,9	   0,0357385	-147,0
     43,0288	   0,0356786	-147,4	   0,0356525	-146,0
     43,0308	   0,0356193	-147,3	   0,0356573	-147,3
     43,0327	    0,035536	-145,7	     0,03562	-146,6
     43,0347	   0,0354326	-145,5	   0,0354386	-146,6
     43,0367	   0,0353117	-146,6	   0,0353738	-145,4
     43,0386	   0,0352334	-146,6	   0,0352347	-146,4
     43,0406	   0,0352369	-146,5	    0,035223	-146,0
     43,0425	   0,0350926	-147,1	   0,0350953	-146,3
     43,0445	   0,0350072	-146,0	   0,0350236	-146,3
     43,0464	   0,0348742	-145,6	   0,0349203	-146,9
     43,0484	   0,0348582	-144,1	   0,0347756	-145,7
     43,0503	    0,034775	-144,0	   0,0347692	-145,3
     43,0523	   0,0346274	-145,0	   0,0345968	-146,3
     43,0543	   0,0343624	-145,8	   0,0345245	-146,2
     43,0562	   0,0342885	-145,2	   0,0344868	-146,2
     43,0582	   0,0342741	-144,8	   0,0342666	-145,9
     43,0601	   0,0341386	-145,0	   0,0341854	-144,6
     43,0621	   0,0342303	-145,0	   0,0340787	-144,3
      43,064	   0,0340667	-145,1	   0,0340154	-145,8
      43,066	    0,033925	-146,4	    0,033976	-145,3
     43,0679	   0,0339129	-145,6	   0,0338425	-145,2
     43,0699	   0,0338951	-144,7	   0,0338488	-145,0
     43,0718	    0,033792	-144,5	   0,0337741	-144,5
     43,0738	   0,0336309	-143,9	   0,0337031	-144,4
     43,0758	   0,0334847	-144,8	   0,0334832	-145,2
     43,0777	   0,0334549	-144,8	   0,0335299	-145,8
     43,0797	    0,033373	-144,3	   0,0334334	-145,1
     43,0816	   0,0333268	-143,3	   0,0332704	-145,3
     43,0836	   0,0331438	-143,3	   0,0331378	-144,8
     43,0855	   0,0331588	-142,3	    0,032996	-143,6
     43,0875	   0,0329506	-144,4	   0,0329273	-145,1
     43,0894	   0,0329185	-144,0	   0,0328891	-143,8
     43,0914	   0,0327432	-143,1	   0,0327728	-144,1
     43,0934	   0,0326725	-144,0	   0,0326762	-144,3
     43,0953	   0,0325367	-144,2	   0,0326409	-143,2
     43,0973	   0,0325523	-144,0	   0,0326095	-142,7
     43,0992	    0,032459	-143,2	   0,0324818	-143,8
     43,1012	   0,0324259	-144,0	   0,0324527	-143,6
     43,1031	   0,0323413	-143,9	   0,0324176	-144,1
     43,1051	   0,0321764	-143,9	   0,0323267	-144,6
      43,107	   0,0320768	-142,7	    0,032295	-145,2
      43,109	   0,0320347	-142,6	   0,0321572	-143,5
     43,1109	   0,0319531	-142,9	   0,0320106	-143,6
     43,1129	   0,0317801	-142,8	   0,0320608	-144,1
     43,1149	   0,0318509	-143,2	   0,0319546	-143,5
     43,1168	   0,0317285	-143,9	   0,0317881	-143,8
     43,1188	   0,0316255	-142,2	   0,0316305	-143,3
     43,1207	   0,0315985	-143,2	    0,031484	-142,1
     43,1227	   0,0316399	-143,8	   0,0314231	-142,4
     43,1246	   0,0315571	-142,7	   0,0313789	-142,5
     43,1266	      0,0313	-143,9	   0,0313949	-143,4
     43,1285	   0,0313093	-143,3	    0,031321	-143,2
     43,1305	   0,0311973	-142,4	   0,0312346	-143,8
     43,1325	   0,0311442	-141,8	   0,0312122	-144,2
     43,1344	   0,0310802	-142,3	   0,0311466	-142,9
     43,1364	   0,0310523	-141,7	   0,0310207	-142,1
     43,1383	   0,0309059	-141,9	    0,030964	-143,2
     43,1403	   0,0307419	-142,5	   0,0308942	-142,5
     43,1422	   0,0305686	-143,4	   0,0307172	-143,1
     43,1442	   0,0305373	-141,9	   0,0306966	-142,5
     43,1461	   0,0305882	-141,3	   0,0306371	-143,4
     43,1481	   0,0304508	-142,0	   0,0304696	-141,8
       43,15	    0,030373	-141,6	   0,0304714	-141,9
      43,152	   0,0302719	-142,7	   0,0302956	-142,7
      43,154	   0,0303696	-142,5	   0,0302866	-143,0
     43,1559	   0,0302086	-141,4	   0,0302175	-143,2
     43,1579	   0,0300507	-141,0	   0,0301397	-141,9
     43,1598	   0,0300421	-140,2	   0,0301011	-142,3
     43,1618	    0,030036	-140,9	    0,030028	-141,6
     43,1637	   0,0299744	-141,5	   0,0299541	-141,1
     43,1657	   0,0298398	-141,9	   0,0298177	-141,7
     43,1676	   0,0297091	-142,0	   0,0296789	-141,9
     43,1696	   0,0295064	-141,9	   0,0295374	-141,1
     43,1716	   0,0295294	-140,3	   0,0296326	-141,7
     43,1735	   0,0294797	-141,1	   0,0295137	-140,7
     43,1755	   0,0294138	-140,8	   0,0294686	-141,4
     43,1774	   0,0293096	-141,8	   0,0294279	-142,2
     43,1794	   0,0293052	-141,1	   0,0293518	-141,5
     43,1813	   0,0293749	-141,0	   0,0292766	-142,2
     43,1833	    0,029267	-140,2	   0,0292642	-141,9
     43,1852	   0,0289836	-139,7	   0,0290738	-141,6
     43,1872	   0,0289636	-139,9	   0,0289443	-141,2
     43,1891	   0,0288529	-140,7	   0,0288685	-139,7
     43,1911	   0,0289072	-141,0	   0,0288661	-140,2
     43,1931	   0,0287679	-141,6	   0,0288528	-140,4
      43,195	   0,0288298	-142,1	   0,0288143	-142,4
      43,197	   0,0287286	-140,8	   0,0288009	-141,7
     43,1989	    0,028599	-140,0	   0,0286615	-141,9
     43,2009	   0,0284765	-140,5	   0,0283742	-140,8
     43,2028	   0,0285103	-139,4	   0,0284169	-140,3
     43,2048	    0,028339	-140,2	   0,0283843	-140,3
     43,2067	   0,0282167	-139,7	   0,0283247	-140,1
     43,2087	   0,0281931	-139,8	   0,0283456	-141,2
     43,2107	   0,0280831	-139,7	   0,0282107	-141,2
     43,2126	   0,0279887	-137,9	    0,028129	-140,4
     43,2146	   0,0278264	-139,4	   0,0280601	-140,3
     43,2165	   0,0277795	-140,4	   0,0279924	-139,2
     43,2185	   0,0278687	-140,9	   0,0279015	-140,8
     43,2204	    0,027883	-140,9	   0,0278169	-140,8
     43,2224	   0,0277497	-140,0	   0,0277715	-141,1
     43,2243	   0,0276838	-139,7	   0,0276942	-141,5
     43,2263	   0,0275959	-138,5	   0,0276694	-140,0
     43,2282	   0,0275687	-139,4	   0,0275895	-139,4
     43,2302	   0,0274925	-139,4	   0,0274299	-139,2
     43,2322	   0,0273947	-139,8	   0,0274416	-138,8
     43,2341	   0,0273684	-140,5	   0,0273926	-139,3
     43,2361	    0,027295	-140,0	   0,0272824	-140,0
      43,238	   0,0271934	-140,1	   0,0272512	-140,4
       43,24	   0,0272272	-139,6	   0,0271545	-139,1
     43,2419	   0,0270692	-138,5	   0,0271207	-140,4
     43,2439	   0,0269574	-138,3	   0,0269765	-139,9
     43,2458	   0,0269792	-139,5	    0,027002	-138,7
     43,2478	    0,026869	-139,4	   0,0269428	-139,5
     43,2498	   0,0267885	-138,4	   0,0268046	-138,8
     43,2517	   0,0266986	-140,5	   0,0268132	-139,4
     43,2537	   0,0265835	-138,5	   0,0267576	-140,2
     43,2556	   0,0266286	-139,7	    0,026694	-139,5
     43,2576	   0,0264726	-139,1	   0,0265905	-140,3
     43,2595	   0,0264551	-139,0	    0,026567	-139,2
     43,2615	   0,0264135	-139,4	   0,0265006	-139,1
     43,2634	   0,0263483	-139,0	   0,0264347	-140,0
     43,2654	   0,0263217	-138,7	   0,0263605	-138,7
     43,2673	     0,02635	-139,2	   0,0263481	-139,7
     43,2693	    0,026237	-138,8	   0,0263216	-139,3
     43,2713	   0,0260994	-138,2	   0,0261645	-138,4
     43,2732	   0,0259992	-138,7	   0,0261034	-138,3
     43,2752	   0,0260237	-138,4	   0,0259318	-137,9
     43,2771	   0,0259742	-139,6	   0,0260834	-138,3
     43,2791	   0,0258978	-139,3	   0,0260445	-139,5
      43,281	   0,0258316	-138,1	   0,0258838	-140,1
      43,283	   0,0256438	-138,0	   0,0257385	-140,2
     43,2849	   0,0257008	-138,0	   0,0256209	-139,5
     43,2869	   0,0255527	-137,2	   0,0255257	-138,0
     43,2889	   0,0255393	-138,2	   0,0254527	-137,6
     43,2908	   0,0255727	-138,7	   0,0254521	-137,7
     43,2928	   0,0255412	-138,5	   0,0254146	-138,3
     43,2947	   0,0254205	-139,4	    0,025365	-137,4
     43,2967	   0,0253446	-139,0	   0,0252786	-139,0
     43,2986	   0,0253424	-138,4	   0,0253341	-138,3
     43,3006	    0,025268	-138,4	   0,0253088	-139,4
     43,3025	   0,0251432	-136,8	   0,0252734	-138,9
     43,3045	   0,0250567	-137,4	   0,0250889	-138,1
     43,3064	   0,0250239	-136,7	   0,0250106	-137,7
     43,3084	   0,0249173	-137,9	   0,0249479	-137,4
     43,3104	   0,0248653	-138,3	   0,0248818	-138,3
     43,3123	   0,0248396	-138,9	   0,0249717	-138,8
     43,3143	      0,0249	-138,9	   0,0249213	-138,6
     43,3162	   0,0248675	-137,5	   0,0249173	-139,2
     43,3182	      0,0247	-136,9	   0,0247885	-139,6
     43,3201	   0,0246236	-136,2	   0,0246125	-137,6
     43,3221	   0,0245008	-137,4	   0,0245676	-137,1
      43,324	   0,0245324	-137,2	   0,0245276	-137,3
      43,326	   0,0244976	-138,3	   0,0244619	-137,3
      43,328	   0,0244526	-138,4	   0,0243526	-137,0
     43,3299	   0,0243795	-137,5	   0,0244064	-138,2
     43,3319	   0,0243752	-138,6	   0,0242783	-137,8
     43,3338	   0,0243456	-136,7	   0,0242545	-138,9
     43,3358	   0,0241882	-136,7	   0,0242462	-138,6
     43,3377	    0,024085	-135,9	   0,0241976	-137,4
     43,3397	   0,0239939	-136,4	   0,0240554	-137,1
     43,3416	   0,0239726	-137,2	   0,0240082	-136,8
     43,3436	   0,0239821	-137,8	   0,0239209	-137,8
     43,3456	   0,0239984	-137,6	   0,0239077	-136,7
     43,3475	   0,0238084	-137,1	     0,02383	-137,5
     43,3495	    0,023831	-137,2	   0,0239094	-138,7
     43,3514	   0,0238187	-136,0	   0,0239273	-137,9
     43,3534	   0,0236843	-136,1	    0,023729	-138,0
     43,3553	   0,0235789	-136,5	   0,0235828	-137,5
     43,3573	   0,0235282	-136,6	   0,0235363	-136,5
     43,3592	   0,0235373	-137,2	   0,0235328	-136,7
     43,3612	   0,0235579	-138,0	   0,0235554	-135,9
     43,3631	    0,023544	-137,2	   0,0234956	-136,9
     43,3651	   0,0234362	-137,2	   0,0234867	-138,1
     43,3671	   0,0234448	-135,8	   0,0233291	-137,4
      43,369	   0,0233348	-135,8	   0,0232437	-137,6
      43,371	     0,02324	-135,9	   0,0232036	-136,6
     43,3729	    0,023157	-135,6	    0,023118	-136,0
     43,3749	   0,0231182	-135,7	    0,023116	-136,0
     43,3768	    0,022995	-137,3	   0,0230933	-135,7
     43,3788	   0,0230297	-136,8	   0,0230458	-136,6
     43,3807	   0,0229067	-137,3	   0,0230415	-137,5
     43,3827	   0,0228438	-137,2	   0,0229682	-137,3
     43,3847	   0,0228441	-136,5	   0,0230031	-137,4
     43,3866	    0,022887	-135,3	   0,0228974	-137,6
     43,3886	   0,0226431	-135,6	   0,0227886	-136,3
     43,3905	   0,0226016	-135,8	   0,0226396	-135,4
     43,3925	    0,022625	-136,3	   0,0226099	-135,1
     43,3944	    0,022674	-137,0	   0,0226109	-135,7
     43,3964	   0,0227542	-137,3	   0,0226558	-135,9
     43,3983	   0,0226584	-136,3	   0,0226236	-136,7
     43,4003	   0,0224644	-135,9	   0,0225587	-137,6
     43,4022	   0,0223731	-136,0	   0,0224703	-137,5
     43,4042	   0,0223436	-135,7	   0,0224208	-136,6
     43,4062	   0,0223394	-135,1	   0,0223296	-135,9
     43,4081	   0,0223918	-136,1	   0,0222689	-135,1
     43,4101	   0,0221909	-136,0	   0,0222544	-135,9
      43,412	   0,0221766	-135,3	    0,022175	-135,7
      43,414	   0,0220948	-137,4	   0,0221311	-136,0
     43,4159	   0,0221398	-135,8	   0,0220386	-137,8
     43,4179	   0,0221097	-135,6	   0,0218983	-136,4
     43,4198	   0,0220229	-135,1	   0,0218946	-136,2
     43,4218	   0,0218519	-135,7	   0,0219589	-135,5
     43,4238	   0,0219001	-134,8	   0,0219229	-134,7
     43,4257	   0,0218522	-136,4	   0,0219399	-135,8
     43,4277	   0,0218611	-135,7	   0,0217881	-134,6
     43,4296	   0,0218167	-134,6	   0,0217409	-136,4
     43,4316	   0,0217663	-135,9	   0,0216719	-136,1
     43,4335	   0,0216336	-135,3	   0,0216355	-135,1
     43,4355	   0,0216093	-135,3	   0,0216627	-135,7
     43,4374	   0,0215663	-136,1	   0,0215842	-135,9
     43,4394	   0,0215668	-135,5	   0,0215036	-135,7
     43,4413	   0,0214706	-135,7	   0,0215314	-135,6
     43,4433	   0,0214856	-134,5	   0,0215297	-136,0
     43,4453	   0,0212629	-133,7	   0,0214025	-136,1
     43,4472	   0,0213012	-134,8	    0,021337	-135,1
     43,4492	   0,0212439	-133,9	   0,0212744	-133,9
     43,4511	   0,0212112	-135,5	   0,0212187	-134,9
     43,4531	   0,0212373	-135,5	   0,0212356	-135,1
      43,455	   0,0212318	-135,9	   0,0211343	-135,0
      43,457	    0,021069	-135,8	   0,0211312	-135,6
     43,4589	   0,0210907	-135,3	   0,0211725	-135,6
     43,4609	    0,021072	-134,5	   0,0210346	-135,4
     43,4629	   0,0210256	-133,2	   0,0210131	-135,4
     43,4648	   0,0208856	-134,0	   0,0209603	-134,9
     43,4668	   0,0208287	-134,0	   0,0209743	-133,7
     43,4687	   0,0207384	-135,1	   0,0208092	-134,5
     43,4707	    0,020811	-136,2	   0,0207562	-135,4
     43,4726	   0,0208185	-135,2	   0,0206809	-135,0
     43,4746	     0,02075	-135,2	   0,0206999	-134,8
     43,4765	   0,0206216	-135,3	   0,0206411	-135,8
     43,4785	   0,0205979	-134,0	   0,0206486	-134,3
     43,4804	   0,0205701	-135,8	   0,0205789	-135,2
     43,4824	    0,020497	-134,4	   0,0205398	-135,5
     43,4844	   0,0204625	-134,9	    0,020458	-135,0
     43,4863	   0,0204403	-134,3	   0,0204039	-136,0
     43,4883	   0,0204675	-133,6	   0,0204298	-134,8
     43,4902	   0,0203503	-132,9	   0,0204144	-134,1
     43,4922	   0,0203424	-133,7	   0,0202806	-133,9
     43,4941	   0,0202948	-133,8	    0,020157	-134,1
     43,4961	   0,0202641	-135,4	   0,0200951	-134,1
      43,498	   0,0202254	-135,6	   0,0201849	-134,9
        43,5	   0,0201681	-133,6	   0,0202424	-134,7

