X-Data [Hz]	Laser (M - Filtered) [m/s]	Phase [Deg]	Laser (M - Filtered) [m/s]	Phase [Deg]	
	002: [07-09-24 10:42]		003: [07-09-24 10:48]	
        40,5	    0,035901	75,2	   0,0398379	74,6
     40,5029	   0,0373015	75,1	    0,039151	73,6
     40,5059	    0,038868	74,4	   0,0397834	74,3
     40,5088	   0,0393103	74,7	   0,0398145	74,6
     40,5117	    0,039624	74,1	   0,0399861	74,6
     40,5147	   0,0396583	74,3	   0,0400067	74,5
     40,5176	   0,0397673	74,4	    0,040155	74,4
     40,5205	   0,0398223	73,9	   0,0394256	73,8
     40,5235	   0,0398023	73,9	   0,0394948	74,0
     40,5264	   0,0396503	73,4	   0,0393972	73,7
     40,5293	   0,0398947	73,9	   0,0397669	73,6
     40,5323	   0,0400937	74,5	   0,0402982	74,3
     40,5352	   0,0401332	74,3	   0,0398926	74,3
     40,5381	   0,0400936	74,5	   0,0399089	74,1
     40,5411	    0,040252	74,3	   0,0399777	74,8
      40,544	   0,0397726	73,1	   0,0402948	73,9
     40,5469	   0,0400492	74,7	   0,0404118	74,4
     40,5499	   0,0399522	74,3	   0,0405581	74,5
     40,5528	   0,0400971	74,7	    0,040593	74,2
     40,5557	   0,0400634	74,0	   0,0405381	74,4
     40,5587	   0,0402703	73,7	   0,0407032	74,7
     40,5616	   0,0404262	75,1	   0,0404554	74,3
     40,5645	   0,0406838	74,4	   0,0407298	74,4
     40,5674	   0,0404536	74,3	   0,0403523	73,2
     40,5704	   0,0402111	74,9	   0,0408883	74,5
     40,5733	   0,0405481	74,4	   0,0409214	74,5
     40,5762	   0,0406353	74,7	   0,0402309	73,4
     40,5792	   0,0406902	74,8	   0,0408262	74,4
     40,5821	   0,0405845	74,7	   0,0404554	74,5
      40,585	   0,0409045	74,8	   0,0408781	74,3
      40,588	   0,0408374	74,7	    0,040477	73,9
     40,5909	   0,0410257	74,6	   0,0402577	73,8
     40,5938	   0,0409946	74,9	    0,040431	74,1
     40,5968	   0,0411364	74,5	   0,0404728	73,9
     40,5997	   0,0412098	74,8	    0,041146	74,5
     40,6026	   0,0412235	75,0	   0,0411451	75,3
     40,6056	   0,0411883	74,5	    0,041044	74,7
     40,6085	   0,0412743	74,9	   0,0411065	74,5
     40,6114	   0,0414651	74,6	   0,0411659	74,7
     40,6144	   0,0413463	74,6	   0,0408302	73,9
     40,6173	   0,0414374	74,8	   0,0415184	75,1
     40,6202	   0,0415332	74,4	   0,0413274	75,0
     40,6232	   0,0415719	74,6	   0,0411957	74,9
     40,6261	   0,0416199	74,9	   0,0418348	74,8
      40,629	   0,0414146	74,9	   0,0417618	75,2
      40,632	   0,0416521	74,7	   0,0415878	74,4
     40,6349	   0,0416542	74,7	   0,0415142	75,4
     40,6378	   0,0418542	74,7	   0,0413747	75,0
     40,6408	   0,0417459	74,8	   0,0414035	74,6
     40,6437	   0,0419488	74,8	   0,0419973	74,9
     40,6466	   0,0416151	74,8	   0,0418522	74,7
     40,6496	   0,0419647	74,9	   0,0418226	74,5
     40,6525	   0,0419853	74,9	   0,0417565	75,3
     40,6554	   0,0421083	74,6	   0,0413838	74,3
     40,6584	   0,0420785	75,3	   0,0423603	74,7
     40,6613	   0,0415941	75,1	   0,0419159	74,7
     40,6642	   0,0422759	74,9	   0,0420965	74,8
     40,6672	   0,0422313	75,1	   0,0423766	75,2
     40,6701	   0,0423082	75,0	   0,0422353	74,5
      40,673	   0,0423524	74,9	   0,0424641	74,9
      40,676	   0,0424156	74,9	   0,0421479	75,2
     40,6789	   0,0425034	74,8	   0,0419618	75,0
     40,6818	   0,0424441	75,1	   0,0426136	74,8
     40,6847	   0,0426112	75,1	   0,0428153	74,8
     40,6877	   0,0426075	75,2	   0,0423385	75,3
     40,6906	   0,0426222	75,3	   0,0428966	75,2
     40,6936	    0,042669	75,2	   0,0427897	75,2
     40,6965	   0,0427669	74,9	   0,0429749	75,1
     40,6994	    0,042804	75,1	   0,0428511	74,9
     40,7023	   0,0429053	75,0	   0,0428677	75,3
     40,7053	    0,042957	74,9	   0,0428594	75,3
     40,7082	   0,0429329	75,3	   0,0427025	74,5
     40,7111	   0,0431154	75,4	    0,042696	74,4
     40,7141	   0,0429321	75,3	   0,0428926	75,1
      40,717	   0,0431838	75,7	   0,0428226	75,3
     40,7199	   0,0432032	75,5	   0,0427794	74,5
     40,7229	   0,0431885	75,4	   0,0430525	74,6
     40,7258	   0,0433311	75,4	   0,0431304	74,3
     40,7287	   0,0433357	75,2	   0,0432037	74,9
     40,7317	   0,0434852	75,2	    0,043418	75,3
     40,7346	   0,0434895	75,5	   0,0432097	75,1
     40,7375	   0,0434815	75,6	    0,043646	75,4
     40,7405	   0,0436273	75,5	   0,0437622	75,1
     40,7434	   0,0435683	75,6	   0,0437649	75,2
     40,7463	    0,043654	75,9	   0,0438015	75,4
     40,7493	   0,0437622	75,3	   0,0434887	74,9
     40,7522	   0,0437686	75,5	    0,044038	75,5
     40,7551	   0,0438055	75,5	   0,0440592	75,5
     40,7581	   0,0438493	75,2	   0,0436932	74,7
      40,761	   0,0439684	75,5	   0,0438874	75,5
     40,7639	   0,0440528	75,6	   0,0437598	75,8
     40,7669	    0,044135	75,5	   0,0437726	74,8
     40,7698	   0,0441868	75,8	   0,0439847	74,7
     40,7727	   0,0441402	75,6	   0,0439213	75,0
     40,7757	    0,044193	75,4	   0,0443624	76,2
     40,7786	   0,0442483	75,4	   0,0439877	75,8
     40,7815	   0,0444595	75,6	   0,0441082	75,3
     40,7845	   0,0443899	75,5	   0,0439505	76,0
     40,7874	     0,04438	75,2	   0,0442152	75,7
     40,7903	   0,0445269	75,6	   0,0440004	75,9
     40,7933	   0,0445265	75,9	   0,0442569	76,0
     40,7962	   0,0445042	75,5	   0,0447078	75,9
     40,7991	   0,0446229	75,7	   0,0448954	75,7
     40,8021	   0,0447973	75,8	   0,0449611	75,9
      40,805	   0,0447283	75,6	   0,0448164	75,8
     40,8079	   0,0449186	75,8	   0,0446336	75,8
     40,8109	   0,0448475	76,2	   0,0448735	75,2
     40,8138	   0,0449747	75,8	   0,0451374	76,1
     40,8167	   0,0450757	76,0	   0,0452319	75,6
     40,8196	   0,0450943	75,8	   0,0453329	75,9
     40,8226	   0,0451671	75,7	   0,0453418	75,9
     40,8255	   0,0451558	76,0	   0,0450058	75,0
     40,8284	   0,0452787	76,2	   0,0450802	75,6
     40,8314	     0,04535	76,0	   0,0450845	75,2
     40,8343	   0,0453866	76,0	   0,0451199	75,3
     40,8372	   0,0454284	76,0	    0,045227	75,2
     40,8402	   0,0455067	76,2	   0,0453317	75,5
     40,8431	   0,0455371	75,7	   0,0453858	75,1
      40,846	   0,0456319	76,2	   0,0452294	75,6
      40,849	   0,0456891	76,0	   0,0454887	76,6
     40,8519	    0,045748	75,8	    0,045505	76,4
     40,8548	   0,0457866	76,4	   0,0456177	76,0
     40,8578	   0,0458039	76,1	    0,045563	76,4
     40,8607	   0,0460274	75,7	   0,0456879	76,2
     40,8636	   0,0459901	75,6	    0,045768	76,3
     40,8666	   0,0460779	76,2	   0,0459115	76,3
     40,8695	   0,0461365	75,8	   0,0462656	76,6
     40,8724	   0,0461949	75,8	   0,0464693	76,0
     40,8754	   0,0462422	76,5	    0,046404	75,8
     40,8783	   0,0463635	76,5	   0,0460308	75,3
     40,8812	   0,0462841	76,7	   0,0465904	76,0
     40,8842	   0,0465371	76,5	   0,0467683	75,9
     40,8871	   0,0464092	76,5	   0,0461996	75,5
       40,89	   0,0466014	76,2	   0,0463717	75,8
      40,893	   0,0465817	76,1	   0,0464693	75,5
     40,8959	   0,0466336	76,7	   0,0464483	75,6
     40,8988	   0,0467578	76,3	    0,046618	76,6
     40,9018	   0,0468243	76,1	   0,0465045	77,0
     40,9047	   0,0468568	76,3	   0,0471844	76,6
     40,9076	   0,0470091	76,4	   0,0468443	77,1
     40,9106	   0,0470187	76,4	   0,0469866	76,7
     40,9135	   0,0469874	76,5	   0,0473788	76,6
     40,9164	   0,0472259	76,5	   0,0471025	77,0
     40,9194	   0,0472756	76,3	   0,0474999	76,8
     40,9223	   0,0472146	76,4	   0,0475075	76,5
     40,9252	   0,0474445	76,7	   0,0473338	75,9
     40,9282	   0,0474155	76,5	   0,0475462	76,3
     40,9311	    0,047483	76,6	   0,0476853	76,8
      40,934	   0,0476004	76,8	   0,0473736	75,9
      40,937	   0,0476013	76,8	   0,0479714	76,5
     40,9399	   0,0476573	76,8	   0,0475679	76,7
     40,9428	   0,0478401	76,6	   0,0480138	76,7
     40,9457	   0,0477915	76,6	   0,0480987	76,9
     40,9487	   0,0479022	76,8	   0,0482008	76,8
     40,9516	   0,0479539	76,7	   0,0483099	77,3
     40,9545	   0,0481083	76,4	   0,0482784	76,8
     40,9575	   0,0480964	76,7	   0,0484463	76,7
     40,9604	   0,0481809	77,2	   0,0485206	76,8
     40,9633	   0,0482815	76,9	   0,0485854	76,9
     40,9663	   0,0482882	76,9	   0,0486053	76,8
     40,9692	   0,0484124	77,2	   0,0483301	76,3
     40,9721	   0,0485251	77,1	   0,0486134	76,8
     40,9751	   0,0485203	76,7	   0,0488298	77,3
      40,978	   0,0487069	77,4	   0,0486897	77,3
     40,9809	   0,0486827	77,2	    0,049081	77,1
     40,9839	   0,0487699	76,8	   0,0489805	77,4
     40,9868	   0,0488351	76,4	    0,049108	77,3
     40,9897	   0,0488795	76,9	   0,0491634	77,0
     40,9927	   0,0490347	76,6	   0,0493626	77,3
     40,9956	   0,0490055	77,0	   0,0492937	77,3
     40,9985	   0,0491155	77,0	   0,0494954	77,0
     41,0015	   0,0492172	77,1	   0,0491217	76,5
     41,0044	   0,0493239	77,5	   0,0493704	76,9
     41,0073	   0,0493756	77,1	   0,0490586	76,6
     41,0103	   0,0492963	77,2	   0,0487301	76,5
     41,0132	   0,0495245	77,3	   0,0492683	77,3
     41,0161	   0,0495726	77,3	   0,0495883	77,0
     41,0191	   0,0496447	77,0	   0,0495918	77,6
      41,022	   0,0497337	76,9	   0,0500104	77,4
     41,0249	   0,0497114	77,4	    0,050125	77,2
     41,0279	   0,0498713	77,7	   0,0502711	77,2
     41,0308	   0,0499664	77,2	   0,0503081	77,2
     41,0337	   0,0500887	77,6	   0,0504017	77,2
     41,0367	   0,0501271	77,6	   0,0500667	76,8
     41,0396	   0,0501378	77,6	   0,0505018	77,7
     41,0425	   0,0502594	77,7	   0,0505954	77,9
     41,0455	   0,0504193	77,5	   0,0507251	77,9
     41,0484	   0,0504502	77,7	   0,0508247	77,9
     41,0513	   0,0504861	77,6	   0,0504829	78,0
     41,0543	   0,0506045	77,5	   0,0509385	77,7
     41,0572	   0,0506731	77,6	   0,0510488	77,8
     41,0601	   0,0506837	77,9	   0,0510899	77,4
      41,063	   0,0508878	78,0	    0,051302	77,8
      41,066	   0,0508243	77,7	   0,0509453	77,9
     41,0689	   0,0510197	77,5	   0,0513586	78,1
     41,0718	   0,0511018	77,9	    0,051374	77,9
     41,0748	   0,0510443	77,9	   0,0511942	78,1
     41,0777	   0,0512695	77,4	   0,0516967	78,2
     41,0806	   0,0512335	77,5	    0,051636	78,0
     41,0836	   0,0513264	77,9	   0,0517769	78,0
     41,0865	   0,0514987	77,6	   0,0519895	78,2
     41,0894	   0,0516257	77,8	    0,051884	77,9
     41,0924	   0,0517099	77,9	   0,0520722	78,0
     41,0953	   0,0517898	77,9	   0,0522385	78,1
     41,0982	   0,0518631	78,1	   0,0522199	78,3
     41,1012	   0,0518739	77,9	   0,0522601	78,4
     41,1041	    0,051978	77,7	   0,0524799	78,2
      41,107	   0,0521033	77,9	   0,0524786	78,1
       41,11	   0,0521393	78,0	   0,0525408	78,1
     41,1129	   0,0523626	77,8	   0,0528053	78,3
     41,1158	   0,0523571	78,1	   0,0527188	78,3
     41,1188	   0,0525532	78,3	   0,0527817	78,2
     41,1217	   0,0525195	78,3	   0,0529266	78,4
     41,1246	   0,0525974	78,3	   0,0530359	78,8
     41,1276	   0,0527638	78,5	   0,0531889	78,7
     41,1305	   0,0528145	78,7	   0,0532522	78,2
     41,1334	     0,05294	78,5	   0,0533164	78,2
     41,1364	   0,0530217	78,2	   0,0534331	78,7
     41,1393	   0,0531144	78,0	   0,0535298	78,6
     41,1422	   0,0532246	78,3	   0,0536145	78,4
     41,1452	   0,0533188	78,5	   0,0537499	78,7
     41,1481	    0,053385	78,6	    0,053789	78,9
      41,151	   0,0535476	78,3	   0,0538335	79,2
      41,154	   0,0535796	78,1	   0,0540227	79,0
     41,1569	   0,0535078	78,4	   0,0541234	78,5
     41,1598	    0,053778	78,4	   0,0541418	78,8
     41,1628	   0,0538504	78,2	   0,0541938	79,0
     41,1657	   0,0538843	78,4	   0,0544321	78,9
     41,1686	   0,0539934	78,6	    0,054409	79,3
     41,1716	   0,0540302	79,0	   0,0545447	78,8
     41,1745	   0,0541885	78,7	   0,0543014	79,2
     41,1774	    0,054358	78,5	   0,0547343	79,0
     41,1804	   0,0544153	78,4	   0,0549552	79,1
     41,1833	   0,0544851	78,9	   0,0549698	78,9
     41,1862	   0,0546233	78,6	   0,0551531	79,0
     41,1891	   0,0547024	78,8	   0,0544321	79,0
     41,1921	   0,0547611	78,7	   0,0547808	80,4
      41,195	   0,0548812	79,3	   0,0554173	79,5
     41,1979	   0,0550441	79,3	   0,0554602	79,7
     41,2009	   0,0551183	79,1	   0,0555007	79,2
     41,2038	   0,0551063	78,8	   0,0556083	79,2
     41,2067	    0,055294	78,8	   0,0558063	79,5
     41,2097	   0,0553778	78,9	   0,0558405	79,9
     41,2126	    0,055383	79,2	   0,0560105	79,3
     41,2155	   0,0555724	79,3	   0,0561555	79,8
     41,2185	   0,0556676	79,4	    0,056087	81,1
     41,2214	   0,0558072	79,1	   0,0564255	79,5
     41,2243	   0,0558185	79,1	    0,056243	79,6
     41,2273	   0,0559457	79,5	   0,0565047	79,3
     41,2302	    0,055967	79,4	   0,0566854	79,5
     41,2331	   0,0562988	80,5	   0,0568287	81,9
     41,2361	   0,0563848	79,9	   0,0568792	79,7
      41,239	   0,0564582	79,9	   0,0570054	79,5
     41,2419	   0,0565094	79,9	   0,0571461	79,8
     41,2449	    0,056609	79,7	   0,0572046	80,0
     41,2478	   0,0567302	79,7	     0,05723	81,1
     41,2507	   0,0568446	80,4	   0,0575621	80,9
     41,2537	   0,0569376	79,9	   0,0574769	79,9
     41,2566	   0,0570517	81,0	   0,0575653	80,5
     41,2595	   0,0572244	80,3	   0,0576011	79,7
     41,2625	   0,0573041	79,5	    0,057885	79,9
     41,2654	   0,0574378	79,9	   0,0579362	80,5
     41,2683	   0,0575122	79,6	    0,058037	80,1
     41,2713	   0,0574618	80,0	   0,0583015	81,0
     41,2742	   0,0574861	80,9	   0,0582933	80,2
     41,2771	   0,0578021	80,7	   0,0584785	80,6
     41,2801	    0,057906	81,0	   0,0585471	80,4
      41,283	   0,0580728	79,9	   0,0584252	80,7
     41,2859	   0,0582123	80,0	   0,0587375	80,4
     41,2889	   0,0579056	80,0	   0,0588834	80,3
     41,2918	   0,0584201	80,4	   0,0589676	80,8
     41,2947	   0,0584908	81,3	   0,0589277	81,3
     41,2977	   0,0586195	81,0	   0,0591845	80,4
     41,3006	   0,0587527	80,0	    0,059317	80,5
     41,3035	   0,0589955	80,2	   0,0594233	80,6
     41,3064	    0,059207	80,3	   0,0595799	80,8
     41,3094	   0,0590658	81,1	   0,0597834	81,2
     41,3123	   0,0592438	81,5	   0,0597709	81,5
     41,3153	   0,0593516	81,2	   0,0599649	80,9
     41,3182	   0,0594208	80,0	   0,0600743	80,6
     41,3211	   0,0595402	80,8	   0,0602492	80,8
      41,324	   0,0595177	81,3	   0,0606553	82,2
      41,327	   0,0597139	81,7	   0,0605203	81,4
     41,3299	   0,0599849	81,1	   0,0606129	81,0
     41,3328	   0,0601317	81,2	   0,0607653	81,2
     41,3358	   0,0600023	81,3	   0,0609362	80,7
     41,3387	   0,0603791	80,8	   0,0609621	81,1
     41,3416	    0,060552	81,0	   0,0611717	81,3
     41,3446	    0,060515	81,5	   0,0613218	81,5
     41,3475	   0,0606583	81,3	   0,0614906	80,9
     41,3504	   0,0607119	81,6	   0,0615886	80,7
     41,3534	   0,0609346	81,2	   0,0617555	81,1
     41,3563	   0,0611241	81,7	   0,0618833	81,8
     41,3592	   0,0610521	82,3	   0,0619398	81,7
     41,3622	   0,0612505	82,0	   0,0622154	81,7
     41,3651	   0,0614202	81,6	    0,062356	81,3
      41,368	   0,0616477	81,5	   0,0623465	81,3
      41,371	   0,0616676	82,0	   0,0625824	81,4
     41,3739	   0,0618495	82,2	   0,0627731	82,5
     41,3768	   0,0620282	82,1	    0,062827	82,2
     41,3798	   0,0620266	82,1	   0,0629853	82,1
     41,3827	   0,0621232	82,4	   0,0630959	81,6
     41,3856	     0,06256	81,6	   0,0629278	81,3
     41,3886	   0,0624587	82,2	   0,0633459	81,9
     41,3915	   0,0628567	82,0	   0,0635663	82,4
     41,3944	   0,0629396	81,6	   0,0636982	82,2
     41,3974	   0,0629178	82,5	   0,0641274	82,4
     41,4003	   0,0630499	82,5	   0,0640072	81,6
     41,4032	    0,063285	82,6	    0,064078	82,1
     41,4062	   0,0636631	82,1	   0,0642607	82,2
     41,4091	   0,0637433	81,8	   0,0644346	82,8
      41,412	   0,0640387	82,2	   0,0646037	82,5
      41,415	    0,064061	82,2	   0,0648482	82,4
     41,4179	   0,0641355	82,8	   0,0649152	82,7
     41,4208	   0,0644338	82,5	   0,0649465	82,4
     41,4238	   0,0645197	82,4	   0,0652103	82,6
     41,4267	   0,0645985	82,2	   0,0653611	82,5
     41,4296	    0,064728	82,4	    0,065627	82,7
     41,4326	   0,0650694	82,6	   0,0656959	82,7
     41,4355	   0,0651589	82,8	   0,0658427	82,9
     41,4384	    0,065454	82,7	   0,0659876	82,8
     41,4413	   0,0653461	82,1	   0,0660804	82,6
     41,4443	   0,0654447	82,7	   0,0664412	82,7
     41,4472	   0,0658865	82,5	   0,0665449	83,0
     41,4501	   0,0659588	83,0	   0,0667293	83,4
     41,4531	   0,0661213	83,1	   0,0668142	83,5
      41,456	   0,0661602	83,0	   0,0670701	83,1
     41,4589	   0,0664238	83,1	   0,0671081	83,1
     41,4619	   0,0666332	83,3	   0,0671053	83,0
     41,4648	   0,0667808	83,3	   0,0675364	83,5
     41,4677	   0,0668851	83,3	   0,0677832	83,8
     41,4707	   0,0671003	83,0	   0,0678103	83,6
     41,4736	   0,0672485	83,3	   0,0679169	83,5
     41,4765	   0,0674025	83,1	   0,0682214	83,4
     41,4795	   0,0676053	83,1	   0,0682456	83,7
     41,4824	   0,0678183	83,3	    0,068469	83,7
     41,4853	     0,06805	83,0	   0,0686335	83,5
     41,4883	   0,0681389	83,4	   0,0689567	83,9
     41,4912	   0,0683512	83,8	   0,0691442	84,1
     41,4941	   0,0685321	84,1	   0,0693917	84,2
     41,4971	   0,0686698	84,0	   0,0694747	84,1
        41,5	   0,0688765	83,7	   0,0695377	84,0
     41,5029	   0,0690167	84,1	   0,0698267	84,3
     41,5059	   0,0692612	83,9	   0,0699931	84,5
     41,5088	   0,0694143	84,2	   0,0700858	84,8
     41,5117	   0,0695674	84,0	   0,0703046	84,5
     41,5147	   0,0697643	84,2	   0,0706174	84,4
     41,5176	   0,0699662	84,4	   0,0707642	84,6
     41,5205	   0,0702415	84,3	   0,0709511	84,7
     41,5235	   0,0702888	84,4	   0,0712855	85,0
     41,5264	    0,070462	84,0	   0,0714158	85,1
     41,5293	   0,0707827	84,6	   0,0715559	84,9
     41,5323	    0,071017	84,6	   0,0717838	85,3
     41,5352	    0,071045	84,7	   0,0719849	85,4
     41,5381	   0,0712777	84,8	   0,0720832	85,2
     41,5411	    0,071572	84,6	   0,0722525	84,8
      41,544	    0,071677	84,8	   0,0726633	85,5
     41,5469	   0,0717337	84,6	   0,0728483	85,4
     41,5499	   0,0721191	85,0	   0,0730073	85,8
     41,5528	   0,0721282	84,5	   0,0733085	85,7
     41,5557	   0,0723671	85,2	   0,0734105	85,6
     41,5587	    0,072641	85,4	   0,0737006	86,2
     41,5616	      0,0729	85,6	   0,0738244	85,7
     41,5645	   0,0731585	85,5	   0,0740782	85,7
     41,5674	   0,0732628	85,4	   0,0742305	85,6
     41,5704	   0,0734377	86,1	   0,0744331	85,9
     41,5733	   0,0737677	85,5	   0,0747434	86,0
     41,5762	   0,0740197	85,6	   0,0749338	86,5
     41,5792	   0,0740373	85,7	   0,0751672	86,3
     41,5821	   0,0742246	85,7	   0,0753841	86,5
      41,585	   0,0746141	86,3	   0,0755809	86,5
      41,588	    0,074896	86,4	   0,0758865	86,8
     41,5909	   0,0751312	86,2	    0,076025	86,5
     41,5938	   0,0753869	86,3	   0,0762881	86,5
     41,5968	   0,0755063	86,2	   0,0765166	86,8
     41,5997	   0,0756338	86,4	   0,0768542	87,4
     41,6026	   0,0760541	86,4	   0,0769907	87,2
     41,6056	   0,0760919	86,6	   0,0772852	87,1
     41,6085	   0,0764124	86,9	   0,0776048	87,5
     41,6114	   0,0767635	86,9	   0,0778112	87,2
     41,6144	   0,0769705	87,0	   0,0780319	87,5
     41,6173	   0,0772098	86,7	   0,0782081	87,3
     41,6202	    0,077493	87,1	   0,0784025	87,3
     41,6232	   0,0776738	87,3	   0,0787313	87,7
     41,6261	   0,0778166	87,2	    0,079035	87,8
      41,629	   0,0780666	87,3	   0,0792863	88,3
      41,632	   0,0782761	87,6	   0,0796068	87,8
     41,6349	    0,078619	87,6	   0,0799347	88,6
     41,6378	   0,0790488	87,6	   0,0800464	88,5
     41,6408	   0,0792301	87,5	   0,0802906	88,2
     41,6437	   0,0793959	87,7	   0,0806777	88,2
     41,6466	   0,0796883	88,1	   0,0808693	88,5
     41,6496	    0,079903	88,2	   0,0811699	88,7
     41,6525	    0,080384	88,2	    0,081483	89,1
     41,6554	   0,0804242	88,0	   0,0816792	88,9
     41,6584	   0,0807213	88,3	   0,0820037	89,2
     41,6613	   0,0810297	88,4	   0,0821404	89,4
     41,6642	   0,0813369	88,8	   0,0825397	89,1
     41,6672	    0,081437	88,8	   0,0828341	88,9
     41,6701	   0,0819176	89,2	   0,0831531	89,5
      41,673	   0,0821698	89,2	   0,0833905	89,6
      41,676	   0,0825897	88,8	   0,0836501	89,3
     41,6789	   0,0826533	88,9	   0,0840785	89,7
     41,6818	   0,0829072	89,2	   0,0845195	90,4
     41,6847	   0,0833213	89,5	   0,0846996	90,7
     41,6877	    0,083472	89,4	   0,0848093	90,0
     41,6906	   0,0838177	89,8	   0,0853169	90,5
     41,6936	   0,0841055	90,1	    0,085753	90,9
     41,6965	   0,0845461	90,2	    0,085916	90,8
     41,6994	   0,0847366	90,2	   0,0862156	90,7
     41,7023	   0,0849718	89,8	    0,086515	90,9
     41,7053	     0,08544	90,3	    0,086909	91,2
     41,7082	    0,085817	90,4	   0,0872082	91,4
     41,7111	   0,0858276	90,4	   0,0875956	91,2
     41,7141	   0,0862769	90,5	   0,0879698	91,7
      41,717	   0,0866721	91,0	   0,0882777	91,8
     41,7199	   0,0871012	90,9	    0,088592	91,6
     41,7229	   0,0873936	91,0	   0,0889281	91,9
     41,7258	   0,0877451	91,4	   0,0892822	92,6
     41,7287	    0,088153	91,8	    0,089647	92,6
     41,7317	   0,0885161	91,8	    0,090001	92,5
     41,7346	   0,0887956	92,1	   0,0905374	92,3
     41,7375	   0,0890737	91,7	   0,0908323	92,8
     41,7405	   0,0895256	91,9	   0,0911682	92,7
     41,7434	   0,0897925	92,0	   0,0915286	92,6
     41,7463	   0,0905385	92,3	   0,0920108	93,3
     41,7493	   0,0906938	92,4	   0,0924031	93,5
     41,7522	   0,0911499	92,5	   0,0927507	93,3
     41,7551	   0,0913993	92,6	    0,093177	93,8
     41,7581	   0,0915654	92,9	   0,0936249	93,9
      41,761	   0,0921482	93,4	    0,094033	94,4
     41,7639	   0,0924401	93,1	   0,0944963	94,4
     41,7669	   0,0929182	93,5	   0,0947972	94,8
     41,7698	   0,0931509	93,9	   0,0952428	94,9
     41,7727	   0,0935871	93,9	   0,0955482	94,8
     41,7757	   0,0937516	94,0	   0,0960753	94,7
     41,7786	   0,0944003	93,8	   0,0965288	95,1
     41,7815	   0,0948189	94,5	   0,0970222	95,5
     41,7845	   0,0949306	94,2	   0,0974749	95,4
     41,7874	   0,0952918	94,4	   0,0979661	95,8
     41,7903	    0,095883	94,6	   0,0984427	96,8
     41,7933	   0,0962979	95,3	   0,0989025	96,6
     41,7962	   0,0965807	94,9	   0,0992759	96,5
     41,7991	    0,097183	95,3	   0,0997375	97,1
     41,8021	   0,0977425	95,8	    0,100197	97,2
      41,805	   0,0983529	96,2	    0,100797	97,3
     41,8079	   0,0987583	96,1	    0,101204	97,3
     41,8109	   0,0990324	96,5	    0,101683	98,2
     41,8138	   0,0993763	96,4	     0,10225	97,8
     41,8167	   0,0998761	96,7	    0,102831	98,2
     41,8196	    0,100309	96,9	      0,1035	98,4
     41,8226	    0,100863	97,6	    0,103892	98,8
     41,8255	    0,101254	97,4	    0,104416	98,7
     41,8284	     0,10159	97,7	    0,105042	99,3
     41,8314	    0,102161	98,0	    0,105634	99,8
     41,8343	    0,102498	98,1	    0,106245	99,8
     41,8372	    0,103036	98,1	     0,10686	99,9
     41,8402	    0,103642	98,4	     0,10737	100,5
     41,8431	    0,104225	99,1	    0,107926	100,6
      41,846	     0,10456	99,0	    0,108497	101,2
      41,849	    0,105546	99,5	    0,109083	101,8
     41,8519	    0,105996	99,8	    0,109616	101,9
     41,8548	    0,106493	100,5	    0,110132	102,1
     41,8578	    0,107146	100,5	    0,110889	102,3
     41,8607	    0,107839	101,1	    0,111448	102,9
     41,8636	    0,108074	101,1	    0,112019	103,0
     41,8666	    0,108867	101,3	    0,112468	103,7
     41,8695	    0,109584	102,1	    0,112808	103,8
     41,8724	    0,110178	102,5	    0,113316	103,9
     41,8754	    0,110608	102,2	    0,113337	103,9
     41,8783	    0,111457	103,1	    0,113221	104,7
     41,8812	    0,111779	103,7	    0,116636	106,3
     41,8842	    0,112267	103,9	    0,117923	106,3
     41,8871	     0,11308	104,1	    0,118229	106,8
       41,89	     0,11358	104,8	    0,119259	107,6
      41,893	    0,113941	104,8	    0,120452	107,8
     41,8959	    0,115015	104,8	    0,121576	107,8
     41,8988	    0,115291	105,6	    0,122379	108,9
     41,9018	    0,115741	105,9	    0,122857	109,9
     41,9047	     0,11662	106,3	     0,12366	109,7
     41,9076	    0,117223	106,7	    0,124699	110,4
     41,9106	    0,117643	107,2	    0,124889	111,0
     41,9135	    0,118412	107,3	    0,126259	110,7
     41,9164	    0,119136	108,2	     0,12705	111,7
     41,9194	    0,120049	109,0	    0,127384	112,7
     41,9223	    0,120602	108,6	    0,128626	112,4
     41,9252	    0,121628	109,5	     0,12934	113,5
     41,9282	    0,121982	109,4	    0,129835	113,9
     41,9311	    0,122728	109,5	    0,131186	114,3
      41,934	    0,123854	110,7	    0,130947	114,8
      41,937	    0,124565	111,7	    0,132631	115,6
     41,9399	    0,124607	111,5	    0,132604	116,0
     41,9428	    0,125298	112,4	    0,134125	116,3
     41,9457	    0,126469	113,5	    0,134795	117,2
     41,9487	    0,126735	113,2	    0,135578	117,5
     41,9516	    0,127887	113,7	    0,136364	118,0
     41,9545	    0,128943	114,5	     0,13714	118,7
     41,9575	    0,129396	114,7	    0,137728	119,2
     41,9604	     0,13035	115,3	    0,137757	119,7
     41,9633	    0,130931	116,4	    0,138471	120,5
     41,9663	    0,131924	116,2	    0,138827	120,6
     41,9692	    0,133183	117,2	    0,139195	120,7
     41,9721	    0,133251	117,8	     0,13912	121,5
     41,9751	    0,134182	118,5	    0,142656	123,5
      41,978	     0,13529	118,9	    0,142646	124,0
     41,9809	    0,135641	119,8	    0,143488	125,1
     41,9839	    0,136736	119,8	    0,143838	125,4
     41,9868	    0,137559	120,7	     0,14427	126,0
     41,9897	    0,138119	121,7	    0,144765	127,0
     41,9927	      0,1387	121,9	    0,145785	127,0
     41,9956	    0,140079	122,8	    0,145777	127,9
     41,9985	    0,140195	123,4	    0,146791	128,2
     42,0015	    0,141272	123,4	    0,146795	128,9
     42,0044	    0,141081	124,5	    0,147679	129,5
     42,0073	     0,14212	125,6	    0,148203	130,6
     42,0103	    0,143096	125,9	    0,148714	130,8
     42,0132	    0,143456	126,2	    0,149114	131,0
     42,0161	    0,144415	127,0	    0,149354	132,1
     42,0191	    0,145113	127,3	    0,149516	132,5
      42,022	    0,145818	128,6	    0,150511	133,0
     42,0249	    0,146264	129,2	    0,150392	133,5
     42,0279	    0,147262	129,3	    0,150876	133,9
     42,0308	    0,147209	130,4	    0,150914	134,7
     42,0337	    0,148052	131,2	    0,151122	135,5
     42,0367	    0,148296	131,4	     0,15159	135,4
     42,0396	    0,149434	132,1	    0,151466	136,1
     42,0425	    0,149503	132,8	    0,152505	136,9
     42,0455	    0,149725	133,3	    0,152517	137,1
     42,0484	     0,15032	134,6	     0,15112	137,8
     42,0513	    0,150352	134,9	     0,15284	138,1
     42,0543	     0,15195	135,0	    0,152314	139,0
     42,0572	    0,151597	136,1	    0,153183	139,4
     42,0601	    0,152403	136,6	    0,152761	140,0
      42,063	    0,153056	137,2	    0,153249	139,8
      42,066	    0,153223	137,9	    0,153064	141,0
     42,0689	    0,153526	138,0	    0,153745	141,1
     42,0718	      0,1532	139,3	    0,153082	142,3
     42,0748	    0,153162	141,4	    0,153157	142,5
     42,0777	    0,153787	141,0	     0,15415	142,5
     42,0806	    0,154645	141,3	    0,154209	143,1
     42,0836	    0,154222	142,4	     0,15454	143,8
     42,0865	    0,154898	142,3	    0,153983	144,2
     42,0894	    0,154497	143,3	    0,153509	145,0
     42,0924	    0,154611	143,3	    0,153662	145,4
     42,0953	    0,154905	143,3	    0,154139	145,1
     42,0982	    0,155224	144,3	    0,153824	145,9
     42,1012	    0,154798	144,4	    0,154517	146,2
     42,1041	    0,155471	145,0	    0,154078	146,8
      42,107	    0,153898	145,7	    0,154352	146,7
       42,11	    0,154499	146,5	    0,153286	148,1
     42,1129	    0,155591	146,5	    0,154194	147,8
     42,1158	    0,154864	147,4	    0,153616	149,0
     42,1188	    0,155457	147,1	    0,154307	149,1
     42,1217	    0,155852	147,9	    0,153311	148,6
     42,1246	    0,155276	148,8	    0,154967	150,0
     42,1276	    0,156088	148,5	    0,154986	150,2
     42,1305	    0,155073	149,2	    0,154942	151,0
     42,1334	     0,15344	150,1	    0,155241	150,8
     42,1364	    0,154303	150,2	    0,154764	151,5
     42,1393	     0,15397	150,7	    0,154591	152,4
     42,1422	    0,154615	150,8	    0,154813	152,4
     42,1452	     0,15465	151,4	    0,154298	152,7
     42,1481	    0,154521	151,5	    0,153924	153,5
      42,151	    0,154611	152,3	    0,154333	153,5
      42,154	    0,154467	152,4	    0,154215	154,0
     42,1569	    0,153701	152,9	    0,154303	154,1
     42,1598	    0,155253	152,9	     0,15427	154,3
     42,1628	    0,154587	153,8	    0,153673	154,7
     42,1657	    0,154339	153,9	    0,153572	155,3
     42,1686	    0,154499	154,1	    0,152639	155,2
     42,1716	    0,153564	154,3	    0,153699	155,8
     42,1745	    0,154509	154,7	    0,153682	155,4
     42,1774	    0,154069	155,5	    0,153087	156,7
     42,1804	    0,153736	155,6	     0,15343	157,0
     42,1833	    0,153948	155,8	     0,15264	156,5
     42,1862	    0,152401	156,5	     0,15319	157,3
     42,1891	    0,153255	157,0	    0,153157	157,5
     42,1921	    0,152667	157,1	    0,152379	157,2
      42,195	    0,152666	158,1	    0,152029	157,9
     42,1979	    0,152572	158,2	    0,151652	157,7
     42,2009	    0,153028	158,4	    0,152188	158,3
     42,2038	    0,152327	159,1	    0,152116	158,6
     42,2067	    0,152194	159,3	    0,151452	158,8
     42,2097	    0,152148	159,5	    0,151098	159,9
     42,2126	    0,152363	159,9	    0,150624	159,7
     42,2155	    0,152517	160,0	    0,150953	160,3
     42,2185	    0,151321	160,8	    0,149838	160,7
     42,2214	    0,152081	160,7	    0,149921	160,9
     42,2243	    0,151172	161,3	    0,150294	161,2
     42,2273	    0,151537	161,0	    0,149633	161,3
     42,2302	    0,152027	161,4	    0,149903	162,1
     42,2331	    0,150574	161,9	    0,148989	162,2
     42,2361	    0,150459	161,9	    0,150103	162,3
      42,239	    0,150836	162,7	    0,149852	163,3
     42,2419	    0,150992	163,1	    0,149283	163,0
     42,2449	    0,150117	163,9	    0,150354	163,3
     42,2478	    0,150045	163,8	    0,149587	163,4
     42,2507	    0,149364	163,5	    0,149046	164,0
     42,2537	    0,149546	164,8	    0,150036	164,0
     42,2566	     0,14995	164,6	    0,148516	164,5
     42,2595	    0,150055	164,8	    0,148683	165,2
     42,2625	    0,149717	165,2	    0,148158	164,9
     42,2654	    0,148437	165,4	    0,148425	165,4
     42,2683	    0,149041	165,9	     0,14786	166,0
     42,2713	     0,14838	166,0	    0,148256	165,6
     42,2742	    0,148759	166,0	    0,147886	166,5
     42,2771	    0,147844	166,8	     0,14795	166,9
     42,2801	    0,147907	166,2	    0,147479	167,5
      42,283	    0,147201	167,2	     0,14758	167,4
     42,2859	    0,147477	166,9	    0,147502	167,4
     42,2889	    0,147595	168,1	    0,146942	168,5
     42,2918	    0,146471	167,9	    0,146225	167,8
     42,2947	    0,146558	167,8	    0,146125	168,3
     42,2977	    0,146935	168,6	    0,146775	168,9
     42,3006	    0,145723	168,8	    0,146184	168,5
     42,3035	    0,146336	169,5	     0,14581	169,2
     42,3064	    0,145593	169,0	     0,14547	168,7
     42,3094	    0,145201	169,7	    0,145402	169,8
     42,3123	    0,145737	170,3	    0,145446	169,7
     42,3153	    0,145081	169,7	    0,144863	169,6
     42,3182	    0,145317	170,1	    0,145012	170,4
     42,3211	    0,144955	170,4	    0,144608	170,5
      42,324	    0,144455	170,7	    0,144884	170,6
      42,327	    0,144343	170,5	    0,144089	171,1
     42,3299	     0,14414	170,5	       0,144	171,4
     42,3328	    0,143931	171,0	    0,143446	171,9
     42,3358	    0,143398	171,3	    0,143797	171,7
     42,3387	    0,143901	171,7	    0,143288	172,7
     42,3416	    0,143902	171,7	    0,142767	172,0
     42,3446	    0,142591	173,0	    0,142926	172,5
     42,3475	    0,142885	172,6	    0,142489	172,2
     42,3504	    0,142568	172,9	    0,142379	172,8
     42,3534	     0,14253	173,9	    0,142044	173,4
     42,3563	    0,141867	173,4	    0,141737	173,0
     42,3592	     0,14183	174,1	    0,141918	173,9
     42,3622	    0,141839	174,1	    0,142062	173,8
     42,3651	    0,141293	174,3	     0,14119	174,2
      42,368	    0,141048	174,1	    0,140858	174,7
      42,371	    0,140244	174,5	    0,140642	174,6
     42,3739	    0,140545	174,6	    0,140349	175,1
     42,3768	    0,140205	174,2	    0,139873	174,7
     42,3798	    0,139435	175,5	    0,139844	176,0
     42,3827	    0,139777	175,3	    0,139284	175,3
     42,3856	    0,139363	175,1	    0,139325	175,8
     42,3886	    0,139006	176,5	    0,138863	175,7
     42,3915	     0,13832	176,5	    0,138627	175,7
     42,3944	    0,138258	176,4	    0,138783	176,7
     42,3974	    0,137706	176,3	    0,138588	176,6
     42,4003	    0,138501	177,4	    0,137741	177,5
     42,4032	    0,137572	176,9	    0,137192	176,9
     42,4062	    0,138047	177,1	     0,13785	177,6
     42,4091	    0,136905	177,6	    0,137603	177,6
      42,412	    0,136874	177,4	    0,137252	178,2
      42,415	    0,136051	177,9	    0,136703	178,6
     42,4179	    0,136372	177,9	    0,136318	178,0
     42,4208	    0,136184	178,8	    0,136721	178,5
     42,4238	     0,13613	178,4	    0,136171	178,4
     42,4267	    0,135583	179,0	    0,135792	178,6
     42,4296	    0,135714	178,5	    0,134883	178,3
     42,4326	    0,135084	179,6	    0,135013	179,0
     42,4355	    0,134691	178,8	    0,135011	179,1
     42,4384	    0,134538	179,6	    0,134595	179,7
     42,4413	     0,13466	179,1	    0,134638	179,1
     42,4443	    0,133993	179,4	    0,134329	179,7
     42,4472	     0,13382	180,3	    0,133416	180,8
     42,4501	     0,13377	180,1	    0,133781	179,9
     42,4531	    0,133442	181,5	    0,133255	180,9
      42,456	    0,133471	181,1	    0,133186	180,4
     42,4589	    0,132707	181,4	    0,132997	181,4
     42,4619	    0,132672	181,3	    0,132193	181,6
     42,4648	    0,132076	181,4	    0,132708	181,5
     42,4677	     0,13171	180,9	    0,131861	181,3
     42,4707	    0,131738	181,5	    0,131461	182,5
     42,4736	    0,131373	182,2	    0,131773	182,7
     42,4765	    0,131524	181,7	    0,131056	181,9
     42,4795	     0,13055	182,7	     0,13097	182,7
     42,4824	    0,130865	182,5	    0,130374	182,2
     42,4853	    0,130367	182,7	    0,130134	183,1
     42,4883	    0,130298	182,7	    0,130209	182,7
     42,4912	    0,129835	183,1	    0,129675	183,6
     42,4941	    0,129744	183,0	    0,129993	183,2
     42,4971	    0,129101	183,4	    0,129313	183,9
        42,5	    0,129119	183,1	    0,129154	183,3
     42,5029	    0,128122	184,4	    0,128938	183,8
     42,5059	    0,127815	184,0	    0,128825	183,7
     42,5088	    0,127866	184,5	    0,128076	184,2
     42,5117	    0,127417	184,0	    0,127929	184,2
     42,5147	    0,127777	184,5	    0,128042	184,6
     42,5176	    0,127283	184,8	    0,127685	184,6
     42,5205	    0,126785	184,9	    0,126868	185,0
     42,5235	    0,126693	184,8	    0,126318	185,4
     42,5264	    0,126755	185,5	    0,126494	184,9
     42,5293	    0,125761	185,8	     0,12579	185,8
     42,5323	    0,125488	185,8	    0,126134	185,3
     42,5352	     0,12517	186,1	    0,125969	185,5
     42,5381	    0,125258	186,0	    0,125579	185,3
     42,5411	    0,124308	186,3	    0,124787	186,1
      42,544	    0,124601	186,0	    0,124901	186,2
     42,5469	     0,12399	186,6	    0,123796	186,5
     42,5499	    0,124696	187,3	    0,124195	186,7
     42,5528	     0,12383	186,8	    0,123761	186,8
     42,5557	     0,12358	187,4	     0,12377	186,8
     42,5587	    0,123696	186,7	    0,123847	187,4
     42,5616	    0,122989	188,1	    0,123398	187,2
     42,5645	    0,122914	187,8	    0,123092	187,8
     42,5674	    0,122489	188,2	    0,122837	187,9
     42,5704	    0,121869	187,9	    0,122407	187,8
     42,5733	    0,122441	188,5	    0,122231	188,2
     42,5762	    0,121167	188,5	    0,121632	187,9
     42,5792	     0,12155	188,3	    0,121851	188,3
     42,5821	     0,12105	188,3	    0,121008	188,1
      42,585	    0,120742	189,4	    0,121631	188,7
      42,588	    0,120046	189,0	    0,121148	188,3
     42,5909	    0,120274	189,7	     0,12078	189,1
     42,5938	    0,119372	189,3	    0,119722	188,9
     42,5968	    0,118818	190,0	    0,119847	189,0
     42,5997	    0,119263	189,8	    0,119427	188,9
     42,6026	    0,118701	190,0	    0,119553	189,5
     42,6056	    0,118815	190,1	    0,119426	188,8
     42,6085	    0,118633	190,7	    0,118756	189,9
     42,6114	    0,117887	190,3	     0,11885	189,8
     42,6144	    0,117689	190,9	    0,118074	190,3
     42,6173	    0,117386	190,5	    0,117705	190,0
     42,6202	    0,117651	190,5	      0,1176	190,8
     42,6232	    0,116884	191,4	    0,117488	190,0
     42,6261	     0,11702	190,9	    0,117117	190,7
      42,629	    0,116365	191,5	    0,116639	190,8
      42,632	    0,116015	191,3	    0,116564	191,2
     42,6349	    0,116259	192,2	    0,116081	190,8
     42,6378	    0,115844	191,6	    0,116406	191,7
     42,6408	     0,11554	192,2	    0,115583	190,7
     42,6437	    0,115102	191,8	    0,115765	191,7
     42,6466	    0,114628	192,3	    0,114756	191,5
     42,6496	    0,114707	192,2	    0,114742	191,7
     42,6525	    0,114471	193,1	    0,114432	192,2
     42,6554	    0,114421	193,0	    0,114026	192,4
     42,6584	    0,113876	192,8	    0,113638	191,8
     42,6613	    0,113373	192,5	     0,11407	193,0
     42,6642	    0,113368	193,1	     0,11281	192,3
     42,6672	    0,112717	193,4	    0,113241	193,3
     42,6701	    0,112538	193,6	    0,112607	193,4
      42,673	    0,111892	193,4	    0,112439	193,3
      42,676	    0,112176	194,1	    0,111664	193,5
     42,6789	    0,111552	193,5	    0,112527	193,8
     42,6818	    0,111504	194,4	     0,11192	193,5
     42,6847	    0,111156	193,6	    0,111306	194,0
     42,6877	      0,1113	195,0	    0,111413	194,5
     42,6906	     0,11088	194,4	     0,11095	194,5
     42,6936	    0,110477	194,6	    0,110329	194,7
     42,6965	    0,110263	194,5	    0,110668	194,3
     42,6994	    0,109965	195,4	    0,110372	194,6
     42,7023	    0,109286	194,5	    0,110675	194,5
     42,7053	    0,109212	195,8	    0,109917	194,2
     42,7082	    0,109085	195,4	    0,109583	195,0
     42,7111	    0,109272	195,5	    0,109661	195,2
     42,7141	    0,108083	195,3	    0,109602	195,6
      42,717	    0,108287	196,0	    0,108896	195,0
     42,7199	    0,107849	196,0	    0,108914	195,5
     42,7229	    0,106885	196,2	    0,108772	195,3
     42,7258	    0,106979	197,0	    0,108355	195,9
     42,7287	    0,106891	196,2	    0,108123	196,0
     42,7317	    0,106894	196,4	    0,107787	196,5
     42,7346	    0,106951	196,8	    0,107704	196,0
     42,7375	    0,106807	196,8	    0,106944	196,7
     42,7405	    0,106117	196,8	    0,106658	196,5
     42,7434	    0,105778	197,2	    0,106823	197,2
     42,7463	    0,105567	197,5	     0,10621	197,0
     42,7493	    0,105579	197,4	    0,106437	197,6
     42,7522	    0,105029	197,1	    0,105792	197,1
     42,7551	    0,104971	198,2	    0,105945	197,6
     42,7581	    0,104588	198,2	    0,105235	197,6
      42,761	    0,104104	198,1	    0,105282	197,5
     42,7639	    0,104139	198,1	    0,104969	198,0
     42,7669	    0,103675	198,4	    0,104703	198,6
     42,7698	    0,103564	197,8	    0,104313	197,9
     42,7727	    0,102901	198,8	    0,104288	198,1
     42,7757	    0,102957	198,9	    0,104194	198,5
     42,7786	    0,103271	198,5	    0,103686	198,4
     42,7815	    0,102647	199,2	    0,103097	198,9
     42,7845	    0,102163	198,8	    0,103175	198,8
     42,7874	    0,101854	199,9	    0,102815	199,0
     42,7903	    0,101578	199,4	    0,102592	198,7
     42,7933	    0,101357	199,9	     0,10246	199,8
     42,7962	    0,101309	199,2	    0,101552	199,6
     42,7991	    0,101068	199,8	    0,101889	199,7
     42,8021	    0,101085	199,9	    0,101421	199,4
      42,805	    0,100771	-159,6	    0,101376	199,4
     42,8079	     0,10053	-159,6	    0,101369	199,5
     42,8109	   0,0998696	-160,0	    0,100984	-159,9
     42,8138	   0,0996863	-159,3	    0,100467	-159,6
     42,8167	   0,0998882	-159,7	    0,100301	-160,2
     42,8196	   0,0988547	-158,6	   0,0997964	-159,7
     42,8226	   0,0989266	-159,3	   0,0996835	-159,8
     42,8255	   0,0989439	-159,0	    0,099523	-158,9
     42,8284	   0,0988293	-159,1	    0,098897	-159,0
     42,8314	   0,0981616	-158,7	    0,098774	-159,0
     42,8343	   0,0982824	-158,4	    0,098661	-158,9
     42,8372	   0,0979036	-158,7	   0,0983323	-158,7
     42,8402	   0,0972189	-158,4	   0,0981899	-158,6
     42,8431	   0,0974319	-158,7	   0,0982142	-158,5
      42,846	   0,0966086	-157,6	    0,097517	-158,7
      42,849	    0,096737	-158,0	   0,0971393	-158,5
     42,8519	   0,0967836	-157,9	   0,0971812	-158,5
     42,8548	   0,0964776	-158,0	    0,096887	-158,1
     42,8578	   0,0959891	-157,7	   0,0964219	-157,5
     42,8607	   0,0957046	-157,1	   0,0959566	-158,0
     42,8636	   0,0950143	-157,0	    0,096359	-157,8
     42,8666	    0,095256	-157,2	   0,0957974	-158,1
     42,8695	   0,0948903	-157,3	   0,0957483	-157,1
     42,8724	   0,0947218	-156,8	   0,0954755	-157,3
     42,8754	   0,0942858	-156,8	   0,0948908	-157,6
     42,8783	    0,094297	-156,4	   0,0947867	-157,2
     42,8812	    0,094054	-157,0	   0,0946711	-157,1
     42,8842	   0,0936791	-156,8	   0,0943538	-156,6
     42,8871	   0,0934349	-156,7	   0,0940534	-156,6
       42,89	   0,0931716	-156,3	   0,0943553	-156,9
      42,893	   0,0930894	-155,9	   0,0934929	-156,8
     42,8959	   0,0928144	-156,3	   0,0931625	-155,9
     42,8988	   0,0925446	-155,9	   0,0929992	-156,0
     42,9018	   0,0922834	-156,1	   0,0919876	-156,0
     42,9047	   0,0917571	-155,4	   0,0919632	-155,8
     42,9076	     0,09178	-155,8	   0,0918409	-155,9
     42,9106	   0,0916168	-155,8	   0,0924146	-155,6
     42,9135	   0,0911285	-155,3	   0,0915783	-155,8
     42,9164	   0,0914481	-155,4	   0,0918204	-154,9
     42,9194	   0,0906161	-154,6	   0,0910298	-155,7
     42,9223	   0,0909213	-155,5	   0,0908704	-155,0
     42,9252	   0,0904474	-155,1	   0,0911176	-154,7
     42,9282	   0,0900886	-155,0	   0,0902722	-155,0
     42,9311	   0,0895444	-154,5	   0,0906613	-155,0
      42,934	   0,0892255	-154,3	   0,0899638	-154,8
      42,937	   0,0894096	-155,0	   0,0899916	-154,8
     42,9399	   0,0893681	-154,3	   0,0900815	-154,2
     42,9428	   0,0890041	-154,3	   0,0899028	-155,3
     42,9457	    0,088709	-154,0	   0,0892932	-154,4
     42,9487	   0,0881256	-154,1	   0,0892697	-154,8
     42,9516	   0,0878552	-154,2	   0,0886933	-153,7
     42,9545	   0,0879046	-153,6	   0,0884606	-154,1
     42,9575	   0,0878174	-153,8	   0,0883252	-153,8
     42,9604	   0,0875116	-153,8	   0,0875963	-154,2
     42,9633	   0,0872207	-153,8	   0,0875977	-153,6
     42,9663	   0,0868553	-153,2	   0,0873707	-153,0
     42,9692	    0,086819	-152,7	   0,0867669	-153,7
     42,9721	   0,0859962	-153,0	   0,0873536	-153,6
     42,9751	   0,0864123	-153,0	   0,0865562	-153,9
      42,978	   0,0863384	-153,3	   0,0864889	-152,8
     42,9809	   0,0855329	-152,8	   0,0863573	-152,9
     42,9839	   0,0855772	-152,5	   0,0861055	-153,5
     42,9868	   0,0850437	-152,7	   0,0861128	-152,9
     42,9897	   0,0853422	-152,6	   0,0858083	-153,3
     42,9927	   0,0851142	-152,8	   0,0853512	-152,3
     42,9956	   0,0849015	-152,8	   0,0848989	-152,6
     42,9985	   0,0847854	-152,3	   0,0851779	-152,5
     43,0015	    0,084161	-151,8	   0,0845568	-152,5
     43,0044	   0,0839736	-151,9	   0,0847549	-152,3
     43,0073	   0,0843473	-152,5	   0,0843341	-151,9
     43,0103	   0,0838067	-151,9	   0,0840684	-152,0
     43,0132	   0,0833717	-151,6	   0,0838293	-152,1
     43,0161	   0,0835976	-151,9	    0,083595	-151,4
     43,0191	    0,082798	-151,3	    0,083413	-152,0
      43,022	   0,0828725	-151,7	   0,0832676	-151,6
     43,0249	   0,0826991	-151,9	   0,0831769	-151,9
     43,0279	   0,0825681	-151,2	   0,0826178	-151,3
     43,0308	   0,0821538	-151,8	   0,0825798	-151,5
     43,0337	   0,0818241	-150,9	    0,082414	-151,8
     43,0367	   0,0818205	-151,1	   0,0817564	-150,9
     43,0396	   0,0810229	-150,6	   0,0816049	-151,2
     43,0425	   0,0813495	-151,0	   0,0814922	-150,7
     43,0455	   0,0812618	-151,1	    0,081459	-150,7
     43,0484	   0,0806725	-150,6	   0,0813548	-151,2
     43,0513	   0,0808945	-150,4	   0,0810586	-150,6
     43,0543	   0,0802526	-151,3	   0,0808865	-150,6
     43,0572	   0,0804093	-150,8	   0,0805657	-150,6
     43,0601	   0,0800592	-150,7	   0,0802638	-150,6
      43,063	   0,0794409	-149,5	   0,0799438	-150,3
      43,066	   0,0790961	-149,9	   0,0799034	-150,4
     43,0689	   0,0792418	-150,2	   0,0797673	-150,2
     43,0718	   0,0791247	-149,9	   0,0794469	-150,4
     43,0748	   0,0788988	-150,2	   0,0787731	-149,8
     43,0777	    0,078499	-149,7	   0,0792806	-150,3
     43,0806	    0,078396	-149,5	   0,0791388	-149,9
     43,0836	   0,0783816	-149,5	   0,0786644	-149,7
     43,0865	   0,0778329	-149,2	   0,0783566	-149,7
     43,0894	   0,0778739	-149,9	    0,078163	-149,1
     43,0924	   0,0775172	-149,5	   0,0780071	-149,9
     43,0953	   0,0773106	-148,8	   0,0777869	-149,5
     43,0982	   0,0768817	-149,3	   0,0773561	-148,9
     43,1012	   0,0769711	-148,9	   0,0770839	-148,7
     43,1041	   0,0769974	-149,1	   0,0767256	-148,9
      43,107	   0,0761964	-149,3	   0,0764787	-148,7
       43,11	   0,0762403	-148,6	   0,0765062	-148,5
     43,1129	   0,0761232	-149,5	   0,0761146	-148,5
     43,1158	   0,0758065	-148,6	   0,0758988	-148,9
     43,1188	   0,0757678	-148,3	   0,0760828	-148,4
     43,1217	   0,0753028	-148,6	   0,0754894	-148,4
     43,1246	    0,075065	-148,2	   0,0755626	-148,6
     43,1276	   0,0751178	-148,0	   0,0749882	-148,2
     43,1305	   0,0747252	-148,2	   0,0752331	-148,6
     43,1334	   0,0746276	-148,1	   0,0746744	-148,1
     43,1364	   0,0744975	-148,4	   0,0745227	-147,8
     43,1393	   0,0742047	-147,4	   0,0744513	-148,0
     43,1422	   0,0740039	-147,8	   0,0745397	-148,0
     43,1452	   0,0738692	-148,1	   0,0738191	-147,8
     43,1481	   0,0733706	-147,5	   0,0741434	-148,2
      43,151	   0,0733636	-147,0	   0,0733913	-147,6
      43,154	   0,0725205	-147,8	   0,0736414	-148,3
     43,1569	   0,0729778	-147,4	   0,0734506	-147,6
     43,1598	   0,0724673	-146,8	    0,072813	-147,4
     43,1628	   0,0723903	-146,7	   0,0728472	-147,8
     43,1657	   0,0727071	-147,3	   0,0727084	-147,1
     43,1686	   0,0722099	-147,5	   0,0724335	-146,9
     43,1716	    0,071963	-146,6	   0,0721385	-146,9
     43,1745	    0,071638	-146,4	   0,0723652	-146,6
     43,1774	   0,0714106	-146,8	   0,0715031	-146,9
     43,1804	   0,0713271	-146,4	   0,0719089	-147,0
     43,1833	   0,0711147	-146,2	   0,0715125	-146,9
     43,1862	   0,0707681	-146,5	   0,0712185	-146,4
     43,1891	   0,0708918	-146,5	   0,0711932	-146,8
     43,1921	   0,0706324	-145,9	   0,0705656	-147,2
      43,195	   0,0701874	-145,7	   0,0708321	-146,3
     43,1979	   0,0701183	-146,1	   0,0704133	-145,9
     43,2009	   0,0700451	-146,5	   0,0700721	-146,5
     43,2038	   0,0699112	-145,7	   0,0703167	-146,0
     43,2067	   0,0695901	-146,4	   0,0698564	-146,2
     43,2097	   0,0695973	-146,1	    0,069857	-146,6
     43,2126	   0,0696648	-145,3	   0,0698096	-146,5
     43,2155	    0,069249	-146,0	    0,069141	-146,2
     43,2185	   0,0685406	-145,7	   0,0692297	-146,4
     43,2214	     0,06889	-145,8	   0,0694665	-146,1
     43,2243	   0,0687889	-145,8	    0,068573	-145,6
     43,2273	   0,0681109	-145,6	   0,0683243	-145,9
     43,2302	   0,0682573	-145,4	   0,0680063	-144,9
     43,2331	   0,0675906	-145,1	   0,0678889	-145,7
     43,2361	   0,0673722	-145,1	   0,0681485	-144,9
      43,239	   0,0677521	-145,2	   0,0680624	-145,1
     43,2419	   0,0669934	-145,3	   0,0674812	-145,9
     43,2449	   0,0671429	-144,5	   0,0674438	-144,7
     43,2478	   0,0671626	-145,5	    0,066789	-144,5
     43,2507	   0,0667365	-145,2	   0,0667998	-145,5
     43,2537	     0,06631	-145,0	   0,0670047	-144,8
     43,2566	   0,0667727	-144,7	   0,0665302	-144,5
     43,2595	    0,066342	-144,9	    0,066571	-145,3
     43,2625	    0,066164	-144,6	   0,0664979	-144,9
     43,2654	   0,0659059	-144,3	   0,0663993	-144,7
     43,2683	   0,0652043	-144,7	   0,0657837	-145,1
     43,2713	   0,0657968	-144,6	   0,0659684	-144,6
     43,2742	   0,0654209	-144,2	   0,0651234	-144,9
     43,2771	   0,0648525	-144,3	   0,0654746	-144,4
     43,2801	   0,0650823	-144,7	   0,0655181	-144,7
      43,283	    0,064739	-143,5	   0,0652798	-144,8
     43,2859	    0,064286	-144,2	   0,0647658	-144,0
     43,2889	   0,0645898	-143,8	   0,0647552	-143,9
     43,2918	   0,0639372	-144,2	   0,0642579	-144,4
     43,2947	   0,0644311	-144,7	   0,0643726	-143,7
     43,2977	   0,0641969	-143,6	   0,0645361	-144,7
     43,3006	   0,0637172	-143,7	   0,0644644	-144,4
     43,3035	   0,0636328	-144,4	    0,064195	-144,5
     43,3064	   0,0636836	-143,5	   0,0638363	-144,5
     43,3094	   0,0634667	-143,6	   0,0635578	-144,2
     43,3123	   0,0633329	-143,5	   0,0633015	-143,3
     43,3153	   0,0635822	-143,7	   0,0634798	-143,1
     43,3182	   0,0628729	-143,2	   0,0630886	-143,2
     43,3211	   0,0628017	-142,9	   0,0633485	-143,7
      43,324	   0,0624628	-143,7	   0,0624227	-142,9
      43,327	   0,0625788	-143,7	   0,0621693	-142,9
     43,3299	   0,0618861	-142,4	   0,0623787	-143,5
     43,3328	   0,0619229	-142,9	   0,0624973	-143,0
     43,3358	   0,0618287	-143,0	   0,0617151	-143,0
     43,3387	   0,0617424	-142,6	   0,0622997	-143,6
     43,3416	   0,0619533	-143,2	   0,0619173	-143,6
     43,3446	   0,0618966	-142,6	   0,0618919	-143,0
     43,3475	   0,0614719	-142,4	   0,0614587	-143,0
     43,3504	   0,0613237	-142,5	    0,061295	-142,9
     43,3534	   0,0612758	-142,8	    0,061497	-142,8
     43,3563	   0,0607926	-142,8	   0,0604717	-142,6
     43,3592	   0,0608564	-142,7	   0,0608068	-142,6
     43,3622	   0,0605211	-143,2	   0,0609393	-142,4
     43,3651	   0,0603365	-142,3	   0,0603924	-143,1
      43,368	   0,0600211	-142,1	   0,0599642	-142,2
      43,371	   0,0598335	-142,9	   0,0601773	-142,8
     43,3739	   0,0601406	-142,0	   0,0600711	-142,5
     43,3768	   0,0595091	-141,8	   0,0599159	-142,8
     43,3798	   0,0591262	-142,5	   0,0599305	-141,9
     43,3827	   0,0590919	-141,7	   0,0598653	-142,3
     43,3856	   0,0589759	-141,1	   0,0593573	-141,7
     43,3886	   0,0593845	-141,9	    0,059189	-142,4
     43,3915	   0,0589586	-142,1	   0,0589232	-142,4
     43,3944	    0,058659	-141,0	   0,0587394	-141,8
     43,3974	   0,0587763	-141,3	   0,0587378	-142,1
     43,4003	   0,0585751	-141,9	    0,058565	-142,3
     43,4032	   0,0581566	-142,5	   0,0582328	-141,4
     43,4062	   0,0579665	-140,4	   0,0583504	-142,3
     43,4091	   0,0578294	-141,5	   0,0576445	-141,8
      43,412	   0,0578286	-141,0	   0,0575406	-136,9
      43,415	   0,0576382	-141,7	   0,0578708	-141,5
     43,4179	   0,0575579	-140,6	   0,0576882	-141,4
     43,4208	   0,0574098	-140,0	   0,0575503	-139,6
     43,4238	   0,0572881	-141,8	   0,0574912	-139,0
     43,4267	   0,0570225	-140,8	   0,0572218	-141,5
     43,4296	    0,056879	-140,7	   0,0569557	-140,9
     43,4326	   0,0572213	-141,2	   0,0569897	-139,8
     43,4355	   0,0567926	-141,1	   0,0566849	-140,2
     43,4384	   0,0565476	-139,2	   0,0568011	-140,5
     43,4413	   0,0567388	-141,2	   0,0563999	-140,3
     43,4443	   0,0565138	-140,7	   0,0562154	-141,8
     43,4472	   0,0562066	-141,6	   0,0560872	-139,9
     43,4501	   0,0561941	-140,8	   0,0558649	-140,6
     43,4531	    0,055849	-140,6	   0,0556554	-139,7
      43,456	   0,0558954	-141,1	   0,0557502	-141,1
     43,4589	   0,0555143	-140,8	   0,0557244	-140,9
     43,4619	   0,0555856	-140,1	   0,0557975	-137,5
     43,4648	   0,0550706	-141,2	   0,0554038	-141,4
     43,4677	   0,0551838	-140,5	   0,0552913	-140,8
     43,4707	   0,0550786	-140,5	   0,0552969	-140,7
     43,4736	   0,0548156	-140,8	   0,0550128	-140,9
     43,4765	   0,0547857	-140,4	    0,054865	-140,4
     43,4795	   0,0548959	-140,3	   0,0547881	-140,1
     43,4824	   0,0545301	-140,2	   0,0545879	-140,2
     43,4853	   0,0542787	-140,5	   0,0545224	-140,7
     43,4883	   0,0544717	-140,2	   0,0544337	-139,9
     43,4912	   0,0542366	-140,3	   0,0542854	-140,6
     43,4941	   0,0540764	-140,1	   0,0539876	-140,2
     43,4971	   0,0540322	-140,3	    0,053758	-140,1
        43,5	   0,0536605	-140,4	   0,0538502	-140,3

