X-Data [Hz]	Laser (M - Filtered) [m/s]	Phase [Deg]	Laser (M - Filtered) [m/s]	Phase [Deg]	
	002: [07-09-24 17:03]		003: [07-09-24 17:06]	
        41,5	  0,00689969	78,6	  0,00705284	76,0
      41,502	  0,00702271	79,8	  0,00704863	78,1
     41,5039	  0,00715055	76,7	  0,00708959	76,7
     41,5059	  0,00717554	79,0	  0,00720145	78,4
     41,5078	  0,00708463	79,9	  0,00710972	76,5
     41,5098	  0,00711877	77,1	  0,00708044	79,2
     41,5117	  0,00716526	80,5	   0,0071708	77,5
     41,5137	   0,0072609	77,8	  0,00719331	79,5
     41,5156	   0,0073106	81,2	   0,0070817	77,3
     41,5176	  0,00715007	81,0	     0,00715	76,4
     41,5196	  0,00712607	78,2	  0,00718691	79,9
     41,5215	  0,00722686	80,3	  0,00715127	78,2
     41,5235	   0,0073142	78,8	  0,00714121	80,4
     41,5254	  0,00728769	81,4	  0,00717002	74,7
     41,5274	  0,00721879	77,0	  0,00724666	78,5
     41,5293	   0,0072049	80,4	   0,0071852	78,6
     41,5313	  0,00723264	79,0	  0,00716318	76,6
     41,5332	  0,00731089	79,2	  0,00718604	79,7
     41,5352	  0,00738035	80,6	  0,00721938	76,1
     41,5371	  0,00725368	76,0	  0,00710336	78,4
     41,5391	  0,00723066	78,9	   0,0071978	78,6
     41,5411	  0,00728002	79,9	  0,00730061	78,7
      41,543	  0,00732835	79,8	  0,00731034	77,7
      41,545	  0,00736866	78,1	  0,00734741	77,3
     41,5469	  0,00726675	77,9	  0,00731042	79,4
     41,5489	  0,00738373	80,9	   0,0072775	78,8
     41,5508	  0,00734785	79,5	  0,00726838	80,4
     41,5528	  0,00735031	81,3	  0,00733035	79,0
     41,5547	  0,00741784	80,7	  0,00737302	79,9
     41,5567	  0,00736206	78,1	  0,00730942	80,2
     41,5587	  0,00736633	81,1	  0,00730752	79,6
     41,5606	  0,00752582	78,4	  0,00724942	81,0
     41,5626	   0,0073549	81,1	  0,00741036	76,1
     41,5645	   0,0073864	77,0	  0,00745574	77,5
     41,5665	  0,00740553	78,3	  0,00730386	79,0
     41,5684	  0,00737062	79,9	  0,00726825	77,6
     41,5704	  0,00740438	80,3	  0,00739636	80,8
     41,5723	  0,00746865	80,5	  0,00735886	79,2
     41,5743	  0,00745681	77,8	  0,00732399	79,5
     41,5762	  0,00749965	76,4	  0,00746519	78,4
     41,5782	  0,00739209	81,0	  0,00740815	82,6
     41,5802	  0,00741268	79,4	  0,00735093	80,6
     41,5821	   0,0074981	80,0	  0,00743608	77,0
     41,5841	  0,00752343	77,4	  0,00753833	80,4
      41,586	   0,0074544	81,6	  0,00751196	78,4
      41,588	  0,00744466	81,5	  0,00740527	80,5
     41,5899	  0,00752314	80,6	  0,00745338	77,9
     41,5919	  0,00760072	81,6	  0,00752908	77,6
     41,5938	  0,00750031	76,5	  0,00748104	79,8
     41,5958	  0,00748453	78,9	  0,00756831	78,0
     41,5978	  0,00756021	80,7	  0,00757797	80,5
     41,5997	  0,00757804	79,0	  0,00754728	80,7
     41,6017	  0,00752677	78,4	  0,00746968	78,1
     41,6036	  0,00751868	76,6	  0,00756399	79,2
     41,6056	  0,00761609	76,8	  0,00749455	77,2
     41,6075	  0,00763356	81,1	  0,00755106	82,3
     41,6095	  0,00755661	80,3	  0,00766843	81,6
     41,6114	  0,00760943	80,6	  0,00766397	80,3
     41,6134	  0,00765953	78,7	  0,00757874	80,5
     41,6153	  0,00768257	81,3	   0,0075661	77,6
     41,6173	   0,0076814	76,9	  0,00756945	79,0
     41,6193	  0,00758646	79,5	  0,00765146	77,3
     41,6212	  0,00768657	79,8	  0,00764217	79,5
     41,6232	  0,00768572	77,6	   0,0076508	79,0
     41,6251	  0,00775157	79,8	  0,00756338	78,4
     41,6271	   0,0077713	81,2	  0,00766921	81,8
      41,629	  0,00775332	78,3	  0,00761881	79,6
      41,631	  0,00763451	79,7	  0,00766057	80,9
     41,6329	  0,00765915	78,8	  0,00773799	80,4
     41,6349	  0,00769598	83,1	  0,00768091	80,6
     41,6369	  0,00775326	82,9	  0,00764486	81,9
     41,6388	  0,00770155	80,4	  0,00765218	79,0
     41,6408	  0,00775699	81,9	  0,00773778	80,6
     41,6427	  0,00784228	79,2	  0,00775801	78,2
     41,6447	  0,00778921	82,5	  0,00773853	78,2
     41,6466	  0,00782177	79,1	  0,00771774	80,6
     41,6486	  0,00778923	78,6	  0,00777833	77,6
     41,6505	  0,00780622	79,7	  0,00775229	80,7
     41,6525	   0,0078517	78,6	  0,00778225	78,4
     41,6544	  0,00783679	82,6	   0,0077571	81,3
     41,6564	  0,00779445	81,6	  0,00775229	80,3
     41,6584	  0,00786488	79,5	   0,0077715	79,4
     41,6603	  0,00787497	80,8	  0,00781403	81,6
     41,6623	  0,00794279	79,2	  0,00782099	79,5
     41,6642	  0,00795915	81,9	  0,00783212	80,3
     41,6662	  0,00802125	82,2	  0,00790039	79,6
     41,6681	  0,00789015	77,9	  0,00787704	79,5
     41,6701	  0,00783707	82,0	  0,00785326	81,7
      41,672	   0,0080135	77,7	  0,00786163	79,5
      41,674	  0,00795035	77,4	  0,00792239	77,5
      41,676	   0,0078745	82,1	  0,00790305	79,9
     41,6779	  0,00795059	80,8	  0,00790815	78,6
     41,6799	   0,0080372	80,2	  0,00791781	82,1
     41,6818	  0,00803355	80,0	   0,0079377	79,2
     41,6838	  0,00801752	82,0	  0,00798197	80,6
     41,6857	  0,00797481	82,8	  0,00798957	81,0
     41,6877	  0,00793002	80,5	  0,00798825	81,3
     41,6896	  0,00807362	81,7	   0,0080035	82,8
     41,6916	  0,00805468	77,6	  0,00800868	77,1
     41,6936	  0,00796589	79,8	  0,00796548	77,9
     41,6955	  0,00810371	81,6	  0,00805825	79,7
     41,6975	  0,00810514	80,7	  0,00804976	78,1
     41,6994	  0,00811388	83,0	  0,00813183	79,5
     41,7014	  0,00797704	79,3	  0,00803514	80,8
     41,7033	  0,00804663	82,7	  0,00807131	78,6
     41,7053	  0,00807521	82,8	   0,0080622	79,9
     41,7072	  0,00814794	80,4	  0,00814016	78,8
     41,7092	  0,00818575	81,9	  0,00817073	82,8
     41,7111	   0,0081127	81,9	  0,00820953	82,6
     41,7131	  0,00805688	79,4	  0,00805101	80,7
     41,7151	  0,00816592	83,0	  0,00804894	81,7
      41,717	  0,00822185	81,5	  0,00814827	77,2
      41,719	  0,00819011	81,9	  0,00816023	79,5
     41,7209	  0,00816931	80,5	  0,00823608	79,5
     41,7229	  0,00829814	80,4	  0,00817708	82,0
     41,7248	   0,0082371	81,9	  0,00820822	82,0
     41,7268	  0,00814513	82,1	  0,00816525	78,0
     41,7287	  0,00820352	82,8	  0,00819309	78,4
     41,7307	  0,00817966	84,0	  0,00814687	81,1
     41,7327	  0,00828068	79,0	  0,00818105	79,6
     41,7346	  0,00828286	80,1	  0,00828271	81,8
     41,7366	   0,0082411	81,7	  0,00830859	80,1
     41,7385	  0,00828042	80,0	  0,00824718	81,4
     41,7405	   0,0082296	83,1	  0,00823756	79,7
     41,7424	  0,00829334	80,4	  0,00827579	82,2
     41,7444	  0,00835676	83,2	  0,00829036	83,9
     41,7463	  0,00839873	83,1	  0,00831893	78,7
     41,7483	  0,00837866	81,8	  0,00829452	79,8
     41,7502	  0,00830001	84,6	  0,00831038	81,4
     41,7522	  0,00832615	79,2	  0,00829675	79,5
     41,7542	  0,00833479	81,4	  0,00834974	79,9
     41,7561	  0,00849485	82,4	    0,008355	82,3
     41,7581	  0,00844712	80,6	   0,0083398	79,8
       41,76	  0,00835785	83,1	  0,00836175	80,4
      41,762	  0,00839622	82,5	  0,00843615	79,9
     41,7639	  0,00853327	80,5	   0,0083973	82,9
     41,7659	  0,00846118	82,2	  0,00840545	82,4
     41,7678	  0,00833343	81,6	  0,00842884	79,7
     41,7698	  0,00839738	84,6	  0,00846498	82,4
     41,7718	   0,0084424	86,4	  0,00843742	79,8
     41,7737	  0,00853283	81,1	  0,00836018	78,7
     41,7757	  0,00853745	81,9	  0,00848108	82,0
     41,7776	  0,00852381	81,5	  0,00855835	79,8
     41,7796	   0,0085801	80,1	  0,00855855	82,9
     41,7815	  0,00853113	83,4	  0,00846498	82,8
     41,7835	  0,00855517	79,6	  0,00847435	78,9
     41,7854	  0,00859895	82,7	  0,00857445	81,2
     41,7874	  0,00854301	81,2	  0,00860899	80,9
     41,7893	  0,00857278	78,6	   0,0086873	82,5
     41,7913	  0,00855162	84,5	  0,00865842	83,8
     41,7933	  0,00866425	85,6	  0,00860375	80,6
     41,7952	  0,00863231	80,7	  0,00849756	82,4
     41,7972	  0,00858543	84,2	  0,00854417	79,4
     41,7991	  0,00868721	80,0	  0,00862436	79,8
     41,8011	   0,0086771	81,4	  0,00868425	84,2
      41,803	  0,00863506	82,0	  0,00866638	82,9
      41,805	  0,00873537	81,3	  0,00866256	81,1
     41,8069	  0,00869031	82,9	  0,00863278	81,8
     41,8089	  0,00873834	79,8	  0,00867204	78,3
     41,8109	  0,00873342	79,6	  0,00880987	84,8
     41,8128	  0,00875169	85,4	  0,00879335	83,6
     41,8148	  0,00877424	83,0	    0,008729	82,2
     41,8167	  0,00877781	81,9	  0,00877854	83,6
     41,8187	  0,00879653	83,5	  0,00877309	78,5
     41,8206	  0,00885273	81,3	  0,00873191	80,8
     41,8226	  0,00880473	82,5	  0,00874363	82,2
     41,8245	  0,00884122	81,9	  0,00876168	82,1
     41,8265	  0,00887884	82,6	   0,0088051	82,5
     41,8284	  0,00890727	81,9	  0,00885879	80,7
     41,8304	  0,00884081	80,2	  0,00893414	80,7
     41,8324	   0,0089032	84,6	  0,00894314	83,1
     41,8343	  0,00887062	83,7	  0,00888749	81,5
     41,8363	  0,00888126	83,5	   0,0088525	85,2
     41,8382	  0,00893827	84,6	  0,00895406	85,1
     41,8402	  0,00888584	80,6	  0,00896131	81,1
     41,8421	  0,00893693	81,3	   0,0089758	82,8
     41,8441	   0,0089186	84,3	  0,00890721	81,6
      41,846	  0,00896649	82,3	  0,00892304	80,9
      41,848	  0,00898009	81,5	  0,00896144	83,6
       41,85	  0,00891048	85,1	  0,00899262	81,6
     41,8519	  0,00892175	84,4	  0,00900244	83,5
     41,8539	  0,00909218	83,8	  0,00894403	83,1
     41,8558	  0,00915577	83,0	   0,0089966	80,0
     41,8578	  0,00901722	83,7	  0,00908881	83,6
     41,8597	  0,00907545	85,2	  0,00909403	84,0
     41,8617	  0,00904093	82,5	   0,0090508	84,2
     41,8636	  0,00910293	81,7	  0,00895113	83,4
     41,8656	  0,00909295	82,9	  0,00906253	80,0
     41,8675	  0,00907353	80,6	  0,00915669	80,1
     41,8695	  0,00917113	83,9	  0,00916377	82,5
     41,8715	  0,00923234	87,1	  0,00915613	82,1
     41,8734	  0,00926731	82,4	  0,00916261	85,0
     41,8754	   0,0092342	83,8	  0,00921282	84,8
     41,8773	  0,00919865	84,0	  0,00920865	81,6
     41,8793	  0,00923395	81,9	  0,00925381	83,3
     41,8812	  0,00932887	84,9	  0,00920677	81,9
     41,8832	  0,00926771	84,1	  0,00916815	79,8
     41,8851	  0,00930288	83,8	  0,00908264	83,2
     41,8871	  0,00929096	85,8	  0,00921634	81,6
     41,8891	  0,00921416	81,0	  0,00942481	83,7
      41,891	  0,00923558	81,1	  0,00933618	85,9
      41,893	  0,00932542	85,4	  0,00927832	81,9
     41,8949	  0,00939265	83,2	  0,00929914	81,7
     41,8969	   0,0093887	85,1	  0,00927134	81,6
     41,8988	  0,00937292	85,6	  0,00937155	81,4
     41,9008	  0,00939768	81,7	  0,00942449	83,6
     41,9027	  0,00935957	83,2	  0,00936301	85,0
     41,9047	  0,00938158	83,4	  0,00937791	81,8
     41,9066	  0,00945917	82,0	  0,00947022	83,6
     41,9086	  0,00953642	86,8	  0,00947348	83,6
     41,9106	   0,0095223	83,4	  0,00944516	84,1
     41,9125	  0,00943252	83,7	  0,00939705	85,4
     41,9145	  0,00943493	85,0	  0,00941683	83,8
     41,9164	  0,00956819	82,5	     0,00947	83,3
     41,9184	  0,00954623	82,4	  0,00952786	83,0
     41,9203	  0,00954834	86,2	  0,00962745	80,1
     41,9223	  0,00956112	83,4	  0,00957403	85,5
     41,9242	  0,00956684	84,8	  0,00949272	83,8
     41,9262	  0,00957161	85,5	  0,00947991	84,4
     41,9282	  0,00967161	83,1	  0,00960703	86,5
     41,9301	  0,00961455	83,1	  0,00966094	82,7
     41,9321	  0,00961608	85,2	  0,00969281	83,0
      41,934	   0,0096186	83,5	   0,0096183	83,6
      41,936	  0,00963204	86,1	  0,00965777	82,2
     41,9379	  0,00970492	83,6	  0,00973934	85,1
     41,9399	  0,00974016	82,4	   0,0097045	88,2
     41,9418	  0,00972604	85,3	  0,00969664	84,9
     41,9438	  0,00975399	84,5	  0,00975635	84,5
     41,9457	  0,00978161	87,1	  0,00976947	85,8
     41,9477	  0,00976115	88,3	  0,00982018	81,9
     41,9497	  0,00975122	83,7	  0,00980158	82,1
     41,9516	  0,00984959	83,7	  0,00977647	84,3
     41,9536	  0,00990724	87,5	  0,00979662	81,9
     41,9555	    0,009968	83,1	  0,00982212	86,2
     41,9575	  0,00993601	86,1	  0,00982526	85,4
     41,9594	   0,0098372	85,2	  0,00985842	84,2
     41,9614	  0,00983641	83,7	  0,00990123	84,5
     41,9633	  0,00986304	86,0	    0,009933	83,1
     41,9653	  0,00990104	84,0	  0,00991732	83,6
     41,9673	  0,00987512	83,2	  0,00989781	84,5
     41,9692	  0,00988532	84,6	  0,00999554	84,1
     41,9712	  0,00998707	85,7	   0,0100462	85,4
     41,9731	  0,00997475	86,2	   0,0099789	87,6
     41,9751	   0,0100126	86,7	   0,0100122	82,5
      41,977	   0,0100411	88,6	   0,0100852	81,9
      41,979	   0,0100176	82,2	   0,0100935	85,6
     41,9809	   0,0100204	85,6	   0,0100693	83,9
     41,9829	   0,0100487	84,0	    0,010112	87,7
     41,9848	   0,0101031	84,1	   0,0100677	86,3
     41,9868	   0,0101253	88,4	   0,0101484	83,6
     41,9888	   0,0101477	87,1	   0,0102461	84,5
     41,9907	    0,010177	85,1	   0,0101927	85,7
     41,9927	   0,0101925	86,4	   0,0100671	83,7
     41,9946	   0,0101736	84,4	   0,0100353	84,6
     41,9966	   0,0102203	83,8	   0,0101328	84,0
     41,9985	   0,0102696	87,2	   0,0102343	84,4
     42,0005	   0,0102401	85,6	   0,0103008	86,8
     42,0024	    0,010235	87,0	   0,0103207	84,4
     42,0044	   0,0102059	88,1	    0,010314	86,4
     42,0064	   0,0102804	82,9	   0,0103534	86,2
     42,0083	    0,010338	84,3	   0,0103315	84,5
     42,0103	   0,0104658	84,7	   0,0103138	84,5
     42,0122	   0,0103902	83,8	   0,0102727	87,0
     42,0142	   0,0103878	85,5	   0,0102665	84,8
     42,0161	   0,0104539	89,5	   0,0103998	86,0
     42,0181	   0,0104902	86,7	   0,0104702	87,4
       42,02	   0,0105221	86,8	    0,010463	83,1
      42,022	   0,0104533	85,6	   0,0104979	85,6
     42,0239	   0,0103641	84,1	   0,0105324	86,8
     42,0259	   0,0103741	85,4	   0,0104907	84,0
     42,0279	   0,0104948	87,7	   0,0104997	86,9
     42,0298	   0,0105437	85,8	   0,0105406	87,7
     42,0318	   0,0105702	88,2	   0,0105407	86,0
     42,0337	   0,0105428	88,1	   0,0105514	86,4
     42,0357	   0,0106171	83,9	   0,0105723	87,4
     42,0376	   0,0106136	86,7	   0,0106142	84,8
     42,0396	   0,0106955	87,2	   0,0106635	87,1
     42,0415	   0,0106907	84,7	   0,0106594	85,7
     42,0435	   0,0107485	89,7	   0,0106825	85,9
     42,0455	   0,0107918	89,6	   0,0107079	87,3
     42,0474	   0,0106886	84,9	   0,0107092	86,4
     42,0494	   0,0106812	85,9	   0,0107516	84,6
     42,0513	   0,0107161	85,1	   0,0107795	86,8
     42,0533	   0,0107452	85,6	   0,0107503	85,4
     42,0552	   0,0107593	85,5	   0,0107839	85,6
     42,0572	   0,0107969	89,6	    0,010792	86,9
     42,0591	   0,0108827	87,9	   0,0108516	87,8
     42,0611	   0,0109066	91,1	   0,0108179	86,5
      42,063	    0,010968	88,9	   0,0108781	85,5
      42,065	   0,0109058	84,0	   0,0108641	87,7
      42,067	   0,0109231	86,2	   0,0110132	85,6
     42,0689	   0,0110005	87,5	   0,0110857	86,9
     42,0709	   0,0109814	87,5	   0,0110783	87,0
     42,0728	   0,0110516	90,4	   0,0111136	86,7
     42,0748	   0,0110631	90,3	   0,0110528	90,5
     42,0767	    0,010996	85,4	   0,0109953	89,8
     42,0787	   0,0110064	87,4	   0,0109362	85,9
     42,0806	    0,011122	85,8	   0,0110181	86,5
     42,0826	    0,011136	85,9	   0,0110995	86,2
     42,0846	   0,0111528	86,9	   0,0111215	86,3
     42,0865	   0,0112621	88,5	   0,0111786	88,5
     42,0885	   0,0112011	89,0	   0,0112268	88,1
     42,0904	   0,0111731	88,7	    0,011274	87,5
     42,0924	   0,0111771	90,8	   0,0112718	89,4
     42,0943	   0,0112358	84,9	   0,0113057	85,1
     42,0963	   0,0112753	87,6	   0,0112664	84,5
     42,0982	   0,0113702	88,1	   0,0113508	88,1
     42,1002	   0,0113875	85,6	   0,0113538	87,3
     42,1021	   0,0113422	88,0	   0,0114103	87,8
     42,1041	   0,0114494	90,6	   0,0114127	91,2
     42,1061	   0,0114504	89,2	   0,0114282	87,1
      42,108	   0,0114398	86,7	   0,0114466	87,8
       42,11	    0,011418	89,9	    0,011485	89,4
     42,1119	   0,0114274	87,0	   0,0114977	87,5
     42,1139	   0,0114326	85,4	   0,0114616	88,4
     42,1158	   0,0115017	91,1	   0,0114548	88,3
     42,1178	   0,0115252	90,8	   0,0114757	87,4
     42,1197	   0,0115597	90,2	   0,0115883	87,1
     42,1217	   0,0116353	89,5	   0,0116384	90,6
     42,1237	   0,0115587	87,8	   0,0115826	89,9
     42,1256	   0,0115697	88,6	   0,0116721	88,8
     42,1276	   0,0116183	89,8	   0,0117051	89,3
     42,1295	   0,0116567	89,2	   0,0117228	89,5
     42,1315	   0,0117886	87,8	   0,0116848	86,3
     42,1334	   0,0117977	90,5	   0,0116604	87,0
     42,1354	   0,0118635	89,3	   0,0117418	89,4
     42,1373	   0,0117813	88,3	   0,0117354	87,1
     42,1393	   0,0117639	91,3	   0,0117182	90,5
     42,1413	    0,011828	89,5	   0,0117581	88,0
     42,1432	   0,0118557	88,6	   0,0117884	87,9
     42,1452	   0,0118747	89,0	   0,0119467	89,3
     42,1471	   0,0118746	89,2	   0,0120614	87,9
     42,1491	   0,0119818	88,3	   0,0120633	89,1
      42,151	   0,0119587	88,4	   0,0120499	90,8
      42,153	   0,0120053	92,0	    0,012002	90,8
     42,1549	   0,0120386	91,6	   0,0120761	88,5
     42,1569	   0,0120205	90,2	   0,0120258	89,8
     42,1588	   0,0120564	90,3	   0,0120102	90,7
     42,1608	   0,0120328	88,8	   0,0121088	88,7
     42,1628	   0,0121068	87,8	   0,0121194	89,3
     42,1647	   0,0122033	92,6	   0,0121767	89,3
     42,1667	   0,0122376	89,6	   0,0122197	87,2
     42,1686	   0,0122362	90,0	    0,012252	92,6
     42,1706	   0,0122291	93,0	   0,0122516	91,7
     42,1725	   0,0122482	90,6	   0,0122795	89,8
     42,1745	   0,0122333	89,5	   0,0123447	90,0
     42,1764	    0,012255	89,9	   0,0123181	91,4
     42,1784	   0,0122749	90,3	   0,0122879	87,8
     42,1804	   0,0123577	86,2	   0,0123826	88,2
     42,1823	   0,0124006	88,3	   0,0124487	90,3
     42,1843	   0,0123979	93,3	   0,0124198	90,3
     42,1862	   0,0124437	92,0	   0,0124265	88,9
     42,1882	   0,0124788	91,4	   0,0124396	89,8
     42,1901	   0,0125079	93,6	   0,0125239	91,5
     42,1921	   0,0125286	88,1	   0,0125643	90,7
      42,194	   0,0125312	88,8	   0,0126585	92,5
      42,196	   0,0125645	92,3	   0,0126618	92,1
     42,1979	   0,0125972	90,2	   0,0127121	88,7
     42,1999	    0,012659	90,1	   0,0126823	91,4
     42,2019	    0,012652	92,4	   0,0127386	90,3
     42,2038	   0,0127167	92,5	   0,0128327	88,0
     42,2058	   0,0127409	92,2	    0,012849	88,6
     42,2077	   0,0127686	93,1	    0,012842	93,7
     42,2097	   0,0128154	95,6	   0,0129301	91,3
     42,2116	   0,0128826	93,3	   0,0128952	93,9
     42,2136	   0,0128062	91,2	    0,012934	92,4
     42,2155	   0,0128975	91,6	   0,0129586	91,0
     42,2175	   0,0129936	90,1	   0,0130027	88,6
     42,2195	   0,0129889	88,8	   0,0129502	92,2
     42,2214	   0,0130093	94,1	   0,0130192	92,1
     42,2234	   0,0130283	93,4	   0,0130256	91,4
     42,2253	   0,0129817	92,2	   0,0130446	91,8
     42,2273	   0,0130875	93,1	   0,0131213	92,9
     42,2292	    0,013104	93,6	   0,0130882	91,8
     42,2312	   0,0131446	91,9	   0,0131362	90,6
     42,2331	   0,0131782	93,6	   0,0131713	94,0
     42,2351	   0,0131587	93,3	   0,0132099	92,9
      42,237	   0,0130841	91,5	   0,0133575	92,7
      42,239	   0,0131529	91,1	   0,0134105	94,8
      42,241	   0,0132784	96,3	   0,0133834	90,4
     42,2429	   0,0133236	94,1	   0,0134185	91,0
     42,2449	    0,013306	93,4	    0,013413	92,4
     42,2468	    0,013343	94,8	   0,0134351	93,9
     42,2488	   0,0133774	95,6	   0,0135036	93,4
     42,2507	   0,0134185	91,1	   0,0135536	92,8
     42,2527	   0,0134826	91,3	   0,0135649	94,5
     42,2546	    0,013507	92,8	    0,013655	94,3
     42,2566	   0,0134752	91,6	   0,0136489	92,7
     42,2586	   0,0135528	93,0	    0,013678	95,5
     42,2605	   0,0135744	94,5	   0,0137176	89,8
     42,2625	   0,0136703	95,2	   0,0137146	91,7
     42,2644	   0,0137029	93,4	   0,0137076	93,6
     42,2664	   0,0136692	95,6	   0,0137479	91,6
     42,2683	   0,0137113	96,6	   0,0137749	90,5
     42,2703	   0,0137424	90,7	   0,0138479	96,1
     42,2722	   0,0137227	92,5	   0,0139652	93,7
     42,2742	   0,0137814	94,6	   0,0139916	93,4
     42,2761	   0,0137977	93,3	   0,0140771	94,4
     42,2781	   0,0138489	95,9	   0,0140958	95,7
     42,2801	   0,0139557	96,7	   0,0141422	93,3
      42,282	   0,0140738	96,6	   0,0140145	94,2
      42,284	   0,0140652	94,0	   0,0140283	95,4
     42,2859	   0,0141392	96,2	   0,0141196	92,3
     42,2879	   0,0140642	97,5	   0,0141502	92,3
     42,2898	   0,0140816	94,2	   0,0142536	95,8
     42,2918	   0,0141416	93,2	   0,0142868	96,1
     42,2937	   0,0142348	95,6	   0,0142572	94,8
     42,2957	   0,0142777	93,8	   0,0142885	96,3
     42,2977	   0,0142804	97,3	   0,0143705	96,0
     42,2996	   0,0143324	96,5	    0,014457	97,3
     42,3016	   0,0143956	96,3	   0,0145178	96,7
     42,3035	   0,0144495	95,1	   0,0145838	96,5
     42,3055	   0,0144997	99,1	   0,0145577	92,1
     42,3074	   0,0144638	100,4	   0,0145661	93,4
     42,3094	   0,0145143	93,6	   0,0146161	96,7
     42,3113	   0,0145364	94,8	   0,0146616	96,1
     42,3133	   0,0144748	99,0	   0,0146797	95,7
     42,3153	   0,0145517	96,4	   0,0147976	93,7
     42,3172	   0,0146154	94,6	   0,0148588	99,0
     42,3192	   0,0147908	97,9	   0,0148128	96,3
     42,3211	   0,0147929	96,6	   0,0149118	96,7
     42,3231	   0,0148589	95,8	   0,0148851	98,7
      42,325	   0,0148879	95,1	   0,0148684	95,5
      42,327	   0,0148587	100,6	   0,0148966	95,7
     42,3289	   0,0147996	100,6	    0,014914	97,4
     42,3309	   0,0148067	95,3	   0,0150292	97,1
     42,3328	   0,0147921	97,5	   0,0151297	93,7
     42,3348	   0,0148296	99,9	    0,015201	94,1
     42,3368	   0,0148705	95,1	   0,0152215	98,5
     42,3387	   0,0149361	96,4	   0,0152155	97,6
     42,3407	   0,0150829	99,3	   0,0152834	98,5
     42,3426	   0,0151525	98,2	    0,015322	98,9
     42,3446	    0,015177	97,9	   0,0154004	97,3
     42,3465	   0,0152045	98,1	   0,0154255	96,9
     42,3485	   0,0152822	98,6	   0,0154853	98,6
     42,3504	    0,015304	98,6	   0,0155272	98,9
     42,3524	   0,0153762	98,3	   0,0155797	95,7
     42,3544	   0,0153054	101,3	   0,0156604	94,7
     42,3563	   0,0153574	101,5	   0,0156692	98,1
     42,3583	    0,015449	98,0	   0,0156233	97,5
     42,3602	   0,0155692	98,7	   0,0156616	97,1
     42,3622	   0,0156115	97,3	   0,0157262	98,9
     42,3641	   0,0156378	97,8	   0,0158019	100,0
     42,3661	    0,015625	96,6	   0,0158834	98,9
      42,368	   0,0157155	101,0	    0,015901	99,2
       42,37	    0,015829	100,2	     0,01597	102,1
     42,3719	   0,0158399	99,3	   0,0160055	100,5
     42,3739	   0,0158169	102,3	   0,0161032	96,9
     42,3759	   0,0158344	104,0	   0,0161093	98,0
     42,3778	   0,0159427	99,7	   0,0160859	100,1
     42,3798	   0,0160161	98,5	   0,0161299	97,6
     42,3817	   0,0160554	101,4	   0,0162272	99,1
     42,3837	   0,0161501	101,2	   0,0162475	100,3
     42,3856	   0,0161383	99,4	   0,0162632	99,6
     42,3876	   0,0160973	100,6	   0,0163096	98,1
     42,3895	   0,0162233	101,8	   0,0163663	103,3
     42,3915	   0,0162673	100,0	   0,0164287	102,1
     42,3935	   0,0163801	99,2	   0,0165164	100,4
     42,3954	   0,0164024	103,4	   0,0165483	100,5
     42,3974	   0,0163945	102,6	   0,0166319	102,6
     42,3993	   0,0164213	102,9	   0,0167098	101,6
     42,4013	   0,0164795	101,6	   0,0167645	101,8
     42,4032	   0,0165189	102,6	   0,0168751	99,9
     42,4052	   0,0165779	105,3	   0,0168582	104,2
     42,4071	   0,0166275	99,0	    0,016811	100,9
     42,4091	    0,016652	101,3	   0,0168603	98,0
      42,411	   0,0167016	101,1	   0,0169434	103,3
      42,413	   0,0166704	101,5	   0,0169851	100,7
      42,415	   0,0168592	101,0	   0,0170849	100,6
     42,4169	    0,016898	101,4	   0,0171602	102,7
     42,4189	   0,0169678	104,0	   0,0171574	103,6
     42,4208	   0,0169973	102,2	   0,0172617	103,1
     42,4228	   0,0170988	106,3	   0,0172737	102,9
     42,4247	   0,0171169	104,9	   0,0172798	105,1
     42,4267	   0,0171637	102,5	   0,0173194	107,0
     42,4286	     0,01719	103,1	   0,0174139	102,1
     42,4306	   0,0171116	103,9	   0,0175006	103,7
     42,4326	   0,0171495	105,7	   0,0176118	105,4
     42,4345	   0,0172266	107,1	   0,0176098	102,8
     42,4365	     0,01732	103,4	   0,0176594	101,5
     42,4384	   0,0174174	104,2	   0,0176969	102,6
     42,4404	   0,0175045	104,4	   0,0176961	103,9
     42,4423	   0,0175602	103,1	   0,0177779	104,4
     42,4443	   0,0175875	103,9	   0,0178207	103,5
     42,4462	   0,0176373	104,5	   0,0178271	103,5
     42,4482	   0,0177064	106,1	   0,0178973	106,1
     42,4501	   0,0176931	104,6	   0,0179465	106,3
     42,4521	   0,0177816	107,9	     0,01811	105,7
     42,4541	   0,0179005	107,3	   0,0181854	107,6
      42,456	   0,0178764	104,9	   0,0182069	106,3
      42,458	   0,0179395	106,0	   0,0182527	105,1
     42,4599	    0,017995	107,5	   0,0182817	107,6
     42,4619	   0,0180351	109,1	   0,0183624	107,8
     42,4638	   0,0181192	103,7	   0,0183912	102,4
     42,4658	   0,0180991	105,0	   0,0184788	104,1
     42,4677	    0,018227	106,3	   0,0184968	107,4
     42,4697	   0,0182266	106,0	   0,0185663	107,0
     42,4717	   0,0182208	106,8	   0,0186419	104,3
     42,4736	   0,0183241	108,8	    0,018683	105,5
     42,4756	   0,0184056	106,4	   0,0188015	107,5
     42,4775	   0,0184828	107,2	   0,0188134	107,9
     42,4795	   0,0185278	106,5	   0,0188009	107,7
     42,4814	    0,018649	109,3	   0,0189401	106,1
     42,4834	   0,0187149	110,9	   0,0188782	108,1
     42,4853	   0,0187252	106,5	   0,0188955	107,9
     42,4873	   0,0188019	108,4	   0,0190723	107,4
     42,4892	   0,0188503	111,3	   0,0191615	111,4
     42,4912	   0,0189375	113,1	   0,0192262	112,6
     42,4932	   0,0189809	107,8	   0,0192741	108,0
     42,4951	   0,0190494	107,5	   0,0192758	108,8
     42,4971	   0,0190898	111,2	   0,0193245	111,3
      42,499	   0,0190806	110,6	   0,0193911	107,1
      42,501	   0,0191163	107,9	   0,0194673	107,5
     42,5029	   0,0191766	108,4	   0,0195609	108,7
     42,5049	   0,0192375	107,9	   0,0196647	110,9
     42,5068	   0,0193378	111,5	   0,0197335	109,6
     42,5088	   0,0193972	110,5	   0,0198236	108,8
     42,5108	   0,0194561	111,3	   0,0198302	107,9
     42,5127	   0,0195476	110,4	    0,019918	112,0
     42,5147	   0,0196055	113,8	   0,0199522	111,9
     42,5166	   0,0196355	111,3	   0,0200452	109,9
     42,5186	   0,0197095	112,8	   0,0201065	110,8
     42,5205	   0,0197428	114,3	   0,0201533	114,2
     42,5225	   0,0198824	112,2	   0,0202425	113,3
     42,5244	   0,0199253	112,5	   0,0202799	111,7
     42,5264	   0,0200507	113,5	   0,0202913	113,3
     42,5283	   0,0200699	116,1	   0,0203781	113,6
     42,5303	   0,0201069	113,8	   0,0204306	114,2
     42,5323	   0,0201222	111,7	   0,0205712	113,0
     42,5342	   0,0201692	113,6	   0,0206164	116,4
     42,5362	   0,0202106	114,5	   0,0206937	111,7
     42,5381	   0,0202518	115,3	   0,0207327	111,9
     42,5401	   0,0203242	112,0	   0,0207844	114,2
      42,542	   0,0203555	112,9	   0,0209108	114,6
      42,544	   0,0204604	116,9	   0,0209353	113,1
     42,5459	   0,0205326	115,4	   0,0210248	112,8
     42,5479	   0,0205818	113,1	   0,0210111	113,4
     42,5499	    0,020584	112,6	   0,0211484	115,9
     42,5518	    0,020703	116,9	   0,0211626	116,2
     42,5538	   0,0208345	116,1	   0,0212215	113,7
     42,5557	   0,0208565	115,9	   0,0212043	113,4
     42,5577	   0,0208859	116,0	   0,0213204	118,1
     42,5596	   0,0209138	119,9	   0,0213678	117,2
     42,5616	   0,0209146	119,0	   0,0214915	115,6
     42,5635	   0,0209294	117,1	   0,0215512	116,2
     42,5655	   0,0210166	118,6	   0,0216952	119,3
     42,5674	   0,0210942	119,6	   0,0217329	119,6
     42,5694	   0,0211277	119,0	   0,0218095	116,9
     42,5714	   0,0211694	116,2	   0,0218309	120,2
     42,5733	   0,0212347	117,2	   0,0219393	119,9
     42,5753	   0,0213206	121,5	   0,0219592	120,3
     42,5772	   0,0213795	120,1	   0,0219694	117,6
     42,5792	   0,0214574	117,7	   0,0219556	118,5
     42,5811	   0,0214586	118,7	   0,0220033	121,2
     42,5831	   0,0215629	119,3	   0,0220862	119,8
      42,585	   0,0216658	120,1	   0,0221114	117,1
      42,587	   0,0217305	117,8	   0,0222122	118,4
      42,589	    0,021796	118,7	   0,0223074	120,2
     42,5909	   0,0218386	120,8	    0,022387	122,2
     42,5929	   0,0219523	121,6	   0,0224916	117,9
     42,5948	    0,022005	121,2	   0,0224892	119,0
     42,5968	   0,0220297	121,3	   0,0225268	122,4
     42,5987	   0,0221015	121,5	   0,0225851	120,6
     42,6007	   0,0221052	123,8	   0,0226965	120,5
     42,6026	   0,0221571	122,2	   0,0227395	121,0
     42,6046	   0,0222084	123,8	   0,0227777	125,3
     42,6065	   0,0222852	124,2	   0,0228518	123,4
     42,6085	   0,0223583	124,1	   0,0228911	121,9
     42,6105	   0,0224401	124,5	   0,0230085	121,6
     42,6124	     0,02249	124,0	   0,0230455	127,3
     42,6144	   0,0225616	125,7	   0,0230095	125,8
     42,6163	   0,0226318	126,5	   0,0230458	123,6
     42,6183	   0,0226664	127,1	   0,0231087	123,2
     42,6202	   0,0227189	122,7	   0,0232811	126,6
     42,6222	   0,0227515	124,1	   0,0233373	127,8
     42,6241	   0,0228138	126,0	   0,0233888	124,2
     42,6261	   0,0228456	127,0	   0,0234512	126,0
     42,6281	   0,0229115	123,1	   0,0234767	127,2
       42,63	   0,0229207	124,0	   0,0234602	129,3
      42,632	   0,0229173	125,5	   0,0235398	124,8
     42,6339	   0,0230394	125,7	   0,0235714	126,3
     42,6359	   0,0230194	125,4	   0,0236452	128,1
     42,6378	   0,0230988	124,5	   0,0237321	126,5
     42,6398	   0,0231763	130,0	   0,0237584	126,0
     42,6417	   0,0232556	128,6	   0,0238439	126,0
     42,6437	   0,0232783	128,2	    0,023863	127,4
     42,6456	   0,0234242	127,6	     0,02384	127,7
     42,6476	   0,0234717	128,0	   0,0239174	128,2
     42,6496	    0,023501	130,0	   0,0239664	127,6
     42,6515	   0,0235086	129,2	   0,0239574	128,4
     42,6535	   0,0235515	128,1	    0,024061	130,7
     42,6554	   0,0235804	130,7	   0,0240511	128,0
     42,6574	   0,0236912	132,4	   0,0241009	129,5
     42,6593	   0,0236973	133,4	   0,0241488	133,7
     42,6613	   0,0237504	131,8	   0,0241672	133,1
     42,6632	   0,0238436	129,2	   0,0242983	129,4
     42,6652	   0,0239285	134,7	   0,0242971	131,6
     42,6672	   0,0240023	135,3	   0,0243568	130,1
     42,6691	   0,0239103	131,1	   0,0243769	134,5
     42,6711	   0,0240361	131,8	   0,0244187	133,2
      42,673	   0,0240596	135,7	   0,0244382	132,3
      42,675	   0,0240412	135,7	   0,0244855	133,7
     42,6769	   0,0241409	131,1	   0,0245379	136,7
     42,6789	   0,0241939	133,4	   0,0245398	137,0
     42,6808	   0,0242875	134,5	   0,0246189	135,0
     42,6828	    0,024284	137,5	   0,0246238	136,8
     42,6847	   0,0242529	134,4	   0,0246108	137,6
     42,6867	   0,0242806	134,5	   0,0246349	136,3
     42,6887	   0,0243191	133,3	   0,0247026	135,8
     42,6906	   0,0243858	135,7	   0,0247688	135,5
     42,6926	   0,0244081	136,1	   0,0248031	137,2
     42,6945	   0,0245237	132,2	   0,0248036	139,6
     42,6965	   0,0245525	135,1	   0,0249397	136,9
     42,6984	   0,0245571	135,2	   0,0249723	136,5
     42,7004	   0,0246023	137,4	   0,0249565	138,4
     42,7023	   0,0245126	137,7	   0,0250327	137,3
     42,7043	   0,0245914	136,0	   0,0249777	136,7
     42,7063	   0,0246141	136,4	   0,0250796	135,9
     42,7082	   0,0247495	140,7	   0,0250528	138,4
     42,7102	   0,0248268	140,5	   0,0251411	138,8
     42,7121	   0,0249047	137,3	   0,0251481	140,2
     42,7141	   0,0248467	135,8	   0,0251727	139,4
      42,716	   0,0248536	141,2	   0,0251637	139,7
      42,718	   0,0248303	141,3	   0,0251803	140,7
     42,7199	   0,0248835	139,0	   0,0251772	141,7
     42,7219	   0,0249181	139,6	   0,0252125	141,1
     42,7239	   0,0249541	139,7	   0,0252124	140,9
     42,7258	   0,0249957	142,0	    0,025273	141,7
     42,7278	   0,0250383	142,0	   0,0253521	143,5
     42,7297	   0,0250262	140,8	   0,0253286	142,2
     42,7317	   0,0250046	142,8	   0,0253073	144,4
     42,7336	   0,0250691	142,4	   0,0253403	143,2
     42,7356	   0,0251214	145,5	    0,025334	144,1
     42,7375	   0,0251223	144,6	   0,0253129	144,8
     42,7395	   0,0251619	141,4	    0,025287	143,0
     42,7414	   0,0251667	142,0	   0,0253419	145,4
     42,7434	   0,0252288	146,4	    0,025273	144,8
     42,7454	    0,025246	147,4	   0,0252862	148,3
     42,7473	   0,0252451	145,6	   0,0253018	147,3
     42,7493	     0,02525	145,8	   0,0253218	145,2
     42,7512	   0,0252273	144,0	   0,0253989	147,3
     42,7532	   0,0252057	148,0	   0,0253991	150,3
     42,7551	   0,0252496	148,5	   0,0254552	147,8
     42,7571	   0,0252916	146,9	   0,0254254	147,9
      42,759	   0,0253156	148,9	   0,0254385	147,9
      42,761	   0,0253372	149,1	   0,0254306	150,3
      42,763	   0,0253058	149,7	   0,0254588	150,8
     42,7649	   0,0253202	150,0	   0,0254117	151,0
     42,7669	   0,0253161	148,9	   0,0253889	149,2
     42,7688	   0,0253228	150,6	   0,0254019	149,8
     42,7708	   0,0253773	150,9	   0,0254162	152,9
     42,7727	   0,0252758	152,0	   0,0253796	151,7
     42,7747	   0,0253487	151,4	   0,0253886	149,6
     42,7766	   0,0253906	149,8	   0,0254276	151,1
     42,7786	   0,0253584	151,4	   0,0253906	153,6
     42,7805	   0,0252884	154,0	   0,0253876	154,4
     42,7825	   0,0253188	153,9	   0,0253621	153,4
     42,7845	    0,025349	152,5	   0,0253739	151,3
     42,7864	   0,0254081	151,9	   0,0253301	154,2
     42,7884	    0,025369	153,3	   0,0253538	153,6
     42,7903	   0,0253551	155,3	   0,0253777	153,8
     42,7923	   0,0253828	153,7	   0,0253383	153,6
     42,7942	   0,0254327	153,8	   0,0252849	153,6
     42,7962	   0,0254066	154,4	   0,0252828	156,8
     42,7981	   0,0252883	156,6	   0,0252737	155,7
     42,8001	   0,0253637	156,6	   0,0253184	153,2
     42,8021	   0,0252998	158,1	   0,0252703	154,0
      42,804	   0,0252798	154,3	   0,0252563	154,0
      42,806	   0,0251758	155,7	   0,0251603	156,9
     42,8079	   0,0252013	157,8	   0,0251523	155,1
     42,8099	   0,0251393	159,6	   0,0251505	156,2
     42,8118	   0,0251473	155,7	   0,0250819	154,1
     42,8138	   0,0251426	157,7	   0,0249797	156,8
     42,8157	    0,025165	158,1	   0,0250642	158,0
     42,8177	    0,025147	159,3	   0,0250554	159,1
     42,8196	   0,0251103	159,2	   0,0250108	155,3
     42,8216	   0,0250651	159,5	   0,0250308	158,4
     42,8236	   0,0249946	157,8	   0,0251003	158,0
     42,8255	   0,0249971	158,4	   0,0250292	160,3
     42,8275	   0,0250184	160,6	   0,0250216	155,4
     42,8294	   0,0250057	161,6	   0,0249684	156,5
     42,8314	   0,0249868	160,6	    0,024976	158,0
     42,8333	   0,0249776	160,0	   0,0249424	160,1
     42,8353	   0,0249446	162,1	   0,0248784	162,4
     42,8372	    0,024988	162,8	   0,0248257	158,2
     42,8392	   0,0249384	162,8	   0,0248168	160,1
     42,8412	    0,024881	162,2	   0,0248363	160,0
     42,8431	   0,0249013	161,8	    0,024777	161,7
     42,8451	   0,0248241	162,9	   0,0247446	162,7
      42,847	   0,0247056	163,3	   0,0246251	159,3
      42,849	   0,0247509	165,8	   0,0246379	160,7
     42,8509	   0,0247018	161,2	   0,0246463	160,9
     42,8529	   0,0247297	163,0	   0,0246664	164,3
     42,8548	    0,024659	164,9	   0,0246156	164,1
     42,8568	   0,0247006	166,6	   0,0245616	160,5
     42,8587	   0,0246647	167,1	   0,0245648	161,7
     42,8607	   0,0245638	165,4	   0,0245096	163,6
     42,8627	   0,0245383	164,6	   0,0244525	165,3
     42,8646	   0,0245065	166,5	    0,024395	161,9
     42,8666	   0,0244716	166,0	   0,0243404	162,7
     42,8685	   0,0244211	169,2	   0,0243621	162,8
     42,8705	   0,0244152	169,2	   0,0242709	166,4
     42,8724	   0,0243985	166,2	   0,0241931	167,9
     42,8744	   0,0243447	166,8	   0,0241312	165,3
     42,8763	   0,0242697	169,3	   0,0240559	167,1
     42,8783	   0,0242433	171,7	    0,024001	165,1
     42,8803	   0,0240621	168,1	   0,0239425	168,3
     42,8822	   0,0240748	166,7	   0,0239875	169,3
     42,8842	   0,0240772	166,8	   0,0239867	165,0
     42,8861	   0,0240303	169,4	   0,0238441	166,3
     42,8881	   0,0241144	169,5	   0,0239184	167,7
       42,89	   0,0240968	171,0	   0,0239177	169,3
      42,892	   0,0240977	169,7	   0,0238416	167,5
     42,8939	   0,0239729	170,2	   0,0237621	170,0
     42,8959	   0,0239408	167,7	   0,0236833	165,8
     42,8979	    0,023948	172,5	   0,0236785	168,6
     42,8998	   0,0239039	170,0	   0,0236418	169,4
     42,9018	   0,0239105	169,0	   0,0237451	171,4
     42,9037	   0,0238547	168,8	   0,0236912	171,2
     42,9057	   0,0237789	172,4	   0,0236715	168,7
     42,9076	   0,0237502	171,1	   0,0235442	169,7
     42,9096	   0,0236729	172,2	   0,0235328	172,4
     42,9115	   0,0236612	171,7	   0,0234874	173,4
     42,9135	   0,0236067	170,3	   0,0234434	170,6
     42,9154	   0,0235905	170,4	   0,0233865	172,0
     42,9174	   0,0234567	174,3	   0,0233975	170,8
     42,9194	   0,0234313	172,9	   0,0233242	174,2
     42,9213	   0,0233526	172,8	   0,0231622	172,9
     42,9233	   0,0233032	171,8	   0,0231032	175,0
     42,9252	    0,023252	174,4	   0,0229804	171,6
     42,9272	   0,0231925	172,8	   0,0229574	172,8
     42,9291	   0,0231128	175,5	    0,022939	174,9
     42,9311	   0,0231092	175,7	   0,0229088	177,2
      42,933	   0,0231144	172,5	   0,0228181	177,3
      42,935	   0,0230269	171,7	   0,0228359	173,9
      42,937	   0,0230125	174,4	   0,0228146	174,5
     42,9389	   0,0229211	174,1	   0,0227848	178,2
     42,9409	   0,0228931	175,5	   0,0227647	179,1
     42,9428	   0,0228575	176,2	    0,022703	177,0
     42,9448	   0,0228314	172,1	   0,0226061	177,3
     42,9467	   0,0228104	174,8	   0,0225197	175,5
     42,9487	   0,0227119	177,5	   0,0224598	176,1
     42,9506	   0,0226151	177,2	   0,0224138	181,5
     42,9526	   0,0224992	178,5	   0,0223999	177,8
     42,9545	   0,0225007	176,8	   0,0223416	176,4
     42,9565	   0,0225222	174,1	   0,0223308	177,0
     42,9585	   0,0223504	177,5	    0,022324	179,8
     42,9604	   0,0223241	178,4	   0,0222271	178,1
     42,9624	   0,0222426	181,1	   0,0221124	179,0
     42,9643	   0,0221901	178,1	   0,0220638	178,4
     42,9663	   0,0221318	178,6	    0,022025	178,5
     42,9682	   0,0221254	177,4	   0,0218913	177,6
     42,9702	    0,022139	180,6	   0,0218814	182,4
     42,9721	   0,0221123	181,6	   0,0218244	180,7
     42,9741	   0,0220449	182,5	   0,0217994	179,2
     42,9761	   0,0219595	179,8	   0,0217795	179,7
      42,978	   0,0219644	180,9	    0,021707	176,7
       42,98	   0,0219364	178,6	   0,0216147	180,9
     42,9819	    0,021826	184,3	   0,0215581	179,9
     42,9839	   0,0217206	182,8	   0,0215091	181,5
     42,9858	   0,0217269	182,0	   0,0214989	179,2
     42,9878	   0,0217451	182,3	   0,0214085	180,5
     42,9897	     0,02161	181,7	   0,0213861	178,3
     42,9917	   0,0215942	181,8	   0,0213202	182,1
     42,9936	   0,0214852	184,5	   0,0213012	181,4
     42,9956	   0,0214185	184,4	   0,0213098	182,0
     42,9976	   0,0213418	182,6	   0,0211836	179,8
     42,9995	   0,0213537	181,4	   0,0211587	181,0
     43,0015	   0,0212539	183,5	   0,0211147	180,8
     43,0034	   0,0212866	181,9	    0,021023	182,3
     43,0054	   0,0211804	185,5	   0,0209293	183,7
     43,0073	   0,0211908	184,4	   0,0208954	185,1
     43,0093	   0,0210776	182,0	   0,0208343	179,8
     43,0112	   0,0210089	181,5	   0,0208255	181,6
     43,0132	    0,020887	185,4	   0,0207587	185,4
     43,0152	   0,0208236	185,1	   0,0206159	184,8
     43,0171	   0,0207826	185,8	   0,0205687	182,7
     43,0191	    0,020762	184,8	   0,0205061	184,9
      43,021	   0,0207806	182,9	   0,0204882	185,7
      43,023	    0,020805	181,7	   0,0204455	185,6
     43,0249	   0,0206717	183,8	   0,0204106	187,7
     43,0269	   0,0206005	186,2	   0,0202719	189,3
     43,0288	   0,0205066	187,8	   0,0202168	188,1
     43,0308	   0,0205117	187,4	   0,0202211	183,9
     43,0327	   0,0204867	184,7	   0,0202539	186,6
     43,0347	   0,0204295	186,2	   0,0201759	184,8
     43,0367	   0,0203546	186,4	   0,0201049	188,3
     43,0386	   0,0202861	187,9	   0,0200861	187,5
     43,0406	   0,0201667	190,2	   0,0199956	187,7
     43,0425	    0,020109	189,6	   0,0199647	186,1
     43,0445	   0,0201087	187,0	   0,0198455	186,9
     43,0464	   0,0199657	188,5	   0,0197705	185,9
     43,0484	   0,0199591	187,8	   0,0197356	191,0
     43,0503	   0,0198556	192,0	    0,019711	189,2
     43,0523	   0,0197481	189,8	   0,0196843	184,1
     43,0543	     0,01976	189,4	   0,0196331	184,4
     43,0562	   0,0197413	188,8	   0,0196081	186,7
     43,0582	   0,0196962	186,2	   0,0195392	188,4
     43,0601	   0,0196069	189,2	   0,0194983	187,3
     43,0621	   0,0195193	188,0	    0,019455	188,0
      43,064	   0,0194848	189,6	    0,019445	184,0
      43,066	   0,0195174	189,7	    0,019374	186,8
     43,0679	   0,0194256	186,7	   0,0193574	187,5
     43,0699	   0,0193968	187,6	      0,0193	190,1
     43,0718	   0,0193615	191,0	   0,0192388	189,3
     43,0738	   0,0192634	189,9	   0,0191625	190,2
     43,0758	   0,0192359	190,0	   0,0191009	190,8
     43,0777	   0,0190892	189,7	   0,0189717	187,9
     43,0797	   0,0190951	188,3	   0,0189438	190,3
     43,0816	    0,019074	189,7	   0,0188911	192,2
     43,0836	   0,0189683	192,8	   0,0188243	193,3
     43,0855	   0,0189534	192,1	   0,0187884	190,7
     43,0875	   0,0189395	190,8	   0,0187432	190,9
     43,0894	   0,0189345	194,0	   0,0186381	190,9
     43,0914	   0,0188201	191,0	   0,0186539	192,5
     43,0934	   0,0187943	191,3	   0,0186093	190,7
     43,0953	   0,0187016	191,7	    0,018517	194,1
     43,0973	   0,0186134	194,6	   0,0185031	193,3
     43,0992	   0,0185828	194,3	   0,0184626	191,1
     43,1012	   0,0185529	193,4	   0,0184839	191,8
     43,1031	   0,0184222	192,2	   0,0183579	191,0
     43,1051	   0,0184456	191,6	   0,0183314	190,1
      43,107	   0,0183387	194,2	   0,0182411	192,6
      43,109	   0,0183446	191,6	    0,018161	194,6
     43,1109	   0,0183081	195,7	   0,0181836	190,5
     43,1129	   0,0182364	195,1	   0,0181419	191,6
     43,1149	   0,0182045	194,0	   0,0180764	192,1
     43,1168	   0,0181604	191,6	   0,0180094	194,4
     43,1188	   0,0181401	191,0	   0,0179985	195,3
     43,1207	   0,0179729	194,3	   0,0179348	194,9
     43,1227	   0,0178557	194,5	    0,017855	190,3
     43,1246	   0,0177864	196,2	   0,0178212	194,0
     43,1266	   0,0177791	196,1	   0,0178494	194,8
     43,1285	   0,0177522	196,5	   0,0177241	196,7
     43,1305	   0,0177061	194,6	   0,0176461	195,6
     43,1325	   0,0176321	196,8	   0,0175297	197,9
     43,1344	   0,0175875	196,1	   0,0175585	196,8
     43,1364	   0,0176035	198,2	   0,0174769	193,6
     43,1383	   0,0175484	197,7	   0,0174624	194,5
     43,1403	   0,0175009	196,4	    0,017421	195,3
     43,1422	   0,0175416	195,7	   0,0174443	192,8
     43,1442	   0,0174764	194,8	   0,0173136	196,8
     43,1461	   0,0173144	200,0	   0,0172445	195,6
     43,1481	   0,0172917	198,4	   0,0172006	193,7
       43,15	   0,0172677	196,9	   0,0172075	193,3
      43,152	   0,0172477	195,7	   0,0171906	194,2
      43,154	   0,0171922	195,4	   0,0170553	195,1
     43,1559	   0,0171217	193,7	   0,0170188	196,1
     43,1579	   0,0170727	196,1	    0,016967	197,9
     43,1598	   0,0169617	196,8	   0,0168781	194,6
     43,1618	   0,0169258	197,5	   0,0167878	197,1
     43,1637	   0,0169021	199,4	   0,0167468	195,2
     43,1657	   0,0168276	195,2	    0,016703	197,6
     43,1676	   0,0167804	197,8	   0,0166611	199,7
     43,1696	   0,0167037	197,1	   0,0166177	199,4
     43,1716	   0,0166584	199,1	    0,016571	196,9
     43,1735	   0,0166882	199,9	   0,0165306	197,4
     43,1755	   0,0165625	-158,0	   0,0164509	196,0
     43,1774	   0,0165883	-159,7	    0,016388	196,4
     43,1794	   0,0165546	-161,1	   0,0164065	196,4
     43,1813	   0,0165684	-164,0	   0,0164172	198,6
     43,1833	   0,0163807	-160,5	   0,0164037	199,7
     43,1852	   0,0162996	-162,4	   0,0163239	197,5
     43,1872	   0,0163316	-161,6	    0,016276	198,4
     43,1891	   0,0162606	-161,1	   0,0162544	195,5
     43,1911	    0,016238	-159,6	   0,0162253	198,1
     43,1931	   0,0162806	-161,9	   0,0161134	198,3
      43,195	   0,0161833	-161,9	   0,0160726	198,8
      43,197	   0,0160819	-162,4	   0,0160425	-159,2
     43,1989	   0,0160399	-159,8	   0,0159096	-157,7
     43,2009	   0,0159506	-158,3	   0,0158998	-159,1
     43,2028	   0,0158687	-156,4	   0,0158612	-160,5
     43,2048	   0,0157954	-156,4	   0,0157973	-158,2
     43,2067	   0,0157454	-158,2	   0,0157497	-160,3
     43,2087	   0,0157718	-158,5	   0,0157815	-157,2
     43,2107	   0,0157611	-160,4	   0,0157595	-159,7
     43,2126	   0,0157343	-158,0	   0,0156681	-161,0
     43,2146	   0,0157063	-159,0	   0,0156534	-159,8
     43,2165	   0,0156636	-157,0	   0,0155934	-162,8
     43,2185	   0,0156075	-157,1	    0,015482	-162,4
     43,2204	   0,0156753	-161,3	   0,0154308	-159,0
     43,2224	   0,0155955	-162,8	   0,0153499	-158,5
     43,2243	   0,0155433	-159,0	   0,0153288	-159,6
     43,2263	   0,0155064	-158,2	   0,0153394	-157,3
     43,2282	   0,0154282	-156,7	   0,0153026	-161,8
     43,2302	   0,0153968	-155,9	   0,0152102	-159,1
     43,2322	   0,0153122	-154,9	   0,0151717	-156,0
     43,2341	   0,0151646	-154,9	   0,0151369	-154,9
     43,2361	   0,0151049	-158,7	   0,0151348	-154,4
      43,238	   0,0151448	-157,3	   0,0151368	-155,2
       43,24	   0,0151245	-155,7	   0,0150598	-157,3
     43,2419	   0,0150776	-156,7	   0,0150952	-158,9
     43,2439	   0,0150606	-154,9	   0,0150738	-158,6
     43,2458	    0,014995	-156,6	   0,0150672	-159,6
     43,2478	   0,0149326	-155,4	   0,0149643	-158,7
     43,2498	   0,0148363	-158,8	   0,0148827	-157,9
     43,2517	   0,0147785	-159,7	   0,0147294	-156,4
     43,2537	   0,0148443	-157,3	   0,0147597	-156,8
     43,2556	   0,0147699	-156,3	   0,0146679	-157,7
     43,2576	   0,0147302	-154,5	   0,0146504	-157,8
     43,2595	   0,0146203	-153,1	   0,0146792	-157,3
     43,2615	   0,0145717	-155,8	   0,0145658	-155,4
     43,2634	   0,0145761	-153,9	   0,0145731	-156,9
     43,2654	   0,0145476	-156,3	   0,0144999	-153,7
     43,2673	   0,0144841	-156,6	   0,0145081	-156,3
     43,2693	   0,0145056	-155,1	   0,0144575	-158,0
     43,2713	   0,0144487	-155,1	   0,0144226	-159,9
     43,2732	   0,0144002	-154,2	   0,0143517	-157,7
     43,2752	    0,014387	-155,1	    0,014312	-157,6
     43,2771	   0,0143026	-158,3	   0,0142852	-157,2
     43,2791	   0,0143076	-156,6	   0,0142833	-154,7
      43,281	   0,0142129	-158,4	   0,0141799	-155,4
      43,283	    0,014165	-156,8	   0,0141158	-154,5
     43,2849	   0,0142012	-154,9	   0,0140518	-156,4
     43,2869	   0,0140936	-153,5	   0,0140391	-153,1
     43,2889	   0,0141282	-152,7	   0,0140607	-154,6
     43,2908	   0,0140841	-151,3	   0,0140498	-155,1
     43,2928	   0,0140735	-153,8	   0,0139526	-153,0
     43,2947	   0,0140544	-153,8	   0,0139082	-154,1
     43,2967	   0,0139145	-154,5	   0,0138883	-155,2
     43,2986	   0,0138945	-157,8	   0,0138598	-155,9
     43,3006	   0,0138001	-154,1	   0,0139108	-158,9
     43,3025	   0,0137633	-154,1	   0,0138258	-157,4
     43,3045	   0,0137159	-154,3	   0,0137491	-156,0
     43,3064	   0,0137674	-153,4	   0,0136731	-154,0
     43,3084	   0,0137646	-155,7	   0,0135928	-152,2
     43,3104	   0,0136611	-153,1	   0,0135882	-152,8
     43,3123	   0,0135582	-152,7	   0,0135031	-151,5
     43,3143	   0,0134149	-153,8	   0,0134524	-153,6
     43,3162	   0,0134616	-150,1	    0,013454	-154,6
     43,3182	   0,0134801	-152,0	   0,0133959	-154,3
     43,3201	   0,0135095	-151,8	   0,0134414	-154,7
     43,3221	   0,0134365	-151,4	   0,0134307	-153,4
      43,324	   0,0134429	-155,5	   0,0133315	-153,2
      43,326	   0,0134169	-156,9	   0,0132975	-152,9
      43,328	   0,0133792	-155,2	   0,0132514	-153,0
     43,3299	   0,0132951	-155,9	   0,0131779	-151,4
     43,3319	   0,0133102	-151,7	   0,0131439	-154,0
     43,3338	   0,0132553	-152,0	    0,013146	-154,7
     43,3358	   0,0131313	-150,4	   0,0131085	-153,0
     43,3377	   0,0130857	-149,6	   0,0131076	-150,3
     43,3397	   0,0130965	-149,2	     0,01306	-150,8
     43,3416	   0,0130481	-152,5	   0,0130492	-150,4
     43,3436	   0,0130129	-153,0	   0,0131084	-152,2
     43,3456	   0,0129378	-152,8	   0,0130486	-154,4
     43,3475	   0,0129856	-155,2	   0,0130633	-155,6
     43,3495	   0,0129626	-151,7	   0,0129677	-154,4
     43,3514	   0,0129575	-151,3	   0,0128823	-154,5
     43,3534	   0,0129096	-151,7	   0,0128147	-152,6
     43,3553	   0,0128628	-148,5	   0,0127734	-150,1
     43,3573	   0,0128078	-154,1	   0,0127637	-148,8
     43,3592	   0,0127569	-151,6	    0,012737	-148,3
     43,3612	   0,0127229	-152,9	   0,0127074	-150,3
     43,3631	   0,0127207	-150,9	   0,0126312	-151,2
     43,3651	   0,0126249	-148,1	    0,012639	-152,4
     43,3671	   0,0126387	-151,0	   0,0126617	-153,7
      43,369	   0,0126579	-151,2	   0,0125986	-154,3
      43,371	   0,0125889	-150,0	   0,0125427	-151,6
     43,3729	   0,0125927	-153,7	   0,0124403	-152,0
     43,3749	   0,0125191	-151,0	   0,0124462	-151,6
     43,3768	   0,0124772	-153,2	   0,0123742	-148,1
     43,3788	   0,0124598	-150,7	   0,0123143	-151,1
     43,3807	   0,0123199	-149,7	   0,0123432	-147,9
     43,3827	   0,0123466	-149,2	   0,0122711	-152,0
     43,3847	   0,0122955	-148,3	   0,0122586	-151,0
     43,3866	   0,0123079	-148,0	   0,0122834	-150,1
     43,3886	   0,0123247	-150,0	   0,0122868	-153,5
     43,3905	    0,012204	-151,6	    0,012213	-149,3
     43,3925	    0,012193	-151,3	   0,0121519	-150,4
     43,3944	   0,0121475	-149,8	   0,0121227	-150,4
     43,3964	   0,0121194	-153,6	   0,0120859	-149,3
     43,3983	   0,0120897	-150,2	   0,0120282	-151,4
     43,4003	   0,0121357	-149,6	   0,0120244	-150,1
     43,4022	   0,0120861	-145,7	   0,0119684	-148,8
     43,4042	   0,0120247	-145,2	   0,0119618	-148,7
     43,4062	   0,0119367	-147,2	    0,011961	-151,8
     43,4081	   0,0118293	-148,5	   0,0120182	-147,1
     43,4101	   0,0118931	-151,2	   0,0120445	-151,3
      43,412	    0,011911	-150,8	    0,011901	-151,4
      43,414	   0,0119203	-153,8	   0,0118561	-149,5
     43,4159	   0,0118839	-150,5	   0,0117995	-151,1
     43,4179	   0,0117995	-149,5	   0,0117807	-149,6
     43,4198	   0,0117616	-145,8	   0,0117077	-149,9
     43,4218	   0,0117492	-145,4	   0,0116968	-149,5
     43,4238	   0,0116736	-145,8	   0,0116206	-147,5
     43,4257	   0,0116772	-146,1	   0,0116097	-148,0
     43,4277	    0,011683	-148,2	   0,0116627	-147,2
     43,4296	   0,0116276	-150,7	   0,0116346	-148,6
     43,4316	   0,0115865	-151,3	   0,0116436	-149,6
     43,4335	   0,0115387	-148,6	   0,0116642	-151,7
     43,4355	   0,0114649	-150,2	   0,0114627	-151,4
     43,4374	   0,0114816	-147,8	   0,0114183	-151,5
     43,4394	   0,0113902	-146,8	   0,0114003	-147,5
     43,4413	   0,0112922	-146,9	   0,0113671	-146,9
     43,4433	   0,0112995	-145,2	   0,0113359	-144,4
     43,4453	   0,0113052	-148,2	   0,0113164	-146,5
     43,4472	    0,011366	-148,4	   0,0112546	-149,1
     43,4492	   0,0113928	-149,9	   0,0112716	-148,8
     43,4511	   0,0113498	-150,0	   0,0112484	-148,4
     43,4531	   0,0112357	-151,5	   0,0112166	-149,9
      43,455	   0,0112548	-148,5	   0,0111649	-151,5
      43,457	   0,0111704	-146,9	   0,0111504	-148,1
     43,4589	   0,0112212	-144,6	   0,0111805	-148,9
     43,4609	   0,0112231	-147,2	   0,0110659	-145,4
     43,4629	   0,0111642	-145,9	   0,0110928	-146,1
     43,4648	   0,0110652	-147,4	   0,0109964	-144,8
     43,4668	   0,0109833	-148,1	   0,0109999	-146,0
     43,4687	   0,0109894	-147,4	   0,0110552	-147,5
     43,4707	   0,0109428	-150,0	   0,0109732	-149,8
     43,4726	   0,0109627	-147,4	   0,0109384	-148,7
     43,4746	   0,0109918	-147,9	   0,0108942	-148,2
     43,4765	   0,0109782	-146,3	   0,0109487	-147,7
     43,4785	   0,0109383	-143,4	   0,0109216	-147,0
     43,4804	   0,0109471	-143,4	   0,0109213	-149,4
     43,4824	   0,0109032	-145,0	   0,0108597	-145,8
     43,4844	   0,0108977	-146,7	   0,0108731	-147,2
     43,4863	   0,0109021	-147,4	   0,0107659	-146,5
     43,4883	   0,0108442	-148,0	   0,0107451	-148,0
     43,4902	   0,0106924	-149,0	   0,0106674	-149,9
     43,4922	   0,0106814	-147,6	   0,0106986	-147,8
     43,4941	   0,0106105	-147,2	   0,0105824	-150,2
     43,4961	   0,0106887	-145,0	   0,0105529	-147,3
      43,498	   0,0106378	-143,7	   0,0106155	-146,8
        43,5	   0,0106553	-148,0	   0,0106019	-145,5

