X-Data [Hz]	Laser (M - Filtered) [m/s]	Phase [Deg]	Laser (M - Filtered) [m/s]	Phase [Deg]	
	003: [06-27-24 14:15]		007: [06-27-24 14:21]	
         155	   0,0260443	59,4	   0,0309819	56,5
     155,049	   0,0295301	56,4	   0,0307375	56,6
     155,098	      0,0303	58,1	   0,0308804	58,5
     155,147	   0,0306317	56,9	   0,0311435	55,2
     155,196	    0,031926	56,4	   0,0317527	57,5
     155,244	   0,0316314	57,1	   0,0317127	55,2
     155,293	   0,0321776	56,9	   0,0320177	55,7
     155,342	   0,0319819	56,3	   0,0325262	55,7
     155,391	   0,0325105	56,8	   0,0322927	56,8
      155,44	   0,0322833	57,3	    0,032899	56,8
     155,489	    0,032806	57,3	   0,0325326	57,2
     155,538	   0,0336945	57,5	   0,0329747	57,2
     155,587	   0,0334694	58,2	   0,0335856	56,6
     155,635	   0,0341589	56,8	   0,0338091	58,2
     155,684	   0,0342301	57,2	   0,0343252	56,1
     155,733	   0,0340407	57,5	   0,0342561	55,8
     155,782	   0,0349667	56,6	   0,0341736	58,9
     155,831	   0,0352601	59,3	    0,035159	57,4
      155,88	   0,0352118	58,8	   0,0352204	55,2
     155,929	   0,0360415	55,4	   0,0351659	57,5
     155,978	   0,0365849	56,5	   0,0360148	58,7
     156,026	   0,0369311	57,0	   0,0368028	56,4
     156,075	   0,0365788	57,8	   0,0366884	55,8
     156,124	   0,0364669	57,6	   0,0364625	57,6
     156,173	   0,0381313	56,3	   0,0365734	59,5
     156,222	   0,0386005	57,6	    0,037963	57,0
     156,271	    0,038532	57,4	   0,0386701	57,0
      156,32	   0,0385799	58,9	    0,039188	56,9
     156,369	   0,0386422	56,7	   0,0389089	57,0
     156,417	   0,0390104	56,6	   0,0391682	56,1
     156,466	   0,0394782	59,1	   0,0392275	58,0
     156,515	    0,040313	56,9	   0,0404248	58,4
     156,564	   0,0404252	57,6	   0,0408896	56,4
     156,613	   0,0416777	56,0	   0,0409798	59,6
     156,662	   0,0421369	57,3	   0,0414303	58,8
     156,711	   0,0420482	57,3	   0,0425132	57,1
      156,76	   0,0428879	57,3	   0,0434127	56,2
     156,808	   0,0430001	56,2	   0,0432741	55,7
     156,857	   0,0433619	57,6	   0,0433483	57,6
     156,906	   0,0442193	55,8	    0,044313	56,6
     156,955	   0,0445132	56,1	   0,0444526	56,4
     157,004	   0,0447553	57,4	   0,0452315	55,7
     157,053	    0,045271	56,9	   0,0457749	56,4
     157,102	   0,0461829	59,1	   0,0458608	57,3
     157,151	   0,0463188	57,8	   0,0465617	58,3
     157,199	   0,0468706	58,3	   0,0470262	59,3
     157,248	   0,0474134	58,1	   0,0477837	58,0
     157,297	   0,0481511	56,5	   0,0481617	57,4
     157,346	   0,0487307	57,5	   0,0483621	58,8
     157,395	   0,0490073	56,9	    0,049717	58,2
     157,444	   0,0491364	58,6	   0,0503144	57,6
     157,493	   0,0505441	59,4	   0,0506363	57,7
     157,542	   0,0511141	58,6	   0,0517548	56,4
      157,59	   0,0517755	57,9	   0,0527846	58,6
     157,639	   0,0523932	57,8	   0,0525499	59,1
     157,688	   0,0528573	59,1	   0,0536908	57,3
     157,737	    0,053862	58,3	    0,053737	57,4
     157,786	   0,0546082	57,7	   0,0547925	58,3
     157,835	   0,0550166	58,0	   0,0554659	57,7
     157,884	   0,0564198	58,3	   0,0566624	57,4
     157,933	   0,0566541	58,4	   0,0572916	58,3
     157,981	   0,0572135	58,6	   0,0576951	58,6
      158,03	   0,0586805	58,3	   0,0587226	56,0
     158,079	   0,0599499	57,5	   0,0596553	58,2
     158,128	    0,060552	58,3	   0,0604433	58,1
     158,177	   0,0609149	58,4	   0,0610906	58,3
     158,226	   0,0618911	57,8	    0,061902	58,5
     158,275	   0,0627806	57,4	   0,0625565	57,7
     158,324	   0,0633211	57,6	   0,0646324	56,6
     158,372	   0,0643466	59,6	   0,0646897	58,7
     158,421	   0,0653173	59,4	   0,0662653	58,3
      158,47	   0,0665802	59,3	    0,066904	58,1
     158,519	   0,0675272	58,5	   0,0683308	57,2
     158,568	    0,068791	59,7	   0,0689117	58,8
     158,617	   0,0696848	58,6	   0,0707357	58,4
     158,666	   0,0705941	59,8	   0,0714073	58,8
     158,715	   0,0720004	60,7	   0,0732011	60,4
     158,763	   0,0735775	57,6	   0,0737134	58,4
     158,812	   0,0744461	60,1	   0,0750702	58,9
     158,861	   0,0755492	60,4	   0,0766456	57,1
      158,91	   0,0781263	59,0	   0,0779788	61,4
     158,959	   0,0786174	60,8	   0,0793045	58,4
     159,008	   0,0800436	59,6	   0,0800068	60,3
     159,057	   0,0806752	58,6	   0,0818616	59,8
     159,106	   0,0823958	60,2	   0,0832527	59,3
     159,154	   0,0840255	59,7	   0,0845651	59,7
     159,203	   0,0855756	60,0	   0,0865238	58,6
     159,252	   0,0876952	59,6	   0,0882629	57,6
     159,301	     0,08961	59,6	   0,0899433	60,2
      159,35	   0,0910944	60,0	   0,0921233	59,7
     159,399	   0,0930541	59,6	   0,0935176	58,9
     159,448	   0,0951697	59,9	   0,0947859	61,3
     159,497	   0,0965069	60,6	   0,0964058	60,8
     159,545	   0,0979071	60,4	   0,0990277	60,8
     159,594	    0,100223	60,0	    0,100868	61,2
     159,643	      0,1024	61,3	    0,102606	59,5
     159,692	    0,103509	61,0	     0,10432	61,7
     159,741	    0,105216	61,0	    0,106229	60,4
      159,79	     0,10799	60,2	    0,108776	62,4
     159,839	    0,109441	60,8	    0,111957	59,7
     159,888	     0,11202	62,7	      0,1142	62,0
     159,936	    0,113789	61,4	    0,116223	61,1
     159,985	    0,116045	61,2	    0,118311	59,9
     160,034	    0,118714	59,7	    0,120383	61,7
     160,083	    0,120913	59,1	    0,122591	61,3
     160,132	     0,12337	61,1	    0,124333	63,1
     160,181	    0,125684	60,8	    0,127141	62,5
      160,23	    0,127707	60,7	    0,130023	63,2
     160,279	     0,13103	62,4	    0,132783	63,7
     160,327	    0,133329	61,6	    0,135778	61,6
     160,376	    0,136385	63,0	      0,1376	63,4
     160,425	    0,137918	64,5	    0,139613	62,7
     160,474	    0,140377	62,3	    0,142823	64,0
     160,523	    0,143914	62,7	    0,145766	61,1
     160,572	    0,147793	63,5	    0,147648	62,5
     160,621	     0,14885	63,9	    0,150715	62,2
      160,67	    0,152159	63,5	    0,152946	63,0
     160,718	    0,154965	62,7	     0,15614	62,8
     160,767	    0,158133	65,5	    0,159522	62,6
     160,816	    0,159981	65,0	    0,160832	63,0
     160,865	     0,16203	64,8	     0,16359	64,3
     160,914	    0,165691	64,7	    0,166531	63,3
     160,963	    0,168815	63,0	    0,168836	62,8
     161,012	     0,17172	64,7	    0,171416	62,9
     161,061	    0,174221	64,9	     0,17428	63,6
     161,109	    0,177976	63,8	    0,177799	64,9
     161,158	    0,179188	63,3	    0,179989	63,5
     161,207	    0,182502	64,7	    0,181779	65,5
     161,256	    0,185422	64,4	    0,185238	66,3
     161,305	    0,188697	65,4	    0,187506	65,3
     161,354	    0,191273	65,6	    0,190765	64,8
     161,403	    0,194092	64,5	    0,192995	64,0
     161,452	    0,196731	64,6	    0,195256	66,9
       161,5	    0,200197	64,3	    0,198686	64,4
     161,549	     0,20208	65,6	    0,200148	66,2
     161,598	    0,204549	67,4	    0,203546	65,6
     161,647	    0,207465	66,0	    0,204774	65,8
     161,696	    0,210713	66,0	    0,208307	67,6
     161,745	    0,213004	67,1	     0,21197	65,6
     161,794	    0,215003	64,9	    0,213337	66,3
     161,843	    0,218479	67,3	     0,21608	67,7
     161,891	    0,221134	65,2	    0,218261	66,7
      161,94	    0,224389	67,7	    0,221019	64,6
     161,989	    0,225627	66,1	    0,224304	67,3
     162,038	    0,228796	67,1	    0,227031	67,4
     162,087	    0,231075	66,7	    0,229506	66,2
     162,136	    0,233344	65,2	    0,231227	66,8
     162,185	     0,23559	68,9	    0,233803	68,6
     162,234	    0,238537	65,7	    0,236722	65,7
     162,283	    0,241288	68,0	    0,238303	66,6
     162,331	    0,243264	69,5	    0,241113	68,3
      162,38	    0,246148	65,9	     0,24342	68,9
     162,429	    0,248247	67,4	    0,245116	68,5
     162,478	    0,250594	68,7	    0,248724	67,9
     162,527	     0,25287	67,2	    0,250712	68,5
     162,576	    0,255316	69,0	    0,253929	68,7
     162,625	    0,257185	69,5	      0,2558	66,9
     162,674	    0,259782	67,6	    0,257996	68,0
     162,722	    0,262741	68,5	    0,260022	67,8
     162,771	      0,2649	68,2	    0,262825	68,5
      162,82	    0,266935	70,5	    0,265265	69,0
     162,869	    0,269112	69,2	    0,267396	70,9
     162,918	    0,271614	67,9	    0,269414	69,7
     162,967	    0,274347	68,4	    0,272411	67,7
     163,016	    0,276394	69,6	    0,273969	67,8
     163,065	     0,27866	69,7	    0,275436	69,7
     163,113	    0,280652	70,8	    0,278384	70,6
     163,162	    0,282962	69,2	    0,280898	70,8
     163,211	     0,28539	69,7	    0,282217	70,6
      163,26	    0,287724	68,5	    0,284607	68,6
     163,309	    0,290195	69,1	    0,226166	-146,8
     163,358	    0,292435	69,8	    0,233809	-148,1
     163,407	    0,294599	70,2	     0,23466	-147,4
     163,456	    0,296167	70,7	     0,20063	-142,4
     163,504	    0,299061	70,1	    0,169759	-138,8
     163,553	    0,301109	72,3	     0,14907	-136,0
     163,602	    0,302858	71,5	    0,135528	-136,3
     163,651	    0,305039	71,4	    0,127034	-132,5
       163,7	    0,307669	70,9	    0,120968	-132,7
     163,749	    0,310352	69,5	    0,116309	-133,5
     163,798	    0,311999	70,0	    0,111079	-133,0
     163,847	    0,314283	70,9	    0,107224	-132,4
     163,895	    0,315796	71,8	    0,105126	-133,5
     163,944	    0,317911	70,1	    0,101853	-131,0
     163,993	    0,320926	70,9	   0,0988359	-130,5
     164,042	    0,322322	72,4	   0,0969395	-130,6
     164,091	    0,324449	71,1	   0,0931891	-130,3
      164,14	    0,327069	70,9	   0,0907902	-130,3
     164,189	    0,328679	70,9	    0,089778	-132,1
     164,238	    0,330628	72,1	   0,0864277	-130,9
     164,286	     0,33279	74,1	   0,0846381	-130,7
     164,335	    0,334865	73,3	   0,0847253	-129,5
     164,384	    0,337009	72,0	   0,0811535	-129,3
     164,433	    0,339478	70,9	   0,0819136	-131,1
     164,482	    0,341586	71,9	   0,0781371	-129,7
     164,531	    0,343193	70,8	   0,0783049	-128,9
      164,58	    0,344703	72,0	    0,076097	-130,8
     164,629	    0,347188	72,5	   0,0739912	-130,9
     164,677	    0,349603	74,2	   0,0730743	-131,5
     164,726	    0,351438	73,7	   0,0717581	-129,0
     164,775	    0,353118	74,6	   0,0716335	-130,4
     164,824	    0,354865	75,9	   0,0704876	-128,1
     164,873	    0,357355	73,8	   0,0682697	-128,5
     164,922	    0,359129	74,3	   0,0678083	-129,4
     164,971	    0,360895	74,4	   0,0673826	-129,8
      165,02	    0,363155	74,8	   0,0647555	-128,7
     165,068	    0,365132	73,8	   0,0647068	-128,9
     165,117	    0,366327	75,1	   0,0630762	-128,1
     165,166	    0,368519	74,7	   0,0629022	-130,4
     165,215	    0,371155	72,4	    0,063357	-129,4
     165,264	    0,372777	75,4	   0,0610735	-129,7
     165,313	    0,374834	73,6	   0,0607721	-130,8
     165,362	    0,376427	76,5	   0,0602449	-127,5
     165,411	     0,37806	71,9	   0,0591322	-128,2
     165,459	    0,379818	75,5	   0,0586991	-128,0
     165,508	    0,382232	74,4	   0,0573594	-128,2
     165,557	    0,384663	74,6	   0,0562971	-131,7
     165,606	    0,386064	75,9	   0,0566505	-128,9
     165,655	     0,38734	74,1	   0,0567645	-129,1
     165,704	    0,389166	75,6	   0,0550761	-128,2
     165,753	    0,391482	75,0	   0,0537657	-130,8
     165,802	    0,393069	73,7	   0,0537509	-127,2
      165,85	    0,394709	77,0	   0,0532871	-128,9
     165,899	    0,396427	75,6	    0,052492	-130,6
     165,948	      0,3992	73,9	   0,0516176	-130,4
     165,997	     0,40061	75,5	   0,0514454	-130,1
     166,046	    0,402384	75,2	   0,0509592	-130,9
     166,095	    0,403802	75,7	   0,0500966	-127,7
     166,144	    0,406069	76,1	   0,0500252	-127,0
     166,193	      0,4071	74,9	   0,0490783	-127,7
     166,241	    0,408924	76,9	   0,0483416	-130,1
      166,29	    0,411085	76,3	   0,0480311	-129,6
     166,339	    0,412099	74,6	   0,0471754	-127,4
     166,388	    0,414664	76,0	   0,0467388	-127,8
     166,437	    0,416973	75,9	   0,0465137	-128,5
     166,486	    0,418255	76,3	   0,0462319	-126,7
     166,535	    0,419777	75,6	   0,0455134	-129,6
     166,584	    0,421508	77,1	   0,0448497	-128,0
     166,632	    0,423697	75,4	   0,0447684	-126,9
     166,681	    0,425555	75,3	   0,0443554	-128,3
      166,73	    0,426602	77,4	   0,0446266	-129,1
     166,779	     0,42868	75,3	   0,0432962	-131,1
     166,828	    0,430372	73,8	    0,043251	-129,0
     166,877	    0,431014	76,6	   0,0434765	-128,6
     166,926	    0,434432	78,3	    0,043001	-127,9
     166,975	    0,435736	75,2	   0,0426423	-129,7
     167,023	     0,43727	76,2	    0,041455	-128,5
     167,072	    0,438849	78,3	   0,0414931	-128,3
     167,121	    0,440771	76,5	   0,0412692	-129,4
      167,17	    0,441844	76,5	   0,0408378	-130,6
     167,219	    0,443821	79,1	   0,0405852	-129,9
     167,268	    0,445427	77,8	   0,0401337	-128,7
     167,317	    0,446501	76,5	    0,040268	-126,9
     167,366	    0,448802	77,9	   0,0395956	-129,6
     167,414	    0,450525	77,4	   0,0390995	-125,5
     167,463	     0,45266	77,2	    0,038668	-126,6
     167,512	    0,453999	77,0	   0,0387458	-127,3
     167,561	    0,455468	77,2	   0,0384774	-126,9
      167,61	    0,457178	78,8	   0,0383355	-129,2
     167,659	    0,459111	79,4	   0,0369966	-128,4
     167,708	    0,459935	78,4	   0,0371143	-126,5
     167,757	    0,462085	77,7	   0,0366311	-127,8
     167,805	    0,463385	77,6	   0,0370918	-126,3
     167,854	    0,465458	80,0	   0,0360954	-129,7
     167,903	    0,466344	79,3	   0,0364506	-129,0
     167,952	    0,468829	77,9	   0,0360491	-126,0
     168,001	    0,470661	80,8	   0,0357645	-128,7
      168,05	    0,472363	79,1	   0,0354068	-126,9
     168,099	     0,47297	80,7	   0,0353091	-129,8
     168,148	    0,475066	78,9	   0,0351933	-126,7
     168,196	    0,476515	79,6	   0,0351057	-126,8
     168,245	    0,478763	78,6	   0,0340833	-125,6
     168,294	    0,480145	79,9	   0,0342919	-128,4
     168,343	    0,482064	76,9	   0,0340591	-128,4
     168,392	     0,48374	79,9	   0,0340274	-128,5
     168,441	     0,48506	79,8	   0,0330094	-127,3
      168,49	    0,486473	79,0	   0,0331831	-129,7
     168,539	    0,488296	81,2	   0,0327303	-125,9
     168,587	    0,489674	79,6	   0,0330532	-128,2
     168,636	    0,491283	80,6	   0,0328547	-127,1
     168,685	    0,492379	79,9	   0,0323296	-128,3
     168,734	    0,495004	80,4	   0,0319766	-125,0
     168,783	    0,495412	80,7	    0,031452	-131,5
     168,832	    0,498006	82,0	   0,0318594	-126,2
     168,881	    0,499164	81,3	   0,0312484	-130,6
      168,93	    0,500928	82,5	   0,0314321	-128,8
     168,979	     0,50209	81,4	   0,0315144	-128,2
     169,027	    0,503677	81,3	   0,0310973	-127,7
     169,076	    0,505182	83,2	   0,0307732	-128,3
     169,125	    0,506767	82,2	     0,03064	-126,0
     169,174	    0,508641	82,1	   0,0303047	-126,1
     169,223	    0,509849	83,6	   0,0298525	-130,2
     169,272	    0,511599	81,7	   0,0298995	-126,0
     169,321	     0,51282	83,0	   0,0302022	-125,2
      169,37	    0,514736	84,3	   0,0300188	-127,4
     169,418	    0,515849	84,0	   0,0297754	-126,1
     169,467	    0,518429	80,6	   0,0293689	-127,1
     169,516	    0,519224	80,0	   0,0293265	-128,7
     169,565	    0,521029	82,9	   0,0289675	-127,5
     169,614	     0,52235	80,2	   0,0286922	-127,0
     169,663	    0,523651	81,7	   0,0288248	-126,8
     169,712	    0,525791	81,9	   0,0284616	-128,9
     169,761	    0,527143	82,5	   0,0286707	-127,9
     169,809	    0,528827	83,7	   0,0283608	-126,7
     169,858	    0,530356	82,0	   0,0279484	-126,1
     169,907	    0,532015	81,4	   0,0279705	-127,0
     169,956	    0,533316	83,1	   0,0273655	-128,3
     170,005	    0,534611	79,5	    0,028012	-129,5
     170,054	    0,536537	84,8	   0,0275052	-131,0
     170,103	    0,538114	82,1	   0,0269715	-127,0
     170,152	    0,539152	83,6	   0,0269789	-126,4
       170,2	    0,540751	83,5	   0,0275237	-129,0
     170,249	    0,542492	82,6	   0,0270071	-127,5
     170,298	    0,544021	83,4	   0,0270552	-128,0
     170,347	    0,545369	84,0	   0,0266409	-128,1
     170,396	    0,547414	83,4	    0,026274	-126,7
     170,445	    0,548898	82,5	   0,0263642	-126,4
     170,494	    0,549855	81,6	   0,0260437	-125,7
     170,543	    0,551505	86,2	   0,0259373	-126,4
     170,591	    0,553245	82,4	   0,0258506	-126,9
      170,64	    0,554836	84,3	   0,0258102	-127,1
     170,689	    0,556399	82,6	   0,0259068	-126,0
     170,738	    0,557616	83,8	   0,0254902	-125,7
     170,787	    0,559192	84,1	   0,0258434	-126,6
     170,836	    0,560723	84,8	   0,0253976	-127,5
     170,885	    0,562455	82,5	   0,0254231	-128,2
     170,934	    0,563456	84,9	   0,0250888	-129,3
     170,982	    0,564827	83,5	   0,0255093	-124,8
     171,031	    0,567257	84,6	   0,0252215	-128,1
      171,08	    0,567999	82,8	   0,0246792	-125,7
     171,129	    0,569381	85,5	   0,0249806	-127,0
     171,178	    0,571078	83,9	   0,0244307	-126,6
     171,227	    0,572301	83,9	   0,0244386	-128,1
     171,276	    0,574371	84,0	   0,0244207	-125,2
     171,325	    0,575505	83,6	   0,0238595	-125,4
     171,373	    0,576696	85,0	   0,0236756	-127,2
     171,422	    0,578147	86,0	      0,0242	-126,7
     171,471	    0,579185	82,6	   0,0240103	-128,2
      171,52	    0,581157	84,6	   0,0237754	-125,3
     171,569	    0,582693	82,0	   0,0234813	-128,2
     171,618	     0,58407	84,1	    0,023239	-130,7
     171,667	    0,584547	84,7	   0,0239341	-127,0
     171,716	    0,586878	86,3	   0,0236372	-127,7
     171,764	    0,588097	84,5	   0,0231565	-127,4
     171,813	    0,589656	85,3	   0,0231587	-125,1
     171,862	    0,591201	86,0	   0,0234703	-127,0
     171,911	    0,592425	85,2	   0,0224442	-125,4
      171,96	    0,593872	83,9	   0,0227527	-128,3
     172,009	     0,59515	85,2	   0,0229558	-127,3
     172,058	    0,596568	84,9	   0,0229259	-125,5
     172,107	    0,598148	84,7	   0,0229319	-126,4
     172,155	    0,599609	84,5	   0,0227967	-125,5
     172,204	    0,601282	87,3	   0,0222599	-127,1
     172,253	    0,602555	84,7	   0,0221169	-128,0
     172,302	    0,604066	84,7	    0,022265	-129,2
     172,351	    0,605044	85,4	   0,0223946	-128,1
       172,4	    0,606479	87,9	    0,022231	-125,5
     172,449	      0,6081	87,4	   0,0217314	-129,3
     172,498	    0,608739	86,4	   0,0219114	-128,7
     172,546	     0,61081	86,6	   0,0217369	-127,0
     172,595	    0,612046	85,3	   0,0220458	-131,1
     172,644	    0,613235	85,4	    0,022056	-125,8
     172,693	    0,615146	86,5	   0,0215232	-127,0
     172,742	    0,616681	85,6	   0,0214333	-127,7
     172,791	    0,618244	86,4	    0,021128	-127,3
      172,84	    0,619073	86,4	   0,0211956	-128,5
     172,889	    0,621112	86,4	   0,0213612	-128,5
     172,937	     0,62238	86,1	   0,0212682	-124,6
     172,986	    0,623497	86,4	   0,0208974	-126,7
     173,035	    0,625082	84,7	   0,0206435	-129,3
     173,084	    0,626377	86,1	   0,0204109	-127,5
     173,133	    0,627708	87,9	   0,0208377	-126,1
     173,182	    0,629289	89,0	   0,0206397	-128,4
     173,231	    0,630924	85,6	   0,0206996	-129,8
      173,28	    0,632033	87,2	   0,0207194	-129,7
     173,328	    0,633496	87,3	   0,0200897	-129,9
     173,377	     0,63465	87,9	   0,0200874	-129,2
     173,426	    0,635774	88,1	   0,0204199	-126,0
     173,475	    0,637594	86,5	   0,0205726	-125,6
     173,524	      0,6388	89,8	   0,0200585	-127,1
     173,573	    0,640732	86,7	    0,020327	-127,8
     173,622	    0,641211	89,6	   0,0201089	-127,4
     173,671	    0,642958	86,4	   0,0200615	-126,5
     173,719	    0,644414	88,7	   0,0201153	-125,2
     173,768	    0,645965	88,4	    0,019975	-129,2
     173,817	     0,64739	88,8	    0,019894	-126,1
     173,866	    0,648571	88,9	   0,0194531	-127,1
     173,915	    0,649598	86,9	   0,0197053	-126,4
     173,964	    0,651499	88,2	   0,0200218	-124,3
     174,013	    0,652455	87,5	    0,019398	-127,4
     174,062	    0,653894	87,5	   0,0195302	-127,0
      174,11	     0,65491	90,0	   0,0193165	-126,8
     174,159	      0,6563	91,0	   0,0192973	-126,9
     174,208	    0,657741	88,8	   0,0193476	-126,9
     174,257	    0,658894	89,5	   0,0194211	-128,5
     174,306	    0,660808	86,9	   0,0193746	-127,4
     174,355	    0,661965	90,3	   0,0189887	-127,2
     174,404	    0,663366	88,6	   0,0186444	-129,0
     174,453	    0,665179	90,0	   0,0188298	-127,0
     174,501	    0,666618	89,7	   0,0190083	-126,7
      174,55	     0,66729	89,0	   0,0187048	-129,0
     174,599	     0,66901	87,9	   0,0188759	-128,1
     174,648	    0,670523	88,4	   0,0187219	-127,4
     174,697	    0,671339	88,7	   0,0185826	-126,9
     174,746	    0,672594	90,1	   0,0187195	-127,6
     174,795	    0,674169	88,4	   0,0182126	-126,1
     174,844	    0,675575	89,2	   0,0186435	-127,6
     174,892	    0,676713	90,4	    0,018269	-126,4
     174,941	    0,678291	87,2	   0,0182857	-126,4
      174,99	    0,679271	88,7	   0,0181742	-127,3
     175,039	    0,680525	91,8	   0,0182161	-126,4
     175,088	    0,682256	88,1	    0,017904	-127,1
     175,137	    0,683245	89,7	   0,0180535	-124,7
     175,186	    0,685219	88,9	   0,0182556	-126,3
     175,235	    0,686184	90,3	   0,0183403	-124,9
     175,283	    0,687385	90,5	   0,0178341	-125,9
     175,332	    0,688975	91,0	   0,0180251	-129,0
     175,381	     0,69028	89,8	   0,0178438	-128,6
      175,43	    0,691579	90,6	   0,0178102	-129,8
     175,479	    0,692595	91,5	   0,0179978	-127,2
     175,528	     0,69406	91,6	   0,0177415	-125,9
     175,577	     0,69527	90,1	   0,0177996	-128,2
     175,626	    0,696871	91,2	   0,0177226	-127,1
     175,674	    0,697776	90,7	   0,0176725	-128,4
     175,723	    0,699401	89,9	   0,0177093	-125,8
     175,772	    0,700372	91,5	   0,0173532	-127,1
     175,821	     0,70177	91,6	   0,0173478	-128,3
      175,87	    0,702933	92,2	   0,0175232	-127,5
     175,919	    0,704237	91,5	   0,0173117	-124,5
     175,968	    0,705688	93,7	   0,0168781	-126,5
     176,017	    0,707231	94,6	   0,0170609	-129,0
     176,065	    0,708358	90,6	    0,017149	-129,2
     176,114	    0,709263	89,6	   0,0172168	-127,8
     176,163	    0,711445	90,2	   0,0170139	-129,3
     176,212	    0,712185	93,9	   0,0172363	-127,3
     176,261	    0,714285	90,6	   0,0172598	-127,1
      176,31	    0,714913	94,3	   0,0169997	-127,3
     176,359	     0,71615	92,8	   0,0171585	-129,2
     176,408	    0,717543	91,4	    0,016814	-127,2
     176,456	    0,718938	92,3	    0,017003	-124,7
     176,505	     0,72042	92,1	   0,0168449	-124,9
     176,554	    0,721881	90,2	   0,0166695	-126,6
     176,603	    0,722513	90,4	   0,0166436	-128,6
     176,652	    0,723968	92,0	    0,016772	-124,2
     176,701	    0,725066	92,9	   0,0168661	-128,9
      176,75	    0,726761	93,8	   0,0166095	-127,5
     176,799	    0,728136	92,4	   0,0165298	-127,0
     176,848	    0,729204	91,0	   0,0164568	-128,6
     176,896	    0,730832	93,7	    0,016226	-130,7
     176,945	    0,732399	92,9	   0,0165518	-128,0
     176,994	    0,733371	94,9	   0,0165589	-128,6
     177,043	    0,734545	94,3	   0,0165152	-125,3
     177,092	    0,735738	93,3	    0,016171	-125,6
     177,141	    0,737143	94,3	    0,016478	-124,8
      177,19	    0,738608	93,4	   0,0162858	-125,6
     177,239	    0,739344	95,4	   0,0164453	-127,6
     177,287	    0,740979	92,0	   0,0162994	-123,5
     177,336	    0,742395	94,0	   0,0161281	-125,1
     177,385	    0,743813	94,8	   0,0161306	-127,9
     177,434	    0,745476	91,8	   0,0162941	-126,2
     177,483	    0,746128	93,7	   0,0161791	-128,8
     177,532	    0,747635	95,4	   0,0159247	-128,6
     177,581	     0,74862	94,2	   0,0161375	-126,1
      177,63	    0,750105	94,8	   0,0159934	-130,3
     177,678	    0,751334	93,6	   0,0161634	-128,3
     177,727	    0,752596	94,2	    0,015715	-127,3
     177,776	    0,753771	93,6	   0,0156538	-128,0
     177,825	    0,754978	94,9	    0,015782	-131,3
     177,874	    0,756409	92,3	   0,0158033	-129,5
     177,923	    0,758258	93,7	   0,0157682	-126,1
     177,972	    0,759408	93,5	   0,0154945	-127,8
     178,021	    0,760563	93,2	   0,0157401	-126,7
     178,069	    0,761445	92,6	   0,0153611	-125,6
     178,118	    0,762726	93,2	   0,0156348	-127,4
     178,167	    0,764254	95,1	   0,0154849	-127,1
     178,216	     0,76551	94,5	   0,0154431	-126,9
     178,265	    0,766541	94,8	   0,0155797	-127,0
     178,314	    0,768601	94,6	   0,0154895	-126,6
     178,363	     0,76979	95,2	    0,015511	-128,3
     178,412	    0,770872	94,4	   0,0153024	-129,6
      178,46	    0,772358	94,4	   0,0152896	-127,8
     178,509	    0,772849	96,3	   0,0152507	-125,4
     178,558	    0,774169	94,8	   0,0153652	-126,0
     178,607	    0,776544	95,0	   0,0150624	-128,5
     178,656	    0,777947	96,1	   0,0153177	-126,0
     178,705	    0,778749	94,3	   0,0150655	-126,4
     178,754	    0,780032	94,3	   0,0151399	-127,7
     178,803	    0,781452	97,1	   0,0147039	-127,2
     178,851	    0,782798	95,4	   0,0149107	-126,9
       178,9	     0,78351	95,4	   0,0149498	-124,9
     178,949	    0,785584	96,9	   0,0146836	-125,5
     178,998	    0,786655	95,3	   0,0149236	-128,6
     179,047	    0,787949	95,1	    0,014902	-126,8
     179,096	    0,788862	94,5	   0,0148873	-126,7
     179,145	    0,790187	95,7	   0,0147883	-124,1
     179,194	    0,791914	95,2	   0,0146275	-125,0
     179,242	    0,792806	95,7	   0,0146339	-123,9
     179,291	    0,794367	96,3	   0,0147742	-128,3
      179,34	    0,795515	96,7	   0,0147748	-126,9
     179,389	    0,796883	98,0	    0,014789	-126,6
     179,438	    0,798395	96,8	    0,014506	-128,8
     179,487	    0,799661	95,7	   0,0149162	-128,9
     179,536	    0,800933	95,7	   0,0144585	-125,8
     179,585	    0,801984	99,2	    0,014399	-126,8
     179,633	    0,803217	96,8	   0,0145773	-127,5
     179,682	    0,804151	97,6	   0,0146098	-127,7
     179,731	    0,805557	96,0	   0,0146174	-129,8
      179,78	    0,807258	95,2	   0,0146323	-128,6
     179,829	    0,808159	95,5	   0,0143342	-130,1
     179,878	    0,809627	95,7	   0,0142236	-125,6
     179,927	     0,81077	95,3	   0,0141365	-125,6
     179,976	    0,811951	98,1	   0,0145763	-126,4
     180,024	    0,813487	97,9	   0,0143047	-126,6
     180,073	    0,814155	98,1	   0,0145925	-126,2
     180,122	    0,815979	99,4	   0,0141364	-130,0
     180,171	    0,816684	96,7	   0,0144527	-126,0
      180,22	    0,818755	99,4	   0,0141952	-131,6
     180,269	    0,819452	97,7	   0,0142174	-130,9
     180,318	    0,821648	97,8	   0,0142722	-126,7
     180,367	    0,822124	96,8	   0,0138706	-124,8
     180,415	    0,823489	98,2	   0,0137998	-125,7
     180,464	    0,825002	97,9	   0,0138985	-126,9
     180,513	    0,826112	97,5	   0,0139295	-125,3
     180,562	     0,82798	97,1	   0,0138693	-125,7
     180,611	    0,829063	94,4	   0,0137882	-126,7
      180,66	    0,830357	99,3	   0,0139185	-125,6
     180,709	    0,831667	98,6	   0,0137263	-124,5
     180,758	    0,832864	98,3	   0,0138236	-126,7
     180,806	    0,834205	100,5	    0,013974	-128,7
     180,855	    0,835095	99,2	   0,0136859	-127,4
     180,904	    0,836658	97,9	   0,0133986	-127,7
     180,953	     0,83733	98,4	   0,0136247	-126,1
     181,002	    0,838705	99,8	   0,0137894	-125,7
     181,051	    0,839824	98,2	   0,0138038	-126,2
       181,1	    0,841422	98,4	   0,0138118	-124,1
     181,149	    0,842915	101,4	   0,0139466	-129,3
     181,197	    0,844406	99,6	   0,0138673	-125,8
     181,246	    0,845478	97,8	   0,0137293	-128,4
     181,295	    0,846197	98,5	   0,0135924	-129,7
     181,344	    0,848522	98,9	   0,0137284	-124,9
     181,393	    0,849101	98,7	   0,0133711	-130,9
     181,442	    0,850874	99,5	   0,0133824	-124,7
     181,491	    0,852184	97,6	   0,0133584	-127,8
      181,54	    0,853598	99,9	   0,0134053	-126,1
     181,588	     0,85433	99,9	    0,013369	-125,9
     181,637	    0,855584	99,2	   0,0131405	-129,5
     181,686	    0,857655	99,2	   0,0135597	-126,9
     181,735	    0,858758	100,6	   0,0133702	-126,5
     181,784	    0,859501	97,4	   0,0136962	-128,7
     181,833	     0,86125	98,6	   0,0132785	-128,2
     181,882	    0,861834	99,6	   0,0130626	-128,4
     181,931	    0,863189	100,4	   0,0136614	-127,0
     181,979	    0,865013	99,6	   0,0128994	-125,2
     182,028	    0,865595	98,0	    0,013257	-125,6
     182,077	     0,86753	98,5	   0,0131906	-123,1
     182,126	    0,868055	100,0	   0,0132151	-127,8
     182,175	    0,868685	101,5	   0,0133539	-127,4
     182,224	    0,871352	100,4	   0,0130483	-126,6
     182,273	    0,871654	98,6	   0,0129331	-124,6
     182,322	    0,873257	99,8	   0,0129117	-129,2
      182,37	    0,874548	97,7	   0,0132849	-129,4
     182,419	     0,87591	101,9	    0,013155	-126,7
     182,468	    0,876958	101,1	   0,0127189	-127,0
     182,517	    0,878258	100,6	   0,0130172	-124,3
     182,566	    0,879217	101,6	   0,0128289	-129,4
     182,615	    0,880282	99,4	   0,0129687	-127,9
     182,664	    0,882167	99,8	   0,0128247	-127,5
     182,713	    0,883054	100,5	   0,0130724	-128,2
     182,761	    0,883718	99,5	   0,0129185	-125,2
      182,81	    0,885034	102,2	   0,0131794	-126,9
     182,859	    0,886961	99,4	   0,0128826	-125,5
     182,908	    0,888156	101,9	    0,013188	-127,2
     182,957	    0,888812	100,1	   0,0128681	-126,7
     183,006	    0,890649	101,9	   0,0127181	-125,5
     183,055	    0,891321	101,8	   0,0125969	-124,9
     183,104	    0,892543	102,4	   0,0125859	-128,1
     183,152	    0,894009	101,8	   0,0128033	-125,0
     183,201	    0,895253	99,3	   0,0125279	-126,0
      183,25	    0,896861	100,3	   0,0126692	-124,0
     183,299	    0,897438	103,6	    0,012747	-123,7
     183,348	    0,898749	103,6	   0,0125036	-125,7
     183,397	    0,900107	101,8	   0,0128018	-123,0
     183,446	    0,901605	102,5	   0,0126892	-126,8
     183,495	    0,902977	100,0	   0,0125373	-132,2
     183,544	    0,903843	100,2	   0,0123787	-130,9
     183,592	     0,90549	103,1	    0,012408	-127,8
     183,641	    0,905877	101,7	   0,0124037	-125,2
      183,69	    0,908158	102,2	   0,0125232	-123,6
     183,739	    0,909003	102,2	   0,0125442	-126,6
     183,788	    0,910841	100,0	   0,0122866	-124,0
     183,837	    0,911353	103,6	   0,0126258	-128,8
     183,886	    0,912573	104,0	   0,0126709	-130,2
     183,935	    0,913691	105,3	   0,0123597	-129,8
     183,983	    0,915401	102,5	   0,0122797	-127,9
     184,032	    0,916605	101,8	   0,0120744	-124,8
     184,081	    0,917925	102,2	   0,0124225	-125,4
      184,13	     0,91867	100,4	   0,0124921	-128,7
     184,179	    0,920446	103,0	   0,0122799	-129,2
     184,228	    0,921677	101,9	   0,0122474	-126,3
     184,277	    0,922347	102,9	   0,0122873	-130,1
     184,326	    0,924007	102,8	   0,0119881	-124,8
     184,374	    0,925036	102,5	   0,0122163	-125,2
     184,423	    0,926261	102,7	   0,0125933	-129,0
     184,472	    0,927546	104,2	   0,0121187	-129,5
     184,521	    0,929264	102,0	     0,01238	-125,8
      184,57	    0,929533	103,1	   0,0122955	-130,2
     184,619	    0,931822	104,5	   0,0120821	-124,3
     184,668	    0,932528	102,0	   0,0122686	-126,2
     184,717	    0,933774	102,2	   0,0118638	-129,4
     184,765	    0,935201	103,0	   0,0123155	-126,6
     184,814	    0,937224	102,2	   0,0121811	-127,3
     184,863	    0,937575	104,1	   0,0119738	-129,1
     184,912	    0,939016	103,5	   0,0118622	-126,2
     184,961	    0,939425	104,8	   0,0118367	-124,4
      185,01	    0,941671	98,8	   0,0118529	-127,7
     185,059	    0,942383	104,2	   0,0118469	-126,5
     185,108	    0,944057	102,9	   0,0119167	-128,6
     185,156	    0,944541	104,3	    0,012175	-127,5
     185,205	    0,946734	103,5	   0,0117951	-128,0
     185,254	    0,947245	102,9	   0,0120193	-129,8
     185,303	     0,94892	102,8	   0,0117964	-126,3
     185,352	     0,95012	105,3	   0,0118156	-126,0
     185,401	    0,951806	102,1	    0,011737	-126,2
      185,45	    0,951973	104,2	   0,0120842	-126,0
     185,499	    0,953684	101,5	   0,0116506	-124,1
     185,547	    0,954919	103,3	   0,0116768	-128,2
     185,596	    0,956297	103,0	   0,0119763	-130,2
     185,645	    0,957624	102,3	   0,0118063	-128,7
     185,694	    0,958428	104,0	   0,0117469	-131,9
     185,743	    0,960565	105,3	   0,0117581	-126,4
     185,792	    0,960727	104,1	   0,0117702	-128,8
     185,841	    0,962915	102,6	   0,0113646	-122,3
      185,89	    0,964023	104,9	   0,0114793	-128,0
     185,938	    0,965169	105,4	   0,0119325	-127,7
     185,987	    0,966711	104,4	   0,0117857	-125,5
     186,036	    0,968115	103,5	   0,0112655	-123,0
     186,085	    0,968626	104,5	   0,0117234	-127,0
     186,134	    0,970051	105,5	   0,0116513	-128,4
     186,183	    0,971599	103,8	     0,01174	-127,3
     186,232	    0,972783	105,2	   0,0116493	-131,0
     186,281	    0,974112	105,1	   0,0118761	-129,9
     186,329	    0,974904	107,7	   0,0115786	-126,8
     186,378	    0,976784	103,3	   0,0112906	-125,2
     186,427	    0,978119	104,1	   0,0115569	-128,1
     186,476	     0,97933	107,6	   0,0114931	-129,6
     186,525	    0,980818	103,6	   0,0116724	-125,7
     186,574	     0,98165	104,4	   0,0115169	-127,6
     186,623	     0,98299	103,9	   0,0115926	-125,6
     186,672	    0,984598	103,9	   0,0114299	-127,1
      186,72	    0,985551	107,5	   0,0114782	-126,4
     186,769	    0,986865	105,8	   0,0119248	-130,4
     186,818	    0,988197	106,2	   0,0112481	-125,0
     186,867	    0,989425	104,8	   0,0111812	-128,7
     186,916	    0,990122	108,7	   0,0112279	-126,1
     186,965	    0,991552	105,2	     0,01148	-130,3
     187,014	    0,993231	105,6	   0,0115257	-127,9
     187,063	    0,993979	106,7	   0,0112738	-127,6
     187,111	    0,995929	105,5	    0,011377	-128,0
      187,16	    0,996607	106,7	   0,0113664	-128,4
     187,209	    0,997754	103,6	   0,0112743	-129,1
     187,258	    0,998465	107,1	   0,0115909	-129,0
     187,307	     1,00013	105,5	   0,0112993	-127,5
     187,356	     1,00113	106,4	   0,0112733	-131,5
     187,405	     1,00181	107,5	   0,0110257	-124,7
     187,454	     1,00412	107,4	   0,0112595	-128,4
     187,502	     1,00457	107,8	   0,0108929	-124,7
     187,551	     1,00634	104,9	   0,0108591	-124,7
       187,6	      1,0073	105,6	   0,0112301	-125,0
     187,649	     1,00816	107,2	   0,0113852	-127,1
     187,698	     1,01032	107,4	   0,0111115	-124,9
     187,747	     1,01075	107,5	   0,0110148	-127,0
     187,796	      1,0123	105,9	   0,0108021	-124,0
     187,845	     1,01404	106,6	   0,0114441	-127,1
     187,893	     1,01467	109,0	   0,0113707	-127,3
     187,942	     1,01574	108,3	   0,0111895	-126,6
     187,991	     1,01694	106,5	   0,0109768	-126,0
      188,04	     1,01779	106,7	   0,0112878	-126,7
     188,089	     1,01937	110,6	   0,0111518	-130,7
     188,138	     1,02038	106,9	   0,0114469	-128,2
     188,187	     1,02225	104,2	   0,0108801	-126,7
     188,236	     1,02247	109,2	   0,0111532	-124,7
     188,284	     1,02517	108,8	   0,0111241	-126,5
     188,333	      1,0252	107,7	   0,0108796	-124,2
     188,382	     1,02687	109,0	   0,0108251	-122,6
     188,431	     1,02845	111,8	   0,0109215	-125,9
      188,48	     1,02946	108,2	   0,0109223	-126,9
     188,529	     1,03036	109,2	   0,0114359	-128,4
     188,578	     1,03229	108,7	   0,0108186	-127,2
     188,627	     1,03317	104,6	   0,0113372	-124,3
     188,675	     1,03346	109,8	    0,010656	-125,3
     188,724	       1,036	110,8	   0,0112567	-127,6
     188,773	     1,03705	107,4	   0,0109641	-123,4
     188,822	     1,03748	108,9	   0,0106165	-126,9
     188,871	     1,03854	109,6	   0,0111504	-130,6
      188,92	      1,0409	107,7	   0,0112221	-128,2
     188,969	     1,04235	108,8	    0,010982	-129,1
     189,018	     1,04257	107,4	   0,0113059	-125,8
     189,066	      1,0429	110,2	   0,0108219	-127,1
     189,115	     1,04414	110,3	   0,0105249	-130,0
     189,164	     1,04613	108,5	   0,0109096	-131,4
     189,213	     1,04801	108,6	   0,0106923	-130,8
     189,262	     1,04961	105,4	      0,0109	-127,4
     189,311	     1,05022	108,5	   0,0110877	-126,8
      189,36	     1,05064	111,1	   0,0107956	-125,5
     189,409	     1,05144	107,0	    0,010558	-124,1
     189,457	      1,0534	106,8	   0,0109763	-128,8
     189,506	     1,05481	106,8	    0,010965	-127,5
     189,555	     1,05494	111,6	   0,0106833	-127,5
     189,604	     1,05691	110,0	   0,0107988	-128,5
     189,653	     1,05902	108,5	   0,0110394	-125,6
     189,702	     1,06013	111,6	   0,0106856	-128,4
     189,751	     1,06151	110,2	   0,0108163	-131,1
       189,8	     1,06126	110,7	   0,0111814	-131,0
     189,848	     1,06267	111,3	   0,0110448	-129,6
     189,897	     1,06382	112,9	   0,0108145	-126,0
     189,946	     1,06581	110,3	   0,0106411	-125,9
     189,995	     1,06629	111,0	   0,0106745	-127,2
     190,044	     1,06739	110,2	   0,0104723	-123,3
     190,093	     1,06882	108,3	   0,0103499	-127,1
     190,142	     1,06996	110,8	   0,0103091	-127,4
     190,191	     1,07214	108,8	   0,0104624	-126,7
     190,239	     1,07426	109,1	   0,0102623	-125,7
     190,288	     1,07512	109,9	   0,0105509	-126,3
     190,337	     1,07637	109,2	    0,010583	-128,2
     190,386	     1,07671	109,5	   0,0104455	-128,6
     190,435	     1,07771	110,9	   0,0105085	-130,3
     190,484	     1,07949	108,8	   0,0106176	-129,5
     190,533	      1,0808	109,9	   0,0100228	-126,2
     190,582	     1,08186	112,7	   0,0104385	-128,9
      190,63	     1,08254	110,9	   0,0103173	-124,9
     190,679	     1,08421	110,8	   0,0108603	-127,1
     190,728	     1,08563	111,2	   0,0109108	-125,9
     190,777	     1,08627	110,1	   0,0104103	-126,4
     190,826	      1,0883	108,6	  0,00986863	-128,2
     190,875	     1,08927	109,9	   0,0104536	-128,4
     190,924	     1,08979	109,3	   0,0105568	-125,6
     190,973	     1,09235	107,6	   0,0108861	-128,2
     191,021	     1,09306	110,6	   0,0105582	-129,0
      191,07	     1,09394	110,2	   0,0103818	-124,8
     191,119	     1,09616	107,9	   0,0106216	-124,2
     191,168	     1,09655	110,7	   0,0105843	-131,1
     191,217	     1,09904	109,2	   0,0105485	-127,7
     191,266	     1,09964	109,8	   0,0105145	-125,6
     191,315	     1,10072	110,3	   0,0103997	-124,7
     191,364	     1,10246	110,1	   0,0107898	-127,8
     191,413	      1,1032	111,5	   0,0103941	-126,7
     191,461	     1,10513	109,8	   0,0101056	-128,0
      191,51	      1,1058	113,1	   0,0104461	-126,4
     191,559	     1,10712	109,7	  0,00995403	-124,1
     191,608	     1,10849	112,1	   0,0105337	-125,5
     191,657	     1,10912	112,5	   0,0104547	-128,8
     191,706	     1,11116	110,2	    0,010035	-124,9
     191,755	       1,112	110,6	   0,0105668	-128,1
     191,804	     1,11397	110,6	   0,0102324	-124,0
     191,852	     1,11493	109,8	   0,0105948	-125,7
     191,901	     1,11591	110,4	  0,00991099	-129,0
      191,95	     1,11773	110,8	   0,0103422	-125,2
     191,999	     1,11886	110,4	     0,01032	-127,2
     192,048	     1,11972	114,4	   0,0101381	-127,4
     192,097	     1,12102	109,2	   0,0107066	-126,6
     192,146	       1,122	112,5	   0,0102784	-126,2
     192,195	     1,12354	113,1	   0,0099089	-130,5
     192,243	     1,12468	110,9	   0,0104045	-128,6
     192,292	     1,12577	110,8	   0,0102924	-125,9
     192,341	     1,12707	110,2	   0,0101505	-125,5
      192,39	     1,12782	113,4	    0,010073	-122,8
     192,439	      1,1293	112,8	    0,010206	-125,8
     192,488	     1,12985	112,7	     0,01049	-127,5
     192,537	     1,13153	114,4	   0,0103644	-126,2
     192,586	     1,13238	112,1	  0,00995956	-128,2
     192,634	     1,13341	112,0	    0,010236	-126,0
     192,683	     1,13443	115,8	   0,0106773	-126,9
     192,732	     1,13479	116,0	   0,0101023	-125,7
     192,781	     1,13538	116,8	   0,0104862	-126,0
      192,83	     1,13696	119,4	   0,0101157	-126,2
     192,879	     1,13712	119,7	  0,00969216	-127,1
     192,928	     1,13819	120,0	   0,0102578	-128,1
     192,977	     1,13849	121,4	   0,0102735	-124,7
     193,025	     1,13918	124,0	    0,010267	-125,5
     193,074	      1,1394	123,1	    0,010282	-122,9
     193,123	     1,13997	124,9	   0,0098653	-127,8
     193,172	     1,14042	127,2	   0,0100095	-128,1
     193,221	     1,14059	128,1	   0,0101118	-128,0
      193,27	     1,14152	129,2	  0,00994573	-129,2
     193,319	     1,14223	128,7	  0,00992054	-127,1
     193,368	     1,14351	129,2	   0,0100029	-129,9
     193,416	     1,14574	128,3	   0,0102707	-128,2
     193,465	     1,14835	125,0	   0,0100724	-128,5
     193,514	     1,15143	120,0	   0,0103374	-129,6
     193,563	     1,15504	117,4	   0,0104012	-128,7
     193,612	     1,15843	115,8	   0,0101472	-126,2
     193,661	     1,15901	116,2	   0,0102084	-126,3
      193,71	     1,16072	117,3	   0,0101205	-126,6
     193,759	      1,1621	116,7	   0,0102659	-125,7
     193,807	     1,16358	114,3	   0,0100952	-127,7
     193,856	     1,16431	115,9	  0,00974434	-128,9
     193,905	     1,16607	115,6	  0,00976796	-128,3
     193,954	     1,16645	118,4	  0,00975219	-129,4
     194,003	     1,16786	117,9	  0,00986511	-126,0
     194,052	     1,16931	118,9	   0,0102123	-134,2
     194,101	     1,17058	118,3	   0,0099029	-127,1
      194,15	      1,1711	120,5	  0,00973732	-127,8
     194,198	     1,17215	123,1	  0,00993265	-124,6
     194,247	     1,17206	127,2	   0,0103033	-123,6
     194,296	     1,17313	128,1	  0,00996524	-124,5
     194,345	     1,17441	129,8	   0,0101048	-125,2
     194,394	      1,1751	133,2	  0,00992573	-130,8
     194,443	     1,17448	135,8	  0,00988961	-126,5
     194,492	     1,17499	141,5	   0,0101049	-124,9
     194,541	     1,17368	151,0	   0,0101367	-126,0
     194,589	     1,16775	185,8	   0,0100215	-127,4
     194,638	  0,00981309	-122,4	   0,0103634	-128,4
     194,687	  0,00943394	-126,9	  0,00962714	-128,9
     194,736	   0,0101294	-125,2	  0,00969983	-128,7
     194,785	  0,00987663	-126,2	   0,0100357	-126,7
     194,834	     0,00965	-130,9	  0,00988542	-127,0
     194,883	   0,0100124	-124,3	  0,00998915	-130,8
     194,932	  0,00956306	-127,8	  0,00988644	-129,9
      194,98	  0,00958397	-125,0	   0,0100349	-123,8
     195,029	  0,00980595	-125,0	   0,0096107	-125,3
     195,078	   0,0099428	-126,3	    0,010221	-129,3
     195,127	  0,00956553	-127,4	  0,00998377	-129,7
     195,176	  0,00962969	-125,8	   0,0099331	-126,8
     195,225	  0,00971681	-128,4	   0,0097024	-123,8
     195,274	  0,00958451	-129,2	   0,0101769	-128,2
     195,323	   0,0097918	-125,0	    0,009888	-128,9
     195,371	  0,00978487	-128,0	   0,0098396	-123,7
      195,42	   0,0100777	-125,5	  0,00979617	-127,6
     195,469	    0,010055	-126,7	  0,00985596	-125,7
     195,518	   0,0103775	-126,7	  0,00961647	-126,4
     195,567	   0,0101235	-128,4	   0,0097293	-127,8
     195,616	  0,00995464	-127,3	  0,00939139	-120,9
     195,665	  0,00983138	-126,5	   0,0103229	-127,9
     195,714	  0,00926428	-126,4	   0,0100758	-125,8
     195,762	  0,00979238	-125,1	  0,00999175	-129,2
     195,811	  0,00972897	-127,9	  0,00961303	-124,9
      195,86	  0,00962751	-127,3	  0,00980866	-123,1
     195,909	  0,00963927	-127,8	  0,00972001	-127,8
     195,958	  0,00948237	-125,2	   0,0097302	-127,6
     196,007	  0,00994354	-125,0	  0,00946168	-128,4
     196,056	  0,00927956	-128,5	  0,00988364	-125,8
     196,105	  0,00949726	-122,7	  0,00981056	-125,5
     196,153	   0,0100321	-128,0	  0,00953035	-127,1
     196,202	   0,0101244	-129,8	  0,00994989	-127,0
     196,251	  0,00952965	-124,6	  0,00980407	-128,3
       196,3	  0,00983134	-130,8	   0,0100448	-129,5
     196,349	  0,00958671	-128,1	  0,00945218	-130,8
     196,398	  0,00930329	-129,3	  0,00970231	-128,4
     196,447	  0,00982033	-125,2	  0,00969746	-127,2
     196,496	   0,0100586	-128,3	    0,010099	-128,8
     196,544	  0,00940775	-129,4	  0,00981328	-124,1
     196,593	  0,00959892	-128,8	  0,00966987	-124,3
     196,642	  0,00954751	-125,3	  0,00954738	-127,0
     196,691	  0,00989875	-125,6	  0,00941936	-128,2
      196,74	  0,00988943	-126,8	  0,00946808	-129,0
     196,789	  0,00972398	-124,9	  0,00992643	-125,9
     196,838	   0,0101576	-126,7	   0,0102155	-125,8
     196,887	  0,00988823	-130,1	  0,00962329	-129,0
     196,935	  0,00973818	-126,0	  0,00941843	-128,5
     196,984	  0,00971325	-126,0	  0,00988595	-129,1
     197,033	  0,00953789	-124,0	  0,00935263	-128,8
     197,082	   0,0097041	-126,6	  0,00985669	-128,9
     197,131	  0,00992363	-127,1	  0,00939751	-130,4
      197,18	  0,00965297	-124,5	  0,00922567	-124,1
     197,229	  0,00968361	-124,7	   0,0099295	-127,4
     197,278	  0,00940031	-125,6	  0,00901069	-130,5
     197,326	  0,00960574	-123,9	  0,00973882	-129,7
     197,375	   0,0099119	-126,9	  0,00976532	-129,6
     197,424	  0,00928434	-126,1	  0,00944171	-127,8
     197,473	  0,00958755	-125,7	  0,00941495	-129,8
     197,522	  0,00963065	-123,2	  0,00980155	-128,7
     197,571	  0,00978394	-124,4	  0,00950824	-129,3
      197,62	  0,00927491	-127,6	  0,00933711	-124,6
     197,669	  0,00995727	-128,0	  0,00993719	-126,5
     197,717	  0,00969699	-128,6	   0,0100526	-127,6
     197,766	  0,00916815	-126,1	  0,00972377	-128,1
     197,815	  0,00956101	-124,2	  0,00979192	-126,7
     197,864	  0,00969571	-127,8	  0,00998472	-126,4
     197,913	  0,00974073	-122,8	  0,00919088	-127,5
     197,962	  0,00968303	-124,9	  0,00967649	-121,7
     198,011	  0,00936526	-124,6	  0,00945743	-123,0
      198,06	  0,00910223	-126,0	  0,00941645	-129,9
     198,109	   0,0093137	-128,4	  0,00975456	-127,5
     198,157	  0,00985159	-124,6	  0,00994429	-127,5
     198,206	   0,0093487	-126,6	  0,00947085	-128,8
     198,255	  0,00968218	-127,0	  0,00960406	-124,2
     198,304	  0,00932881	-127,6	  0,00949769	-127,9
     198,353	  0,00986973	-125,0	  0,00981041	-129,2
     198,402	  0,00936594	-127,2	   0,0090599	-123,6
     198,451	  0,00939918	-129,0	  0,00947255	-129,2
       198,5	  0,00938704	-127,7	  0,00963765	-127,4
     198,548	  0,00947909	-127,8	  0,00942885	-124,0
     198,597	  0,00958961	-125,4	  0,00982407	-126,6
     198,646	  0,00944307	-130,8	   0,0095298	-131,0
     198,695	  0,00972631	-126,9	  0,00916189	-126,2
     198,744	  0,00910201	-123,8	   0,0093248	-128,8
     198,793	  0,00939971	-123,7	  0,00962052	-123,5
     198,842	  0,00983709	-125,5	  0,00928283	-128,0
     198,891	  0,00963063	-125,3	  0,00942355	-126,8
     198,939	  0,00970824	-128,2	  0,00952277	-124,3
     198,988	  0,00998359	-125,9	  0,00947015	-124,8
     199,037	  0,00939589	-126,0	  0,00951915	-128,6
     199,086	   0,0092538	-130,5	  0,00941056	-129,1
     199,135	  0,00927414	-120,6	  0,00942748	-129,3
     199,184	  0,00985482	-125,2	   0,0094229	-126,0
     199,233	   0,0095742	-128,1	  0,00972899	-128,8
     199,282	  0,00962422	-125,6	  0,00943858	-126,6
      199,33	  0,00944397	-125,0	  0,00965148	-129,6
     199,379	  0,00949959	-127,3	  0,00912955	-127,9
     199,428	  0,00941942	-125,8	  0,00956914	-127,9
     199,477	  0,00933041	-126,3	  0,00935226	-121,9
     199,526	  0,00948545	-128,5	  0,00924297	-126,0
     199,575	  0,00952495	-128,0	  0,00913106	-126,6
     199,624	  0,00924742	-128,3	  0,00962103	-124,5
     199,673	   0,0094378	-127,5	  0,00960646	-130,2
     199,721	  0,00886406	-127,6	  0,00949813	-128,4
      199,77	  0,00942334	-127,1	  0,00952525	-121,9
     199,819	  0,00895598	-130,2	  0,00957768	-123,7
     199,868	   0,0093898	-127,2	  0,00933927	-128,1
     199,917	   0,0092071	-130,2	  0,00944219	-131,8
     199,966	  0,00924768	-127,7	  0,00930393	-128,1
     200,015	  0,00947789	-127,8	  0,00944747	-128,4
     200,064	  0,00938658	-124,8	  0,00977332	-121,9
     200,112	  0,00945509	-126,2	  0,00942774	-127,8
     200,161	  0,00946301	-123,7	  0,00966139	-132,8
      200,21	  0,00939545	-123,5	   0,0093406	-126,8
     200,259	    0,009542	-127,9	  0,00925826	-126,1
     200,308	  0,00953805	-131,8	  0,00951928	-127,4
     200,357	  0,00920694	-130,9	  0,00917748	-124,0
     200,406	   0,0097156	-126,0	  0,00961574	-125,4
     200,455	  0,00940592	-130,4	  0,00902988	-126,8
     200,503	  0,00941755	-129,7	  0,00931494	-127,1
     200,552	  0,00915666	-124,4	  0,00935728	-129,9
     200,601	  0,00988045	-125,1	  0,00931082	-128,5
      200,65	  0,00964479	-126,3	  0,00929872	-128,4
     200,699	   0,0093936	-124,6	  0,00946284	-126,5
     200,748	  0,00973177	-124,3	  0,00968049	-126,3
     200,797	  0,00956157	-125,0	    0,009385	-126,6
     200,846	  0,00969769	-124,9	  0,00926801	-126,3
     200,894	  0,00990204	-126,5	  0,00915816	-129,8
     200,943	  0,00897562	-125,1	  0,00910958	-127,4
     200,992	  0,00945179	-124,3	  0,00957489	-126,4
     201,041	  0,00933162	-128,1	   0,0096513	-121,7
      201,09	  0,00914113	-129,7	  0,00901924	-126,3
     201,139	  0,00929909	-124,9	  0,00939497	-127,5
     201,188	  0,00907228	-125,1	  0,00943346	-123,7
     201,237	  0,00940848	-129,5	  0,00946601	-124,7
     201,285	  0,00905313	-128,7	  0,00973977	-124,7
     201,334	   0,0093956	-123,7	  0,00919198	-125,5
     201,383	  0,00935791	-124,0	  0,00932921	-128,3
     201,432	   0,0092693	-126,5	  0,00927231	-124,1
     201,481	  0,00940823	-129,7	  0,00961675	-126,6
      201,53	  0,00899637	-129,0	  0,00951878	-124,0
     201,579	  0,00920088	-127,6	  0,00912564	-129,7
     201,628	  0,00967096	-126,5	  0,00914409	-127,2
     201,676	  0,00919213	-128,7	  0,00935531	-129,4
     201,725	  0,00955772	-125,0	  0,00955321	-128,1
     201,774	  0,00935315	-128,3	  0,00950171	-127,5
     201,823	  0,00882149	-127,6	  0,00921097	-127,2
     201,872	  0,00964114	-127,1	  0,00966987	-127,7
     201,921	  0,00962487	-125,5	  0,00953469	-123,9
      201,97	  0,00931993	-127,5	  0,00933031	-127,1
     202,019	  0,00908986	-125,9	  0,00958329	-129,5
     202,067	  0,00929248	-131,6	  0,00931582	-128,5
     202,116	  0,00891471	-125,7	  0,00915089	-127,1
     202,165	  0,00969616	-121,5	  0,00933849	-128,7
     202,214	  0,00947641	-129,1	  0,00945526	-124,8
     202,263	  0,00963804	-128,0	  0,00964339	-128,4
     202,312	  0,00940885	-126,2	  0,00895559	-128,8
     202,361	    0,009029	-129,2	  0,00927503	-126,1
      202,41	  0,00916368	-127,2	  0,00913743	-128,7
     202,458	  0,00907855	-127,7	  0,00913752	-128,4
     202,507	  0,00948733	-124,8	  0,00876561	-131,2
     202,556	  0,00978805	-125,2	  0,00925471	-126,0
     202,605	  0,00934147	-127,6	  0,00932769	-125,5
     202,654	  0,00879459	-127,5	  0,00936468	-128,1
     202,703	  0,00901766	-127,3	  0,00952111	-126,7
     202,752	  0,00911299	-128,0	  0,00906828	-128,3
     202,801	  0,00914901	-124,1	  0,00922717	-125,3
     202,849	   0,0090729	-130,4	  0,00927053	-130,0
     202,898	  0,00887595	-127,8	  0,00985324	-128,5
     202,947	  0,00919871	-125,1	  0,00918463	-130,2
     202,996	  0,00911516	-124,5	  0,00957454	-125,4
     203,045	  0,00925134	-123,1	   0,0089753	-126,7
     203,094	  0,00904137	-129,3	  0,00921375	-126,9
     203,143	  0,00883823	-125,8	  0,00912358	-126,3
     203,192	  0,00937551	-126,7	  0,00912258	-130,3
      203,24	  0,00927189	-125,2	  0,00916336	-125,8
     203,289	  0,00935788	-125,5	  0,00891209	-129,9
     203,338	  0,00963783	-126,1	  0,00941566	-130,2
     203,387	  0,00910314	-127,0	  0,00957236	-124,3
     203,436	   0,0091157	-123,4	  0,00937537	-128,3
     203,485	  0,00923922	-124,9	  0,00923883	-123,3
     203,534	  0,00923619	-125,2	  0,00930347	-124,5
     203,583	  0,00950746	-125,0	  0,00960302	-127,9
     203,631	  0,00901362	-124,6	  0,00936901	-127,5
      203,68	  0,00931296	-127,0	  0,00948402	-131,7
     203,729	  0,00982613	-129,1	  0,00928214	-124,2
     203,778	  0,00881857	-128,4	  0,00916458	-124,0
     203,827	   0,0093739	-125,4	  0,00939739	-125,0
     203,876	   0,0090787	-125,0	  0,00904129	-127,0
     203,925	  0,00934887	-125,6	  0,00945424	-124,7
     203,974	  0,00926397	-128,3	  0,00918988	-127,1
     204,022	  0,00925621	-127,8	  0,00927074	-129,4
     204,071	  0,00908907	-126,9	   0,0095412	-127,7
      204,12	  0,00914563	-127,1	  0,00885923	-128,2
     204,169	  0,00953335	-125,8	  0,00937967	-124,8
     204,218	  0,00905997	-129,6	  0,00942199	-125,0
     204,267	  0,00923386	-124,4	  0,00920035	-126,4
     204,316	  0,00931847	-124,5	  0,00930072	-125,8
     204,365	  0,00953245	-124,1	  0,00930185	-125,5
     204,413	  0,00926334	-123,9	  0,00937856	-127,7
     204,462	  0,00967855	-124,9	  0,00913977	-124,1
     204,511	  0,00892936	-125,5	  0,00927664	-129,6
      204,56	  0,00940771	-124,6	  0,00934234	-130,8
     204,609	  0,00937276	-127,3	  0,00896626	-128,7
     204,658	  0,00944051	-126,9	  0,00917614	-128,5
     204,707	  0,00917935	-127,1	  0,00873573	-128,9
     204,756	  0,00901539	-126,6	  0,00946241	-125,0
     204,804	  0,00913701	-128,0	  0,00882724	-123,2
     204,853	  0,00888733	-126,1	  0,00942511	-128,0
     204,902	  0,00922258	-123,3	  0,00914344	-125,2
     204,951	   0,0090904	-128,6	   0,0094587	-123,9
         205	  0,00914359	-129,5	  0,00930383	-123,9

