X-Data [Hz]	Laser (M - Filtered) [m/s]	Phase [Deg]	Laser (M - Filtered) [m/s]	Phase [Deg]	
	003: [06-27-24 10:02]		005: [06-27-24 10:06]	
         155	   0,0233291	61,1	   0,0281532	57,0
     155,034	   0,0284603	60,1	   0,0273684	55,9
     155,068	   0,0299529	58,0	   0,0273117	56,4
     155,103	   0,0310718	57,5	   0,0278618	57,0
     155,137	   0,0314026	56,7	    0,027948	57,1
     155,171	   0,0318598	57,5	   0,0282139	56,1
     155,205	   0,0322437	57,6	   0,0288696	58,3
     155,239	   0,0326875	57,5	   0,0293488	55,9
     155,274	   0,0326135	58,1	   0,0289612	55,8
     155,308	   0,0326221	56,8	   0,0291424	57,7
     155,342	   0,0328902	58,3	    0,029779	58,6
     155,376	   0,0329633	54,9	   0,0291261	58,3
     155,411	   0,0327974	56,6	    0,029681	56,7
     155,445	   0,0328428	57,8	   0,0297201	57,9
     155,479	   0,0331814	57,8	   0,0303827	55,7
     155,513	   0,0332927	56,8	   0,0306364	54,1
     155,547	   0,0343021	59,9	   0,0309399	55,7
     155,582	   0,0344944	58,1	    0,030712	58,0
     155,616	   0,0352117	55,0	   0,0311354	58,4
      155,65	   0,0351027	57,7	   0,0305819	58,0
     155,684	   0,0348593	55,5	   0,0313306	56,5
     155,718	    0,035078	57,8	   0,0320068	55,9
     155,753	   0,0349208	59,9	   0,0319889	58,9
     155,787	   0,0358202	57,6	   0,0321709	59,2
     155,821	   0,0363249	57,1	   0,0320469	59,4
     155,855	    0,036507	56,5	   0,0326236	57,3
      155,89	   0,0364329	57,2	   0,0334158	56,9
     155,924	   0,0371434	60,0	   0,0329141	59,0
     155,958	   0,0371965	58,3	   0,0331088	56,2
     155,992	   0,0382348	56,9	   0,0334703	54,7
     156,026	    0,038643	56,8	   0,0338474	56,7
     156,061	   0,0387018	58,9	   0,0339169	57,5
     156,095	   0,0392725	58,6	   0,0342769	57,7
     156,129	   0,0398076	58,5	   0,0346612	57,3
     156,163	   0,0398828	59,3	    0,035568	55,5
     156,197	   0,0398708	58,9	   0,0355086	58,1
     156,232	   0,0401522	57,6	   0,0355666	57,7
     156,266	   0,0406422	60,5	   0,0363728	59,8
       156,3	   0,0408713	59,4	   0,0361077	58,5
     156,334	   0,0412586	58,1	   0,0361826	58,6
     156,369	   0,0415047	58,1	   0,0368795	56,1
     156,403	   0,0418676	57,5	   0,0372927	54,9
     156,437	   0,0415743	59,3	   0,0374255	57,0
     156,471	   0,0424554	58,7	   0,0380672	58,2
     156,505	   0,0431817	59,7	   0,0390108	55,3
      156,54	   0,0428195	60,4	   0,0387082	59,2
     156,574	    0,043021	59,1	   0,0392511	58,8
     156,608	   0,0441101	57,1	   0,0392863	57,5
     156,642	    0,044432	57,5	   0,0394155	58,0
     156,676	   0,0452086	60,3	   0,0400089	58,5
     156,711	   0,0457113	56,8	   0,0401701	59,1
     156,745	   0,0460314	59,4	   0,0400959	58,1
     156,779	   0,0464443	59,1	   0,0405587	58,0
     156,813	   0,0468869	56,8	   0,0408775	60,4
     156,848	   0,0471018	58,7	   0,0412665	56,6
     156,882	   0,0480192	57,5	   0,0420769	58,8
     156,916	   0,0477692	59,0	   0,0425156	57,3
      156,95	   0,0485818	58,7	   0,0431644	58,9
     156,984	    0,048717	57,7	   0,0432586	56,2
     157,019	    0,049861	57,5	   0,0437481	60,4
     157,053	   0,0507109	58,7	   0,0441839	57,8
     157,087	   0,0505736	58,7	   0,0445806	57,9
     157,121	   0,0516593	57,0	   0,0443094	57,8
     157,155	   0,0512648	58,7	   0,0455489	57,3
      157,19	   0,0522687	60,7	   0,0452397	59,4
     157,224	   0,0526511	58,8	    0,046493	58,8
     157,258	   0,0540709	58,4	   0,0462664	59,2
     157,292	   0,0534952	58,3	   0,0478088	57,8
     157,326	   0,0548779	58,4	   0,0475316	57,6
     157,361	   0,0549574	59,2	   0,0480688	57,2
     157,395	   0,0564278	57,8	   0,0478058	60,1
     157,429	    0,056866	59,2	   0,0494007	57,9
     157,463	   0,0577214	59,6	   0,0498579	58,9
     157,498	   0,0576549	60,7	   0,0502361	59,0
     157,532	   0,0589127	58,6	    0,051369	58,3
     157,566	   0,0594315	59,0	   0,0512832	59,0
       157,6	   0,0598767	58,3	   0,0524596	57,2
     157,634	   0,0606449	60,7	   0,0529571	58,7
     157,669	   0,0615438	58,5	   0,0537356	57,8
     157,703	    0,062295	59,9	   0,0541819	58,8
     157,737	   0,0637364	59,6	   0,0548551	60,2
     157,771	   0,0640217	59,4	   0,0551969	60,1
     157,805	    0,064443	59,5	   0,0559597	60,0
      157,84	   0,0661898	59,4	   0,0563778	57,9
     157,874	   0,0668908	61,9	   0,0568892	58,0
     157,908	   0,0670262	60,1	   0,0573476	59,8
     157,942	   0,0684582	61,7	   0,0590011	58,6
     157,977	   0,0694239	60,3	   0,0590048	58,0
     158,011	   0,0707567	57,5	   0,0602319	61,3
     158,045	   0,0714666	61,3	   0,0612781	57,7
     158,079	   0,0716121	60,4	   0,0616226	59,1
     158,113	   0,0738647	62,8	   0,0620334	59,5
     158,148	    0,074441	61,6	   0,0637879	57,8
     158,182	    0,075808	60,4	   0,0636503	59,5
     158,216	   0,0765146	59,2	   0,0649844	59,7
      158,25	   0,0770432	59,9	   0,0657562	58,6
     158,284	   0,0788091	62,2	   0,0666088	57,7
     158,319	   0,0811107	60,2	   0,0674194	58,7
     158,353	   0,0807187	62,4	   0,0687116	60,1
     158,387	   0,0822436	59,7	     0,06992	57,3
     158,421	   0,0836306	59,9	   0,0706408	59,0
     158,456	   0,0847053	60,7	   0,0712241	59,8
      158,49	    0,086501	59,7	   0,0724893	62,2
     158,524	    0,087484	60,7	   0,0736293	57,8
     158,558	   0,0888825	60,0	   0,0746563	58,7
     158,592	   0,0898159	61,7	   0,0757789	61,3
     158,627	   0,0909845	60,6	   0,0766382	60,2
     158,661	   0,0923434	62,6	   0,0783744	59,9
     158,695	   0,0938712	60,5	   0,0786409	58,9
     158,729	   0,0956728	60,4	   0,0803003	61,9
     158,763	   0,0960899	62,7	   0,0809525	60,7
     158,798	    0,098817	64,1	   0,0821668	62,6
     158,832	   0,0992656	62,0	   0,0837042	60,0
     158,866	    0,101065	60,2	   0,0849742	60,1
       158,9	     0,10236	62,7	   0,0866994	58,7
     158,935	    0,103848	63,4	   0,0872063	59,9
     158,969	    0,106578	64,7	   0,0893301	62,0
     159,003	    0,107281	61,9	   0,0907436	60,3
     159,037	    0,109265	61,9	    0,092215	60,0
     159,071	     0,11052	64,2	   0,0935198	60,5
     159,106	    0,112509	61,1	   0,0952069	60,9
      159,14	    0,115007	65,1	   0,0976984	60,5
     159,174	    0,116565	67,4	   0,0982568	60,0
     159,208	    0,118295	65,2	    0,100052	63,1
     159,242	    0,118911	64,5	    0,101581	61,6
     159,277	    0,122286	65,6	    0,104009	62,1
     159,311	    0,123228	63,1	    0,104817	62,8
     159,345	    0,125741	64,0	    0,106966	63,7
     159,379	    0,126757	64,3	    0,108711	62,5
     159,413	     0,12845	62,5	    0,109482	63,5
     159,448	    0,130487	64,2	    0,112358	62,4
     159,482	    0,132488	65,9	    0,113154	61,7
     159,516	    0,134562	63,1	    0,115811	62,5
      159,55	    0,135731	65,5	    0,118172	61,0
     159,585	    0,137763	66,4	    0,118807	61,9
     159,619	    0,139198	67,0	    0,121289	61,0
     159,653	    0,141739	64,8	    0,122691	62,2
     159,687	    0,143474	64,3	    0,124822	62,0
     159,721	     0,14572	66,4	    0,126117	63,2
     159,756	    0,148493	65,8	    0,129325	62,1
      159,79	     0,14974	65,3	    0,130322	64,3
     159,824	    0,152229	67,3	    0,133598	63,4
     159,858	    0,153997	69,0	      0,1356	63,7
     159,892	    0,155614	66,0	    0,136502	63,0
     159,927	    0,157344	67,2	    0,138586	65,3
     159,961	    0,160662	66,7	    0,140632	63,7
     159,995	    0,161015	67,9	    0,143335	64,9
     160,029	    0,164627	66,3	    0,145244	65,9
     160,064	    0,166452	69,2	    0,146465	66,4
     160,098	     0,16878	68,7	    0,149496	66,9
     160,132	    0,171365	68,8	    0,151907	64,7
     160,166	     0,17199	70,2	    0,152553	63,1
       160,2	     0,17419	67,0	    0,155941	66,3
     160,235	    0,176374	67,6	    0,156847	65,6
     160,269	    0,178122	66,7	     0,16005	64,7
     160,303	    0,180593	66,2	    0,161731	66,4
     160,337	    0,181997	67,7	     0,16332	65,0
     160,371	    0,184251	70,0	    0,166137	66,6
     160,406	     0,18621	70,8	    0,168052	64,9
      160,44	    0,187694	70,0	    0,170046	67,5
     160,474	    0,190221	69,8	    0,170958	66,0
     160,508	    0,192306	68,6	    0,174768	66,4
     160,543	    0,194142	68,5	     0,17651	66,0
     160,577	    0,196432	66,6	    0,178161	66,5
     160,611	    0,198184	69,1	    0,180774	66,1
     160,645	    0,200893	71,8	     0,18243	69,5
     160,679	    0,201429	69,8	    0,184781	67,7
     160,714	    0,203692	69,2	    0,186698	68,9
     160,748	    0,205546	70,0	    0,189007	63,7
     160,782	    0,207924	69,6	    0,191253	66,9
     160,816	    0,209327	71,1	    0,192308	68,9
      160,85	    0,211531	71,8	    0,194685	69,1
     160,885	    0,214157	71,5	    0,197971	68,5
     160,919	    0,215947	70,5	    0,199428	67,6
     160,953	    0,216839	69,0	    0,200409	67,4
     160,987	     0,21903	70,4	    0,203142	68,9
     161,021	    0,221551	71,1	    0,204491	66,5
     161,056	    0,223162	70,8	    0,206648	70,0
      161,09	    0,224606	70,6	    0,208521	71,1
     161,124	    0,226433	73,5	    0,210079	69,5
     161,158	    0,228696	69,4	    0,211904	68,6
     161,193	    0,230342	72,3	    0,214614	69,2
     161,227	    0,232714	70,4	    0,215619	70,1
     161,261	     0,23438	72,3	    0,217057	68,0
     161,295	    0,235622	72,2	    0,218308	71,4
     161,329	     0,23744	71,9	     0,22133	70,8
     161,364	    0,239349	74,6	    0,222496	68,6
     161,398	    0,241829	70,1	    0,224224	69,0
     161,432	    0,243017	71,6	    0,226291	72,8
     161,466	    0,245209	72,6	    0,228735	68,5
       161,5	    0,247072	71,9	    0,230612	69,4
     161,535	     0,24901	71,7	    0,231695	69,5
     161,569	    0,250683	74,0	    0,233933	71,3
     161,603	    0,252115	70,1	    0,235118	72,7
     161,637	    0,254203	74,1	    0,237743	69,0
     161,672	    0,255247	73,8	    0,239332	67,8
     161,706	    0,257703	72,2	    0,241185	71,7
      161,74	    0,259581	71,6	    0,242689	70,5
     161,774	    0,260727	72,0	    0,244526	71,6
     161,808	    0,262862	74,5	     0,24704	69,9
     161,843	    0,264408	72,3	     0,24768	69,9
     161,877	    0,266786	71,6	    0,249544	71,4
     161,911	    0,267714	74,2	     0,25125	68,3
     161,945	     0,26962	74,7	    0,252909	73,6
     161,979	    0,270415	76,1	    0,255388	70,1
     162,014	    0,272984	72,5	    0,257115	71,6
     162,048	    0,274223	76,4	    0,258253	74,3
     162,082	    0,276286	72,5	    0,258764	73,0
     162,116	    0,277993	76,2	    0,261173	71,9
     162,151	    0,279974	72,7	    0,205757	-155,1
     162,185	    0,281127	76,6	     0,19558	-145,1
     162,219	    0,282664	74,0	    0,184038	-142,7
     162,253	    0,283802	76,9	    0,169365	-142,8
     162,287	    0,286436	73,8	    0,156496	-139,2
     162,322	    0,287083	76,1	    0,146538	-138,3
     162,356	    0,288973	75,4	    0,137034	-136,4
      162,39	    0,291035	75,5	    0,130868	-138,4
     162,424	    0,292511	77,1	    0,125509	-133,5
     162,458	    0,293344	76,4	    0,118952	-135,8
     162,493	    0,295125	72,9	    0,114335	-131,6
     162,527	    0,297032	77,9	    0,108918	-133,2
     162,561	    0,298242	75,2	    0,104246	-134,3
     162,595	    0,300061	74,7	    0,100866	-131,9
      162,63	    0,301537	75,9	   0,0990894	-132,9
     162,664	    0,303019	76,9	   0,0983477	-133,1
     162,698	    0,304232	78,0	   0,0969236	-133,2
     162,732	    0,305319	77,7	   0,0942431	-132,5
     162,766	    0,307581	76,0	   0,0907012	-132,9
     162,801	    0,309209	77,5	   0,0876072	-133,1
     162,835	    0,310341	76,9	   0,0871169	-131,6
     162,869	    0,311849	76,8	   0,0854506	-131,7
     162,903	    0,313307	75,7	   0,0825262	-131,5
     162,937	    0,314442	77,7	   0,0812513	-130,3
     162,972	    0,316207	75,1	   0,0817181	-128,8
     163,006	     0,31734	78,5	   0,0809979	-131,3
      163,04	    0,319128	77,1	   0,0785609	-132,3
     163,074	    0,320077	77,9	   0,0764073	-129,0
     163,109	    0,321973	79,3	   0,0756109	-131,7
     163,143	    0,323809	76,1	   0,0752165	-131,4
     163,177	    0,324372	79,4	   0,0736346	-130,4
     163,211	    0,326526	78,8	    0,072693	-132,3
     163,245	    0,327333	78,6	   0,0713089	-131,6
      163,28	    0,329035	77,5	   0,0694159	-130,7
     163,314	    0,330603	78,1	   0,0702129	-129,1
     163,348	    0,331515	79,1	   0,0699613	-129,1
     163,382	     0,33311	79,3	   0,0669179	-131,4
     163,416	    0,335281	78,1	   0,0666174	-130,0
     163,451	     0,33559	79,8	   0,0664597	-130,1
     163,485	     0,33759	76,5	   0,0639421	-130,9
     163,519	    0,338741	78,8	   0,0636197	-129,9
     163,553	    0,339448	80,7	   0,0638336	-130,5
     163,587	    0,341496	77,6	   0,0622401	-130,1
     163,622	     0,34212	77,3	    0,062168	-131,1
     163,656	    0,344439	78,6	   0,0609899	-129,2
      163,69	    0,346159	78,7	   0,0601179	-132,9
     163,724	    0,346473	79,6	    0,059224	-131,5
     163,759	    0,348094	79,2	   0,0587027	-128,3
     163,793	    0,349638	79,5	   0,0590156	-131,3
     163,827	    0,351211	78,9	   0,0571699	-130,2
     163,861	    0,352701	77,5	   0,0577094	-130,3
     163,895	    0,353785	77,6	   0,0562807	-131,5
      163,93	    0,355179	80,9	   0,0566384	-130,0
     163,964	     0,35618	80,5	   0,0552192	-133,2
     163,998	    0,357159	81,4	   0,0544708	-128,9
     164,032	    0,359037	79,7	   0,0546248	-130,0
     164,066	    0,360118	80,9	    0,053435	-126,4
     164,101	    0,361457	79,7	   0,0530224	-130,0
     164,135	    0,362166	80,1	   0,0521464	-130,5
     164,169	    0,364501	79,3	   0,0525956	-127,7
     164,203	    0,365947	81,7	   0,0513859	-128,5
     164,238	    0,366459	82,6	   0,0513034	-127,9
     164,272	    0,367711	80,5	   0,0507456	-128,9
     164,306	    0,369517	82,6	   0,0499861	-129,9
      164,34	    0,370622	77,7	   0,0501194	-129,3
     164,374	    0,371603	81,7	    0,049141	-130,2
     164,409	    0,374093	80,3	   0,0494632	-131,1
     164,443	    0,374715	81,4	   0,0488758	-130,9
     164,477	    0,375875	79,5	   0,0481234	-126,8
     164,511	    0,377357	79,9	   0,0479401	-130,0
     164,545	    0,378605	80,8	   0,0470683	-130,1
      164,58	    0,379475	80,6	    0,047152	-127,9
     164,614	    0,381131	81,3	   0,0464108	-129,0
     164,648	    0,381944	81,7	   0,0460805	-127,9
     164,682	    0,383418	83,4	   0,0460151	-129,8
     164,717	    0,384706	81,2	   0,0440781	-129,5
     164,751	    0,385912	83,7	   0,0444422	-131,6
     164,785	    0,386954	82,9	   0,0447681	-130,8
     164,819	    0,388682	80,5	   0,0442838	-129,8
     164,853	    0,389189	82,9	   0,0431781	-128,0
     164,888	    0,390798	83,6	   0,0435519	-128,3
     164,922	    0,392318	82,1	   0,0430034	-128,8
     164,956	    0,393655	85,5	   0,0429354	-128,1
      164,99	    0,395247	81,3	   0,0422858	-127,0
     165,024	    0,395521	81,9	   0,0417552	-127,0
     165,059	    0,397176	82,4	   0,0422779	-127,8
     165,093	    0,398703	81,3	   0,0408106	-130,2
     165,127	    0,399835	82,5	   0,0413393	-128,7
     165,161	    0,400749	84,0	   0,0409633	-129,2
     165,196	    0,402038	82,8	    0,040224	-129,2
      165,23	    0,403106	83,9	   0,0402241	-129,7
     165,264	    0,404459	82,3	   0,0406813	-127,7
     165,298	    0,406156	82,5	    0,039354	-125,9
     165,332	    0,407329	85,2	   0,0390487	-127,6
     165,367	    0,408375	83,9	   0,0393124	-129,0
     165,401	    0,409644	83,8	   0,0396454	-128,6
     165,435	    0,410773	83,8	   0,0388148	-128,1
     165,469	    0,411711	83,3	   0,0380964	-126,0
     165,503	     0,41314	84,2	   0,0383362	-129,2
     165,538	    0,414445	83,5	   0,0376177	-129,3
     165,572	    0,415941	82,8	   0,0368355	-130,4
     165,606	    0,416345	83,4	   0,0372293	-130,0
      165,64	    0,417848	84,6	   0,0375439	-126,4
     165,674	    0,419228	86,3	   0,0377368	-125,4
     165,709	    0,420675	82,4	   0,0363862	-127,3
     165,743	    0,421874	84,7	   0,0359339	-129,5
     165,777	    0,422657	84,6	   0,0356499	-127,2
     165,811	    0,423609	85,9	   0,0363919	-129,9
     165,846	    0,424799	86,1	   0,0367812	-129,0
      165,88	    0,426644	84,2	   0,0360831	-127,2
     165,914	    0,427826	84,7	   0,0359657	-124,9
     165,948	    0,428386	85,1	   0,0357284	-130,4
     165,982	    0,429572	85,2	   0,0351871	-128,2
     166,017	    0,431483	84,2	   0,0345892	-128,0
     166,051	    0,431681	87,7	    0,034883	-127,0
     166,085	    0,433069	85,2	    0,033934	-128,3
     166,119	    0,434171	86,9	   0,0336213	-128,1
     166,153	    0,435607	86,4	   0,0339556	-130,0
     166,188	    0,436662	87,2	    0,034199	-127,5
     166,222	    0,437995	87,1	   0,0341219	-125,9
     166,256	     0,43913	86,9	   0,0336788	-127,5
      166,29	    0,439564	87,7	   0,0326568	-127,2
     166,325	    0,441464	87,2	   0,0325024	-127,9
     166,359	    0,442468	85,2	   0,0322158	-127,3
     166,393	    0,443382	87,6	   0,0318577	-127,6
     166,427	    0,444513	85,1	   0,0320868	-124,1
     166,461	    0,446106	87,2	   0,0323811	-127,7
     166,496	    0,446905	87,3	   0,0323014	-129,7
      166,53	     0,44771	85,8	   0,0323511	-127,8
     166,564	    0,449317	86,5	   0,0311677	-129,2
     166,598	    0,450866	87,0	   0,0311628	-126,0
     166,632	    0,451327	85,9	   0,0308326	-129,7
     166,667	    0,452387	88,0	   0,0310233	-130,7
     166,701	    0,453243	88,0	   0,0305889	-128,5
     166,735	    0,454518	85,7	   0,0306112	-128,3
     166,769	     0,45579	87,0	   0,0305571	-128,4
     166,804	    0,457598	86,5	   0,0303722	-129,0
     166,838	    0,457483	85,7	   0,0302379	-128,7
     166,872	    0,459032	86,7	   0,0301832	-128,4
     166,906	    0,460409	87,6	   0,0302503	-125,9
      166,94	    0,461673	85,0	   0,0294596	-130,0
     166,975	     0,46332	88,1	   0,0298941	-127,9
     167,009	    0,464571	87,0	   0,0297676	-129,5
     167,043	    0,465581	87,1	   0,0297945	-127,6
     167,077	    0,466049	88,0	   0,0292846	-126,3
     167,111	    0,467431	86,9	   0,0290904	-127,1
     167,146	    0,468704	89,0	   0,0290004	-129,7
      167,18	    0,469775	88,7	   0,0290784	-126,2
     167,214	     0,47042	87,5	   0,0295576	-127,6
     167,248	     0,47109	89,1	   0,0290302	-128,7
     167,283	    0,472828	87,0	   0,0283481	-125,3
     167,317	      0,4742	87,4	   0,0282677	-126,0
     167,351	     0,47505	86,5	   0,0284387	-124,7
     167,385	     0,47625	86,4	   0,0281291	-129,7
     167,419	    0,477205	87,8	   0,0280005	-129,1
     167,454	    0,478388	89,1	   0,0273407	-129,3
     167,488	    0,479432	87,6	   0,0276695	-126,9
     167,522	    0,480452	89,6	   0,0274221	-125,5
     167,556	    0,481136	88,4	    0,027452	-129,3
      167,59	    0,482868	87,0	   0,0275032	-125,6
     167,625	    0,483989	89,2	   0,0273427	-127,1
     167,659	    0,485133	87,4	   0,0266972	-129,0
     167,693	    0,486299	90,3	   0,0270736	-125,9
     167,727	    0,487147	88,7	   0,0269343	-126,4
     167,761	    0,488325	88,2	   0,0267695	-126,1
     167,796	    0,489439	89,2	   0,0266568	-127,0
      167,83	    0,490032	91,2	    0,026695	-129,4
     167,864	    0,491173	88,6	   0,0266937	-126,9
     167,898	    0,491999	89,8	   0,0255274	-127,5
     167,933	    0,493733	88,3	   0,0258138	-126,5
     167,967	    0,494332	91,0	   0,0258264	-128,2
     168,001	    0,495414	87,9	   0,0257285	-128,3
     168,035	    0,496201	89,1	   0,0254409	-126,9
     168,069	    0,497766	89,5	   0,0257166	-126,9
     168,104	    0,498757	89,4	   0,0255042	-126,9
     168,138	    0,499249	90,6	   0,0252266	-128,5
     168,172	    0,501134	87,8	   0,0250597	-127,9
     168,206	    0,501666	89,6	   0,0254099	-127,7
      168,24	    0,503153	92,1	   0,0248898	-129,3
     168,275	    0,503924	88,3	   0,0246376	-127,6
     168,309	     0,50486	90,7	   0,0247203	-129,6
     168,343	    0,505858	91,3	   0,0245568	-128,3
     168,377	    0,506565	90,3	   0,0243174	-128,2
     168,412	    0,508671	89,2	   0,0244525	-124,6
     168,446	    0,509463	88,8	   0,0245158	-127,7
      168,48	    0,510427	90,9	   0,0246237	-126,7
     168,514	    0,511914	89,7	   0,0240996	-129,9
     168,548	    0,513022	88,2	   0,0241352	-126,7
     168,583	    0,514058	90,6	   0,0241564	-127,6
     168,617	    0,514603	89,1	   0,0242846	-124,1
     168,651	    0,515642	92,4	   0,0239701	-128,6
     168,685	    0,516934	91,0	   0,0234085	-127,7
     168,719	    0,517708	90,4	   0,0242737	-127,0
     168,754	    0,518617	89,5	   0,0233506	-128,9
     168,788	    0,520136	90,7	   0,0238806	-126,5
     168,822	    0,521295	89,4	   0,0229872	-127,4
     168,856	    0,522102	93,4	   0,0234099	-124,5
     168,891	    0,523248	91,0	   0,0234136	-128,1
     168,925	    0,524292	91,9	    0,023376	-130,2
     168,959	    0,524966	90,3	   0,0229678	-127,2
     168,993	    0,526103	91,5	   0,0228478	-127,7
     169,027	    0,526877	92,3	   0,0231767	-127,2
     169,062	    0,528396	92,3	   0,0229182	-126,5
     169,096	    0,529554	90,5	   0,0233439	-128,5
      169,13	    0,530433	90,8	   0,0227195	-127,6
     169,164	    0,530797	92,5	   0,0227163	-124,8
     169,198	    0,531779	93,9	    0,022131	-129,5
     169,233	    0,532876	95,1	   0,0227604	-123,8
     169,267	    0,534068	91,7	   0,0228122	-125,6
     169,301	    0,535141	92,9	   0,0222574	-128,7
     169,335	    0,535823	94,2	   0,0224111	-129,0
      169,37	    0,537347	92,5	   0,0222405	-125,7
     169,404	    0,538792	91,7	   0,0218647	-129,0
     169,438	    0,539421	94,1	   0,0219422	-126,0
     169,472	    0,540842	92,2	   0,0218471	-124,1
     169,506	    0,541478	92,4	   0,0217497	-129,0
     169,541	    0,542572	90,1	   0,0216278	-126,5
     169,575	    0,543615	93,0	   0,0215837	-126,7
     169,609	    0,544235	94,0	   0,0214972	-129,2
     169,643	     0,54518	92,3	   0,0214649	-126,3
     169,677	    0,546643	90,5	   0,0217565	-126,6
     169,712	    0,547438	92,5	    0,021582	-127,2
     169,746	    0,548816	93,5	   0,0214133	-126,0
      169,78	    0,549876	93,8	   0,0211789	-125,4
     169,814	    0,551098	94,1	   0,0205415	-129,9
     169,848	    0,551369	91,9	    0,020832	-127,0
     169,883	    0,552944	95,4	    0,020879	-128,2
     169,917	    0,553818	96,4	   0,0205265	-127,6
     169,951	    0,554994	94,1	   0,0204998	-129,3
     169,985	    0,555778	94,8	   0,0212164	-129,0
      170,02	    0,556831	95,1	   0,0211496	-126,5
     170,054	    0,557896	94,6	   0,0207406	-125,6
     170,088	    0,558962	93,1	   0,0203639	-125,3
     170,122	    0,560218	90,8	   0,0205818	-128,1
     170,156	     0,56146	92,9	   0,0203476	-129,4
     170,191	    0,562298	92,7	    0,020403	-129,1
     170,225	    0,563452	94,5	   0,0199845	-128,6
     170,259	    0,564161	94,8	   0,0200659	-129,1
     170,293	    0,564715	93,9	   0,0203653	-127,5
     170,327	    0,565837	93,1	    0,020347	-124,8
     170,362	    0,566959	94,1	   0,0200544	-125,2
     170,396	     0,56811	95,7	   0,0198303	-126,6
      170,43	    0,569445	94,5	   0,0195051	-125,9
     170,464	    0,570379	95,2	   0,0198049	-126,0
     170,499	    0,571768	94,5	   0,0199517	-127,8
     170,533	    0,572563	94,6	   0,0195559	-128,7
     170,567	    0,573068	95,6	   0,0197794	-129,6
     170,601	    0,574108	96,9	   0,0195818	-129,1
     170,635	    0,575033	97,9	    0,019696	-126,0
      170,67	    0,576295	97,2	   0,0195734	-124,4
     170,704	    0,577535	93,2	   0,0189071	-131,8
     170,738	    0,578964	94,8	   0,0190839	-131,0
     170,772	    0,579499	96,1	   0,0197785	-126,4
     170,806	     0,57985	95,0	   0,0192597	-129,1
     170,841	    0,581243	94,8	   0,0189265	-127,0
     170,875	    0,582491	96,9	   0,0190195	-126,4
     170,909	    0,583338	96,2	   0,0189008	-127,0
     170,943	    0,584375	92,8	   0,0188228	-129,7
     170,978	     0,58538	92,6	   0,0187313	-127,3
     171,012	    0,586502	95,0	   0,0186865	-127,9
     171,046	    0,587328	95,1	   0,0193581	-127,3
      171,08	    0,587928	97,4	   0,0192787	-126,8
     171,114	    0,589414	95,9	   0,0187236	-124,6
     171,149	    0,590192	98,3	   0,0190934	-127,4
     171,183	    0,590344	96,4	   0,0184509	-127,9
     171,217	    0,592141	97,8	    0,018456	-124,3
     171,251	    0,593132	99,2	   0,0184497	-128,9
     171,285	    0,593704	97,2	   0,0186799	-126,9
      171,32	    0,594523	96,9	   0,0186708	-124,1
     171,354	    0,595273	99,1	   0,0183712	-126,6
     171,388	    0,596938	96,1	   0,0183424	-125,9
     171,422	     0,59762	96,2	   0,0181161	-129,4
     171,456	     0,59813	96,3	     0,01818	-126,8
     171,491	    0,599409	97,9	   0,0182082	-127,6
     171,525	     0,60082	96,4	   0,0182349	-128,0
     171,559	    0,601336	96,6	   0,0180496	-125,9
     171,593	    0,602316	97,8	   0,0177173	-127,8
     171,628	    0,603478	98,3	   0,0181497	-126,7
     171,662	    0,604113	97,9	   0,0177068	-130,6
     171,696	    0,605395	97,0	   0,0179676	-125,9
      171,73	    0,605734	97,0	   0,0179292	-125,4
     171,764	    0,607124	97,6	   0,0175659	-131,0
     171,799	    0,608391	100,0	   0,0174156	-127,2
     171,833	     0,60868	96,9	   0,0177045	-129,7
     171,867	    0,610314	97,4	   0,0173645	-126,3
     171,901	     0,61183	98,3	   0,0172984	-129,2
     171,935	    0,611637	98,1	   0,0171917	-126,0
      171,97	    0,612843	97,1	   0,0171119	-128,7
     172,004	    0,613997	97,7	   0,0176526	-124,5
     172,038	    0,615181	96,6	   0,0174064	-128,5
     172,072	     0,61626	97,0	    0,017151	-126,7
     172,107	     0,61649	96,2	    0,017104	-130,1
     172,141	    0,617573	98,9	    0,017146	-125,9
     172,175	    0,618298	99,2	   0,0169849	-130,6
     172,209	    0,620065	98,9	   0,0172175	-127,6
     172,243	    0,620896	99,1	   0,0170641	-130,5
     172,278	    0,621712	98,1	   0,0167112	-124,6
     172,312	    0,623064	97,7	   0,0172225	-127,2
     172,346	    0,623601	97,3	   0,0170444	-128,9
      172,38	    0,624826	95,4	   0,0168497	-126,2
     172,414	    0,625624	97,8	   0,0169597	-129,2
     172,449	    0,625985	98,6	   0,0167266	-127,5
     172,483	    0,627076	99,1	   0,0166431	-124,3
     172,517	     0,62782	99,4	   0,0165476	-130,1
     172,551	    0,628938	100,5	   0,0168388	-125,5
     172,586	    0,629873	99,6	   0,0166384	-126,9
      172,62	     0,63083	98,6	   0,0166134	-129,8
     172,654	    0,631711	102,2	   0,0161372	-130,1
     172,688	    0,633079	100,8	   0,0164516	-127,1
     172,722	    0,633926	99,0	   0,0167517	-124,2
     172,757	    0,634409	102,6	   0,0163288	-127,0
     172,791	    0,635219	100,9	   0,0161246	-130,1
     172,825	    0,636327	101,4	    0,016329	-130,7
     172,859	    0,637835	99,3	   0,0162857	-124,4
     172,893	    0,637936	99,8	   0,0160223	-129,5
     172,928	    0,639115	100,4	   0,0161254	-125,2
     172,962	    0,640484	99,1	   0,0163502	-124,8
     172,996	    0,640685	102,3	   0,0163749	-125,4
      173,03	     0,64188	98,1	   0,0159236	-126,3
     173,065	    0,643215	98,9	   0,0159419	-128,2
     173,099	    0,644025	103,7	   0,0160881	-124,4
     173,133	    0,644774	98,9	    0,016036	-129,6
     173,167	    0,645485	101,3	   0,0157051	-126,4
     173,201	    0,646396	100,9	   0,0159224	-127,3
     173,236	    0,647771	101,1	   0,0156948	-124,5
      173,27	    0,648048	99,6	   0,0157453	-128,4
     173,304	    0,649262	100,7	   0,0155947	-126,8
     173,338	    0,650124	98,8	   0,0154606	-126,9
     173,372	    0,651026	100,4	   0,0157212	-127,4
     173,407	    0,651993	100,8	   0,0152986	-124,9
     173,441	      0,6531	101,3	   0,0156595	-124,9
     173,475	    0,653947	99,8	   0,0151978	-130,7
     173,509	    0,655265	100,9	    0,015504	-126,4
     173,544	    0,655344	103,1	   0,0156666	-129,7
     173,578	    0,657147	101,6	   0,0157029	-127,0
     173,612	    0,656964	102,1	   0,0153819	-125,0
     173,646	    0,658229	100,2	   0,0153051	-127,2
      173,68	    0,659223	102,6	   0,0156586	-126,2
     173,715	    0,660865	99,1	    0,015206	-129,6
     173,749	    0,661418	103,2	   0,0152136	-129,2
     173,783	    0,661961	100,1	    0,015394	-130,0
     173,817	    0,663567	98,2	   0,0153451	-127,3
     173,851	    0,664182	102,3	   0,0152456	-124,1
     173,886	    0,664962	104,4	   0,0152875	-128,6
      173,92	     0,66582	103,4	   0,0151254	-127,9
     173,954	    0,666886	101,5	   0,0150525	-126,3
     173,988	    0,667392	100,6	   0,0151398	-127,0
     174,022	    0,668594	101,1	   0,0149966	-125,1
     174,057	    0,668911	104,7	   0,0152739	-126,2
     174,091	    0,670392	101,1	    0,015023	-129,2
     174,125	    0,671584	103,0	   0,0153061	-125,1
     174,159	    0,671659	101,0	   0,0150357	-127,9
     174,194	    0,673412	101,2	   0,0150319	-126,7
     174,228	    0,673933	102,8	   0,0145826	-127,5
     174,262	    0,675506	102,3	   0,0147125	-128,0
     174,296	    0,675968	103,5	   0,0148492	-130,7
      174,33	    0,676484	102,5	   0,0147508	-129,5
     174,365	    0,677898	104,5	    0,014772	-127,7
     174,399	    0,678924	99,0	   0,0149255	-128,6
     174,433	    0,679959	104,0	   0,0145444	-126,9
     174,467	    0,680329	104,7	   0,0148215	-128,4
     174,501	    0,681739	100,9	   0,0145289	-129,3
     174,536	    0,682419	102,5	   0,0143423	-126,3
      174,57	    0,683076	101,9	   0,0146823	-127,6
     174,604	    0,684439	102,3	   0,0146541	-128,0
     174,638	    0,685169	100,5	   0,0145016	-128,9
     174,673	     0,68544	104,5	   0,0144237	-128,7
     174,707	    0,686673	103,8	   0,0144244	-125,7
     174,741	    0,687873	103,4	   0,0143394	-125,2
     174,775	    0,688753	102,8	   0,0142376	-127,9
     174,809	    0,689905	102,9	   0,0143407	-127,0
     174,844	    0,690195	103,1	   0,0141857	-129,8
     174,878	    0,691439	104,1	   0,0142627	-126,0
     174,912	    0,692696	104,6	   0,0139086	-129,2
     174,946	    0,693434	103,8	   0,0140158	-127,9
      174,98	    0,694015	105,9	   0,0140534	-127,2
     175,015	    0,694702	102,2	   0,0137675	-127,6
     175,049	    0,695936	104,2	   0,0139485	-126,0
     175,083	    0,697032	103,8	   0,0139399	-124,9
     175,117	    0,697499	103,7	   0,0141119	-128,7
     175,152	    0,698469	104,0	   0,0140448	-128,5
     175,186	     0,69993	103,3	   0,0138215	-127,6
      175,22	     0,70001	105,6	   0,0140649	-123,6
     175,254	    0,701121	105,3	   0,0138975	-128,0
     175,288	    0,701825	104,5	   0,0139198	-125,8
     175,323	    0,703396	105,9	   0,0135798	-128,9
     175,357	    0,704065	103,4	   0,0139444	-127,4
     175,391	    0,705487	101,8	   0,0137019	-124,9
     175,425	    0,705401	105,8	   0,0139412	-128,6
     175,459	    0,706631	107,1	   0,0137397	-132,1
     175,494	    0,707575	103,7	   0,0137654	-129,2
     175,528	    0,708815	106,7	   0,0135496	-127,6
     175,562	    0,709979	104,4	   0,0135721	-127,7
     175,596	    0,710682	104,8	   0,0137203	-127,3
      175,63	    0,711371	103,5	   0,0134538	-127,2
     175,665	    0,711906	105,3	   0,0132804	-128,6
     175,699	     0,71287	106,0	   0,0134045	-126,9
     175,733	    0,713958	105,9	    0,013345	-129,0
     175,767	    0,714344	104,7	   0,0133835	-127,5
     175,802	    0,715848	105,3	   0,0134103	-126,7
     175,836	    0,716446	108,5	    0,013206	-128,9
      175,87	     0,71697	105,3	   0,0132208	-129,6
     175,904	    0,718134	105,0	   0,0131278	-126,9
     175,938	     0,71925	106,5	   0,0135722	-126,1
     175,973	    0,720487	104,1	   0,0131624	-125,3
     176,007	    0,720662	106,2	    0,013671	-124,8
     176,041	    0,722092	107,3	   0,0134019	-126,5
     176,075	    0,722854	104,9	   0,0131426	-130,6
     176,109	    0,723886	105,6	   0,0132431	-127,2
     176,144	    0,724772	106,8	   0,0134103	-128,6
     176,178	    0,725279	106,0	   0,0132769	-128,3
     176,212	    0,726218	107,4	   0,0131486	-123,5
     176,246	    0,726996	107,2	   0,0133241	-125,9
     176,281	    0,727757	107,5	   0,0130309	-129,5
     176,315	    0,728859	108,4	   0,0132084	-130,6
     176,349	     0,73012	106,8	   0,0131533	-128,6
     176,383	    0,731026	106,0	   0,0129644	-124,7
     176,417	    0,731611	107,8	   0,0128737	-128,2
     176,452	    0,732599	105,9	   0,0131929	-126,2
     176,486	    0,733379	106,1	   0,0130141	-125,9
      176,52	     0,73423	108,0	   0,0129098	-125,1
     176,554	    0,735037	109,7	   0,0129384	-126,3
     176,588	    0,735576	106,4	   0,0126206	-126,2
     176,623	    0,737395	105,5	   0,0128193	-127,2
     176,657	    0,737643	106,2	   0,0130157	-129,3
     176,691	    0,738348	108,4	   0,0132551	-127,9
     176,725	    0,739659	106,5	   0,0131286	-126,6
      176,76	    0,739831	108,6	   0,0127648	-124,9
     176,794	    0,741426	109,7	   0,0128898	-126,2
     176,828	    0,742135	107,5	   0,0127486	-132,0
     176,862	    0,742721	110,0	   0,0128034	-128,0
     176,896	    0,744068	106,9	   0,0129171	-127,0
     176,931	     0,74484	108,6	   0,0127502	-127,7
     176,965	     0,74583	106,7	   0,0128174	-123,3
     176,999	    0,746264	107,6	   0,0129875	-127,8
     177,033	    0,747605	108,4	   0,0128033	-130,1
     177,067	    0,748344	108,0	   0,0127038	-123,8
     177,102	    0,749048	107,9	   0,0124959	-126,7
     177,136	    0,749668	107,6	    0,012675	-128,9
      177,17	      0,7508	110,1	   0,0125231	-126,6
     177,204	    0,751852	107,6	   0,0123956	-125,2
     177,239	    0,752196	107,3	   0,0127605	-124,6
     177,273	    0,752908	110,6	   0,0127128	-128,2
     177,307	    0,754194	110,4	    0,012594	-125,6
     177,341	     0,75515	107,6	   0,0125398	-127,1
     177,375	    0,756152	107,6	   0,0123547	-127,6
      177,41	    0,757011	108,5	   0,0125824	-122,9
     177,444	    0,757431	109,6	   0,0125068	-126,8
     177,478	    0,758587	109,3	   0,0122409	-129,1
     177,512	    0,759431	108,0	    0,012278	-124,5
     177,546	    0,760799	110,8	   0,0123022	-128,6
     177,581	    0,761149	108,9	   0,0122386	-125,9
     177,615	     0,76216	110,7	   0,0119675	-126,9
     177,649	     0,76294	108,6	   0,0124234	-130,0
     177,683	    0,764126	112,5	   0,0123724	-122,7
     177,717	    0,764579	111,9	   0,0123639	-127,9
     177,752	    0,766529	106,2	   0,0123529	-124,5
     177,786	    0,766925	109,8	   0,0124542	-129,2
      177,82	    0,767903	111,2	   0,0118495	-123,8
     177,854	    0,768717	110,3	   0,0122399	-128,3
     177,889	    0,769395	110,6	   0,0120461	-126,3
     177,923	    0,770803	109,7	   0,0120468	-129,4
     177,957	    0,770967	110,3	   0,0120482	-123,5
     177,991	    0,772243	110,0	   0,0120597	-126,6
     178,025	    0,773353	107,0	   0,0121707	-129,3
      178,06	    0,774059	110,4	   0,0118648	-126,2
     178,094	    0,775068	110,3	   0,0119672	-125,6
     178,128	    0,775824	113,0	   0,0120463	-130,5
     178,162	    0,776768	111,0	    0,011972	-126,1
     178,196	    0,777387	109,0	   0,0120074	-130,7
     178,231	    0,778745	114,1	   0,0117633	-124,0
     178,265	    0,778929	111,0	   0,0119737	-133,2
     178,299	    0,780314	110,0	   0,0118854	-125,4
     178,333	    0,781207	110,8	   0,0120065	-129,5
     178,368	     0,78218	109,2	   0,0118117	-126,0
     178,402	    0,783036	112,0	   0,0120949	-127,6
     178,436	    0,783482	111,8	   0,0121767	-124,4
      178,47	    0,784847	110,9	   0,0118675	-127,9
     178,504	    0,785848	110,2	   0,0119373	-123,9
     178,539	    0,785989	112,2	   0,0118641	-126,3
     178,573	    0,787419	111,7	   0,0118455	-129,0
     178,607	    0,788625	110,8	   0,0118577	-125,4
     178,641	    0,788733	112,3	    0,011714	-131,0
     178,675	    0,789719	109,8	   0,0120501	-129,3
      178,71	     0,79061	110,0	   0,0116381	-125,9
     178,744	    0,791731	108,2	   0,0118171	-128,0
     178,778	    0,792375	110,9	   0,0113498	-127,9
     178,812	    0,793183	110,9	   0,0116489	-125,9
     178,847	    0,793984	112,4	   0,0118406	-125,1
     178,881	    0,795149	112,7	   0,0117039	-123,1
     178,915	    0,795808	109,9	   0,0116981	-128,4
     178,949	    0,796317	115,2	   0,0118127	-128,2
     178,983	    0,797624	115,5	   0,0115458	-128,9
     179,018	    0,798366	112,6	   0,0116361	-125,4
     179,052	    0,799301	111,3	   0,0114751	-130,7
     179,086	    0,800139	111,7	   0,0116817	-125,1
      179,12	     0,80168	114,0	   0,0114595	-127,3
     179,154	    0,802191	112,5	   0,0115136	-130,3
     179,189	    0,803371	112,7	   0,0118241	-127,0
     179,223	    0,803909	112,5	   0,0115948	-128,7
     179,257	    0,804978	112,6	   0,0115364	-126,4
     179,291	    0,805544	115,4	   0,0116073	-127,9
     179,326	    0,807004	115,8	   0,0115905	-128,1
      179,36	    0,807822	110,9	   0,0117503	-124,2
     179,394	    0,809113	109,7	   0,0115142	-129,7
     179,428	    0,809622	112,8	   0,0113157	-127,9
     179,462	    0,810803	114,6	   0,0115548	-130,8
     179,497	      0,8115	114,2	   0,0112227	-126,9
     179,531	     0,81256	111,2	   0,0113658	-127,2
     179,565	     0,81364	113,6	   0,0114986	-123,1
     179,599	    0,814142	112,9	   0,0111334	-121,3
     179,633	    0,815396	114,3	   0,0109961	-126,1
     179,668	    0,816167	114,6	   0,0113762	-128,7
     179,702	     0,81714	114,2	   0,0113147	-128,7
     179,736	    0,818403	113,9	   0,0111564	-124,8
      179,77	    0,818611	114,5	   0,0112006	-128,2
     179,804	    0,819391	114,3	    0,011259	-129,6
     179,839	    0,820529	116,3	   0,0111877	-125,5
     179,873	     0,82173	114,4	   0,0112765	-123,9
     179,907	    0,822139	112,9	   0,0112838	-125,1
     179,941	    0,823544	114,3	   0,0111034	-126,1
     179,976	     0,82355	116,0	   0,0109384	-125,8
      180,01	    0,825152	113,7	   0,0109943	-122,8
     180,044	     0,82591	116,1	   0,0111162	-122,5
     180,078	    0,826856	113,6	   0,0108729	-124,7
     180,112	    0,827649	113,8	   0,0108862	-127,1
     180,147	    0,828781	113,3	   0,0108901	-123,0
     180,181	    0,829323	114,7	   0,0111999	-126,3
     180,215	    0,830199	115,5	   0,0109631	-128,8
     180,249	    0,830937	113,1	   0,0109054	-129,7
     180,283	    0,831909	113,1	   0,0108621	-126,0
     180,318	    0,832826	117,6	   0,0109325	-124,0
     180,352	    0,833605	116,1	   0,0108645	-127,4
     180,386	    0,834247	117,6	   0,0109197	-124,3
      180,42	    0,834955	115,4	   0,0109694	-122,6
     180,455	    0,835815	118,5	   0,0107214	-125,9
     180,489	    0,837575	115,8	   0,0108954	-129,9
     180,523	    0,837853	115,7	   0,0107662	-127,4
     180,557	    0,838161	117,8	   0,0107426	-123,5
     180,591	    0,838923	113,3	   0,0107976	-129,6
     180,626	    0,840128	114,2	   0,0106503	-123,7
      180,66	    0,841138	115,4	   0,0106636	-124,6
     180,694	    0,841455	118,5	   0,0106449	-126,6
     180,728	    0,842766	117,3	   0,0107883	-125,1
     180,762	    0,843851	116,9	     0,01083	-125,7
     180,797	    0,844285	115,9	   0,0107316	-130,3
     180,831	    0,845464	115,2	   0,0107895	-130,1
     180,865	    0,846091	114,7	   0,0106145	-128,5
     180,899	    0,847585	118,2	   0,0104658	-123,4
     180,934	    0,847892	114,3	   0,0106506	-124,2
     180,968	    0,848368	118,2	   0,0107112	-122,9
     181,002	    0,849333	116,2	   0,0109567	-124,7
     181,036	    0,850906	114,6	   0,0106611	-128,4
      181,07	    0,851642	115,9	   0,0105503	-129,5
     181,105	    0,852577	117,0	   0,0108482	-126,4
     181,139	    0,852961	117,3	   0,0107152	-124,4
     181,173	    0,853894	117,3	   0,0106959	-128,0
     181,207	    0,854811	118,3	   0,0106568	-127,6
     181,241	    0,855304	118,1	   0,0104269	-123,7
     181,276	    0,857019	116,7	    0,010466	-122,5
      181,31	    0,857691	116,1	    0,010483	-127,7
     181,344	    0,859005	115,2	    0,010481	-130,8
     181,378	    0,858923	117,9	   0,0107044	-130,3
     181,413	    0,860206	119,0	   0,0104543	-127,1
     181,447	    0,861018	119,4	   0,0107227	-130,8
     181,481	    0,861632	115,0	   0,0104826	-132,6
     181,515	    0,862905	114,9	    0,010487	-127,2
     181,549	    0,863849	116,0	   0,0104873	-126,4
     181,584	    0,864107	120,9	   0,0103787	-129,7
     181,618	    0,865578	117,2	   0,0104291	-126,2
     181,652	     0,86666	119,2	   0,0108451	-129,8
     181,686	    0,865991	119,4	   0,0102758	-126,6
      181,72	    0,868314	118,6	   0,0102642	-129,6
     181,755	    0,868702	119,4	   0,0106279	-124,5
     181,789	    0,869063	119,5	   0,0106286	-128,5
     181,823	    0,871108	118,2	   0,0103156	-127,3
     181,857	    0,872055	117,5	   0,0101358	-123,9
     181,891	    0,871507	121,0	   0,0102369	-127,2
     181,926	     0,87295	120,2	   0,0101492	-124,0
      181,96	    0,874752	119,8	   0,0104801	-128,0
     181,994	    0,874869	118,0	   0,0101225	-124,1
     182,028	    0,875504	116,6	   0,0105036	-126,0
     182,063	    0,876482	117,4	   0,0100869	-128,5
     182,097	    0,877688	120,5	  0,00994203	-123,7
     182,131	       0,878	117,9	   0,0102244	-126,5
     182,165	    0,878925	119,8	    0,010182	-124,9
     182,199	    0,879777	122,6	   0,0102843	-121,8
     182,234	    0,880799	119,0	   0,0103172	-126,8
     182,268	    0,881681	119,2	   0,0104287	-128,5
     182,302	     0,88311	117,5	   0,0100235	-126,3
     182,336	    0,883793	118,1	   0,0100392	-125,9
      182,37	    0,883658	122,7	   0,0100389	-128,0
     182,405	    0,885147	120,3	   0,0100613	-127,6
     182,439	    0,886102	119,0	   0,0103619	-127,5
     182,473	    0,886867	116,5	  0,00991814	-125,0
     182,507	    0,887438	118,8	   0,0103115	-128,8
     182,542	    0,888645	120,4	   0,0101146	-125,7
     182,576	    0,889501	120,0	   0,0102598	-129,4
      182,61	    0,890022	122,6	    0,009886	-124,5
     182,644	     0,89186	118,5	   0,0104146	-126,3
     182,678	    0,891845	120,5	   0,0100023	-125,8
     182,713	    0,893514	118,0	   0,0102241	-127,0
     182,747	    0,893249	121,6	   0,0101724	-126,0
     182,781	    0,894406	119,5	  0,00991481	-127,4
     182,815	    0,895322	123,0	  0,00992834	-127,1
     182,849	    0,896921	118,2	   0,0101261	-123,0
     182,884	    0,896693	120,4	  0,00986246	-129,6
     182,918	    0,898918	119,4	    0,010019	-124,0
     182,952	    0,899128	121,0	   0,0100641	-129,4
     182,986	    0,899271	123,1	   0,0098983	-125,2
     183,021	    0,900999	120,6	   0,0101089	-128,6
     183,055	    0,900619	122,2	  0,00988241	-125,5
     183,089	    0,902431	120,8	  0,00989573	-126,4
     183,123	    0,902944	121,9	   0,0101718	-127,5
     183,157	     0,90408	122,9	   0,0101091	-125,4
     183,192	    0,904885	123,0	  0,00984449	-123,7
     183,226	    0,905852	120,7	   0,0100708	-127,5
      183,26	    0,906262	120,9	   0,0096753	-126,7
     183,294	    0,907204	122,7	  0,00999691	-131,0
     183,328	    0,908237	123,3	  0,00999375	-129,2
     183,363	    0,909343	122,5	   0,0098096	-130,8
     183,397	     0,90989	118,9	  0,00986799	-125,4
     183,431	     0,91078	123,0	  0,00984606	-128,0
     183,465	    0,912174	123,6	  0,00970077	-122,3
       183,5	    0,912872	121,4	  0,00964669	-125,4
     183,534	    0,913047	123,5	  0,00998365	-128,7
     183,568	    0,914229	123,3	  0,00997539	-126,8
     183,602	    0,914702	124,6	    0,010004	-131,2
     183,636	    0,916174	122,9	   0,0100317	-128,6
     183,671	    0,916568	124,7	  0,00985731	-126,1
     183,705	      0,9175	125,4	  0,00998674	-130,5
     183,739	    0,918471	125,8	  0,00960913	-125,5
     183,773	    0,919467	123,4	    0,009503	-130,0
     183,807	    0,919616	124,2	  0,00987734	-127,1
     183,842	    0,921305	120,7	   0,0096485	-126,7
     183,876	    0,921853	124,9	  0,00979367	-128,3
      183,91	    0,922659	125,6	    0,009625	-125,4
     183,944	    0,924029	122,0	   0,0095646	-128,1
     183,979	    0,924237	125,2	  0,00981316	-130,2
     184,013	    0,924915	126,3	  0,00950377	-125,2
     184,047	    0,925882	124,2	  0,00953161	-124,1
     184,081	    0,927202	121,4	   0,0096062	-130,2
     184,115	    0,927575	126,8	   0,0097413	-124,9
      184,15	    0,928394	125,5	  0,00925221	-126,2
     184,184	    0,928708	127,6	  0,00990613	-129,3
     184,218	    0,930366	122,9	   0,0097438	-124,7
     184,252	    0,931137	125,6	  0,00945254	-128,3
     184,286	    0,932075	124,4	  0,00972482	-127,5
     184,321	    0,933252	124,5	  0,00983174	-128,4
     184,355	    0,933791	127,7	  0,00947202	-129,0
     184,389	    0,935004	123,9	  0,00938081	-127,9
     184,423	    0,936671	124,4	  0,00963687	-127,1
     184,457	    0,937326	126,5	  0,00957676	-124,6
     184,492	    0,937584	124,9	  0,00945111	-124,1
     184,526	    0,938382	122,4	  0,00929394	-127,5
      184,56	    0,939566	124,3	  0,00943536	-125,0
     184,594	    0,940624	127,5	  0,00979669	-129,9
     184,629	    0,941812	126,5	  0,00968311	-128,0
     184,663	    0,943022	124,5	  0,00946543	-124,5
     184,697	    0,943851	126,1	  0,00924829	-126,9
     184,731	    0,944518	126,1	  0,00958454	-129,9
     184,765	    0,945346	125,7	  0,00952611	-127,1
       184,8	    0,946043	126,5	  0,00951354	-125,8
     184,834	    0,946916	128,8	  0,00967303	-126,1
     184,868	    0,947608	127,6	   0,0093398	-123,6
     184,902	    0,948689	127,1	  0,00953326	-124,6
     184,936	    0,949461	127,1	  0,00969315	-125,3
     184,971	    0,950602	127,6	  0,00938921	-127,7
     185,005	     0,95183	128,3	  0,00931352	-123,9
     185,039	    0,952744	131,0	  0,00910003	-126,4
     185,073	    0,953106	132,1	  0,00938935	-127,4
     185,108	    0,954819	127,0	  0,00938924	-127,5
     185,142	    0,955904	130,2	  0,00933973	-127,7
     185,176	    0,955604	129,9	  0,00933648	-128,1
      185,21	    0,957159	124,1	  0,00958754	-128,2
     185,244	    0,958184	128,4	  0,00966311	-130,4
     185,279	    0,958836	130,3	  0,00957083	-128,8
     185,313	    0,959842	129,5	  0,00938446	-125,2
     185,347	     0,96065	131,1	  0,00930187	-124,6
     185,381	    0,961367	130,3	  0,00914678	-125,2
     185,415	    0,962254	128,2	  0,00901108	-125,8
      185,45	    0,963267	128,3	  0,00916005	-124,2
     185,484	    0,964633	127,0	  0,00903738	-127,0
     185,518	     0,96581	127,2	  0,00938127	-125,4
     185,552	      0,9665	125,8	  0,00944958	-127,7
     185,587	    0,966863	130,0	  0,00927967	-126,6
     185,621	    0,967344	132,1	  0,00900877	-129,2
     185,655	    0,969273	129,5	   0,0089827	-125,1
     185,689	    0,969649	130,7	  0,00899724	-129,6
     185,723	    0,970361	129,4	  0,00911414	-125,5
     185,758	    0,971457	127,4	  0,00915294	-122,9
     185,792	    0,972476	130,4	  0,00912245	-123,7
     185,826	    0,972859	132,9	   0,0091807	-131,2
      185,86	    0,973142	132,7	   0,0090123	-125,0
     185,894	    0,974462	135,0	  0,00895451	-126,0
     185,929	    0,975327	133,0	  0,00895712	-128,1
     185,963	    0,976894	132,9	  0,00913044	-125,4
     185,997	    0,977524	130,4	  0,00884473	-124,1
     186,031	    0,977561	132,5	  0,00923544	-126,7
     186,065	    0,978615	133,9	  0,00936402	-126,5
       186,1	    0,979942	132,0	  0,00934626	-126,4
     186,134	    0,980366	136,1	  0,00908045	-125,4
     186,168	    0,980958	135,8	  0,00907852	-127,4
     186,202	    0,982091	135,7	  0,00906965	-128,7
     186,237	      0,9835	133,4	  0,00909341	-126,3
     186,271	    0,984249	136,0	  0,00901658	-123,9
     186,305	    0,985036	137,1	  0,00940024	-124,8
     186,339	    0,986099	136,2	  0,00921902	-130,9
     186,373	    0,987026	132,2	  0,00897357	-127,8
     186,408	    0,988003	131,3	  0,00924665	-124,8
     186,442	    0,988765	133,0	  0,00921156	-127,3
     186,476	    0,989516	133,3	   0,0091863	-127,6
      186,51	    0,990084	141,1	  0,00902901	-125,7
     186,544	    0,990959	136,7	  0,00888486	-126,9
     186,579	    0,992246	132,6	  0,00888304	-126,0
     186,613	    0,993086	136,3	  0,00917221	-127,4
     186,647	    0,993329	139,9	  0,00884784	-129,9
     186,681	    0,993452	139,6	  0,00899722	-128,7
     186,716	    0,995044	134,9	  0,00929448	-131,3
      186,75	    0,996659	136,5	  0,00894699	-128,3
     186,784	    0,997051	136,2	  0,00876621	-126,2
     186,818	    0,997483	136,3	  0,00882066	-127,4
     186,852	    0,998698	136,7	  0,00917018	-129,7
     186,887	     1,00006	137,2	  0,00938316	-130,9
     186,921	     1,00027	138,5	  0,00875292	-126,8
     186,955	     1,00091	141,8	  0,00869717	-126,5
     186,989	     1,00214	138,6	  0,00922407	-128,8
     187,023	     1,00309	138,2	  0,00888473	-129,4
     187,058	       1,003	142,1	  0,00916303	-129,0
     187,092	     1,00418	140,1	  0,00892675	-129,6
     187,126	     1,00502	145,0	  0,00874024	-126,3
      187,16	     1,00543	146,4	  0,00912109	-128,9
     187,195	     1,00662	144,9	  0,00879474	-124,6
     187,229	     1,00684	147,3	  0,00893534	-127,7
     187,263	     1,00763	146,7	  0,00874483	-127,5
     187,297	     1,00856	150,9	   0,0090012	-129,7
     187,331	     1,00825	153,4	   0,0087957	-127,5
     187,366	     1,00816	162,0	  0,00911423	-130,3
       187,4	     1,00741	171,2	   0,0087422	-130,7
     187,434	    0,997042	-154,4	  0,00876621	-125,6
     187,468	  0,00897474	-125,2	  0,00885518	-129,0
     187,502	  0,00879904	-127,3	  0,00882273	-124,0
     187,537	  0,00869287	-123,5	  0,00899098	-129,1
     187,571	  0,00855667	-127,6	   0,0086135	-126,5
     187,605	  0,00901336	-126,3	  0,00919772	-129,4
     187,639	  0,00876084	-130,3	  0,00849877	-125,8
     187,674	  0,00892802	-124,8	  0,00906124	-125,1
     187,708	  0,00872252	-127,0	  0,00868749	-128,4
     187,742	  0,00884096	-130,1	  0,00865446	-122,9
     187,776	  0,00861965	-125,7	   0,0089421	-134,3
      187,81	   0,0084491	-127,4	  0,00892814	-127,1
     187,845	  0,00903055	-130,3	  0,00897897	-132,4
     187,879	  0,00887186	-126,9	   0,0091535	-127,2
     187,913	  0,00873546	-129,1	  0,00855478	-125,0
     187,947	  0,00855827	-130,7	  0,00864026	-126,5
     187,981	  0,00881313	-125,4	  0,00872111	-122,0
     188,016	  0,00852959	-126,4	  0,00871178	-128,3
      188,05	  0,00869025	-128,6	  0,00909832	-127,1
     188,084	  0,00870965	-123,7	  0,00866173	-125,9
     188,118	  0,00869527	-129,7	  0,00860326	-127,1
     188,152	  0,00865898	-127,3	   0,0087139	-123,7
     188,187	  0,00854938	-129,6	  0,00865358	-127,9
     188,221	  0,00873425	-126,2	   0,0088317	-122,7
     188,255	  0,00883519	-131,8	   0,0088823	-128,5
     188,289	  0,00839225	-123,1	  0,00861879	-124,8
     188,324	  0,00893315	-128,9	  0,00880755	-129,7
     188,358	  0,00848106	-126,8	  0,00888257	-128,3
     188,392	   0,0086672	-124,2	  0,00860015	-125,7
     188,426	  0,00872937	-124,8	  0,00891994	-128,1
      188,46	  0,00901336	-127,6	  0,00850781	-128,0
     188,495	  0,00847171	-129,4	  0,00888704	-126,5
     188,529	  0,00860672	-125,5	  0,00834354	-125,3
     188,563	  0,00843094	-131,6	  0,00830731	-124,6
     188,597	  0,00859072	-126,5	  0,00902895	-131,9
     188,631	  0,00863173	-124,1	  0,00837873	-122,1
     188,666	   0,0089654	-126,9	  0,00866472	-128,4
       188,7	  0,00884719	-129,8	  0,00886621	-128,7
     188,734	   0,0084251	-125,4	  0,00829599	-127,2
     188,768	  0,00832392	-125,8	  0,00879027	-127,5
     188,803	  0,00854425	-126,6	  0,00846269	-123,1
     188,837	  0,00884338	-127,2	  0,00850956	-124,2
     188,871	  0,00842966	-126,0	  0,00869222	-127,5
     188,905	  0,00866438	-128,1	  0,00867231	-127,0
     188,939	  0,00885557	-129,3	  0,00820708	-126,4
     188,974	  0,00827161	-128,3	  0,00864591	-131,5
     189,008	  0,00830069	-124,4	  0,00851747	-126,7
     189,042	  0,00823988	-124,3	  0,00877766	-127,5
     189,076	  0,00865199	-125,1	  0,00873572	-129,9
      189,11	  0,00852903	-126,5	  0,00868311	-123,8
     189,145	  0,00893945	-128,5	  0,00829155	-124,5
     189,179	  0,00837828	-128,2	  0,00874312	-125,5
     189,213	  0,00846954	-126,0	  0,00838555	-124,2
     189,247	  0,00805756	-125,4	  0,00845095	-127,8
     189,282	  0,00810175	-124,9	  0,00846331	-121,1
     189,316	   0,0085911	-127,5	  0,00848277	-127,1
      189,35	  0,00847765	-127,4	  0,00871328	-126,4
     189,384	  0,00821642	-125,5	  0,00855963	-124,4
     189,418	  0,00861764	-122,8	  0,00835628	-124,8
     189,453	  0,00855246	-127,0	  0,00819528	-126,2
     189,487	   0,0086216	-131,8	  0,00859699	-128,1
     189,521	  0,00836325	-127,4	  0,00887582	-126,1
     189,555	  0,00821858	-129,9	  0,00853602	-126,3
     189,589	  0,00823442	-125,5	  0,00860292	-122,7
     189,624	  0,00810834	-127,6	  0,00856272	-122,3
     189,658	  0,00844298	-129,4	  0,00857932	-125,6
     189,692	  0,00859537	-126,5	  0,00823532	-126,9
     189,726	  0,00806643	-126,2	  0,00805795	-126,2
     189,761	  0,00818017	-130,5	  0,00846084	-131,5
     189,795	  0,00804788	-124,2	   0,0083206	-128,1
     189,829	  0,00858402	-125,8	  0,00845748	-129,8
     189,863	  0,00854787	-124,8	  0,00882134	-126,8
     189,897	  0,00868872	-128,0	  0,00833545	-120,0
     189,932	  0,00822519	-128,2	  0,00800552	-125,8
     189,966	  0,00820859	-129,5	  0,00812102	-127,3
         190	  0,00813842	-127,7	  0,00797025	-127,8

