X-Data [Hz]	Laser (M - Filtered) [m/s]	Phase [Deg]	Laser (M - Filtered) [m/s]	Phase [Deg]	
	002: [07-09-24 13:08]		003: [07-09-24 13:13]	
        40,5	   0,0504186	73,3	    0,055373	72,7
     40,5029	    0,052568	72,6	   0,0554583	72,3
     40,5059	   0,0544871	72,4	    0,055552	72,5
     40,5088	   0,0548709	72,2	   0,0555132	72,8
     40,5117	   0,0553054	72,6	   0,0557081	72,6
     40,5147	   0,0555074	72,2	   0,0557155	72,5
     40,5176	   0,0556456	72,3	   0,0557364	72,5
     40,5205	   0,0558176	72,6	   0,0559046	72,3
     40,5235	   0,0559113	72,3	   0,0558552	72,7
     40,5264	   0,0558032	72,6	   0,0560449	72,5
     40,5293	    0,056075	72,9	   0,0559901	72,5
     40,5323	   0,0560231	72,6	   0,0561374	72,6
     40,5352	   0,0561776	72,9	   0,0562648	72,4
     40,5381	   0,0561124	72,9	   0,0561599	72,4
     40,5411	   0,0563837	72,5	   0,0562891	72,7
      40,544	   0,0561682	73,0	   0,0564648	72,5
     40,5469	   0,0564945	72,2	   0,0564787	72,7
     40,5499	   0,0564304	72,5	   0,0565046	72,6
     40,5528	   0,0566113	72,7	   0,0565555	72,4
     40,5557	   0,0565104	72,6	   0,0566717	72,5
     40,5587	   0,0567558	72,8	   0,0567289	72,6
     40,5616	    0,056654	72,7	   0,0568394	72,5
     40,5645	   0,0568713	72,4	   0,0569314	72,9
     40,5674	   0,0569231	72,7	   0,0568271	72,7
     40,5704	   0,0569073	72,7	   0,0570295	72,7
     40,5733	   0,0570915	72,8	   0,0570611	72,8
     40,5762	   0,0571024	73,0	   0,0571648	72,8
     40,5792	   0,0572888	72,8	   0,0572501	72,9
     40,5821	    0,057108	72,8	   0,0572454	73,2
      40,585	   0,0574199	72,5	   0,0574131	72,7
      40,588	   0,0573544	72,4	   0,0574895	73,0
     40,5909	   0,0574701	72,8	   0,0575507	72,8
     40,5938	    0,057536	72,8	   0,0575966	72,7
     40,5968	    0,057639	72,6	    0,057702	72,8
     40,5997	   0,0577574	72,5	   0,0577236	72,6
     40,6026	   0,0577586	72,7	   0,0578166	72,6
     40,6056	   0,0578605	72,4	   0,0578968	73,0
     40,6085	   0,0579553	72,9	   0,0579554	72,9
     40,6114	   0,0579832	72,7	   0,0581126	72,7
     40,6144	   0,0580411	72,8	   0,0580857	72,7
     40,6173	   0,0581718	72,8	   0,0580773	72,6
     40,6202	   0,0581419	72,9	   0,0582881	72,7
     40,6232	   0,0582957	73,1	   0,0583716	73,0
     40,6261	   0,0584399	73,0	   0,0584477	72,7
      40,629	   0,0583729	73,0	   0,0585151	73,0
      40,632	   0,0585836	73,0	   0,0585068	72,7
     40,6349	   0,0585452	72,9	   0,0586835	72,7
     40,6378	   0,0586336	72,9	   0,0587358	72,6
     40,6408	   0,0588211	72,9	   0,0587643	72,8
     40,6437	    0,058808	73,2	    0,058894	72,7
     40,6466	   0,0589629	72,7	    0,058713	72,8
     40,6496	   0,0589627	73,1	   0,0588054	73,0
     40,6525	   0,0590783	72,9	   0,0590464	72,9
     40,6554	   0,0590458	72,8	   0,0592737	73,4
     40,6584	    0,059113	73,0	   0,0590513	73,0
     40,6613	   0,0593092	72,9	   0,0593226	72,9
     40,6642	   0,0592092	72,8	    0,059368	72,9
     40,6672	   0,0594931	73,1	   0,0595507	73,1
     40,6701	   0,0594101	72,8	   0,0596309	73,1
      40,673	   0,0595239	72,8	   0,0596594	73,3
      40,676	   0,0595928	73,3	   0,0597691	73,0
     40,6789	   0,0596589	73,1	   0,0598917	73,2
     40,6818	   0,0597746	72,9	   0,0598557	73,5
     40,6847	   0,0598593	73,6	   0,0599915	73,1
     40,6877	   0,0600294	73,0	   0,0600218	73,1
     40,6906	   0,0598294	73,1	   0,0601223	73,1
     40,6936	   0,0599842	73,1	   0,0602455	73,5
     40,6965	   0,0601055	73,4	   0,0600871	73,5
     40,6994	    0,060271	73,3	   0,0600985	73,7
     40,7023	   0,0603331	73,7	   0,0602296	73,5
     40,7053	   0,0604965	73,4	   0,0603296	73,0
     40,7082	    0,060312	73,3	    0,060471	73,0
     40,7111	   0,0605406	73,5	   0,0607287	73,3
     40,7141	   0,0606409	73,3	   0,0607095	73,5
      40,717	   0,0606747	73,4	   0,0609678	73,4
     40,7199	   0,0609734	73,6	   0,0607613	73,5
     40,7229	   0,0607898	73,4	   0,0606998	73,8
     40,7258	   0,0609796	73,3	   0,0610137	73,9
     40,7287	   0,0611461	73,6	   0,0609769	73,5
     40,7317	   0,0609595	73,6	   0,0610089	73,9
     40,7346	   0,0613924	73,5	   0,0611147	73,2
     40,7375	   0,0613152	73,5	   0,0610919	74,2
     40,7405	   0,0615082	73,3	   0,0613545	74,0
     40,7434	   0,0614641	73,2	   0,0615343	73,7
     40,7463	   0,0615091	73,5	   0,0614481	73,5
     40,7493	    0,061616	73,3	   0,0616895	74,1
     40,7522	   0,0616643	73,3	   0,0618579	73,8
     40,7551	   0,0617637	73,3	   0,0620423	73,5
     40,7581	   0,0618705	73,7	   0,0622018	73,6
      40,761	   0,0619548	73,5	   0,0620244	73,3
     40,7639	   0,0622296	73,6	   0,0622769	74,0
     40,7669	   0,0622442	73,5	   0,0621552	73,7
     40,7698	   0,0621363	73,4	   0,0622423	73,7
     40,7727	   0,0624444	73,4	   0,0624028	73,5
     40,7757	   0,0624107	73,5	   0,0624502	73,7
     40,7786	   0,0627121	73,4	    0,062481	74,4
     40,7815	   0,0626325	73,4	   0,0625261	74,5
     40,7845	   0,0627788	73,6	   0,0626675	73,9
     40,7874	    0,062815	73,4	   0,0630331	73,3
     40,7903	   0,0629712	73,3	   0,0631909	73,6
     40,7933	   0,0632574	73,6	   0,0631735	73,8
     40,7962	   0,0632482	73,4	   0,0632234	73,6
     40,7991	   0,0633392	73,3	   0,0631892	73,7
     40,8021	   0,0633533	73,4	   0,0634984	74,0
      40,805	   0,0635049	73,5	   0,0633891	73,6
     40,8079	   0,0636341	73,3	   0,0636303	74,0
     40,8109	   0,0636881	73,4	   0,0635988	73,9
     40,8138	    0,063722	73,5	   0,0637477	73,8
     40,8167	   0,0636784	73,7	   0,0638418	73,5
     40,8196	   0,0639599	73,7	   0,0637031	73,9
     40,8226	   0,0640782	73,7	   0,0637483	73,8
     40,8255	    0,064121	73,7	   0,0640295	73,6
     40,8284	   0,0643204	73,6	   0,0641107	73,8
     40,8314	   0,0643065	73,4	   0,0644622	74,0
     40,8343	   0,0644854	73,8	   0,0644539	73,8
     40,8372	   0,0645778	73,8	   0,0645592	74,3
     40,8402	   0,0647032	73,8	   0,0643822	74,6
     40,8431	    0,064711	73,9	   0,0645556	74,1
      40,846	   0,0645462	73,7	   0,0648841	74,0
      40,849	   0,0649928	73,7	   0,0649521	74,1
     40,8519	   0,0649333	73,7	   0,0649547	74,1
     40,8548	   0,0650918	74,0	   0,0650662	74,1
     40,8578	   0,0651176	73,8	   0,0650586	74,3
     40,8607	   0,0650635	73,7	    0,065362	74,3
     40,8636	   0,0652655	74,0	   0,0654108	74,3
     40,8666	   0,0655039	74,2	   0,0655601	74,5
     40,8695	   0,0656337	73,8	    0,065362	74,9
     40,8724	   0,0658682	74,0	   0,0656676	74,9
     40,8754	   0,0656424	74,0	   0,0655965	74,8
     40,8783	    0,065901	73,9	   0,0659512	74,1
     40,8812	   0,0658143	74,1	    0,066242	74,4
     40,8842	   0,0662101	74,0	   0,0659942	74,8
     40,8871	   0,0661037	73,9	   0,0663222	74,6
       40,89	   0,0660403	74,2	   0,0662829	74,3
      40,893	   0,0664388	74,3	   0,0666962	74,2
     40,8959	    0,066437	74,1	    0,066873	74,2
     40,8988	    0,066415	74,3	   0,0669397	74,0
     40,9018	   0,0668679	74,2	   0,0668717	74,3
     40,9047	    0,066734	74,6	   0,0669003	74,8
     40,9076	   0,0668363	74,9	    0,067121	74,3
     40,9106	   0,0668645	74,2	   0,0673348	74,4
     40,9135	   0,0669169	74,8	   0,0669596	74,5
     40,9164	   0,0671613	74,9	   0,0668383	75,0
     40,9194	   0,0672746	74,9	   0,0674127	74,6
     40,9223	   0,0673509	74,6	   0,0678962	74,3
     40,9252	   0,0676508	74,7	   0,0671947	74,9
     40,9282	   0,0678046	74,4	    0,067803	74,7
     40,9311	    0,067851	74,7	   0,0678378	74,6
      40,934	    0,067971	74,9	   0,0682571	74,8
      40,937	   0,0680251	74,9	   0,0679074	75,1
     40,9399	   0,0681309	74,8	   0,0679961	75,0
     40,9428	   0,0684259	74,5	   0,0685622	75,1
     40,9457	   0,0686114	74,2	   0,0684788	74,7
     40,9487	   0,0686743	74,3	    0,068344	75,0
     40,9516	   0,0686091	74,8	   0,0686578	75,0
     40,9545	    0,068608	74,7	   0,0688455	74,9
     40,9575	     0,06878	74,3	   0,0690692	74,7
     40,9604	   0,0690055	74,6	   0,0690019	74,6
     40,9633	   0,0691512	74,5	   0,0692467	74,8
     40,9663	   0,0691818	74,4	   0,0692935	75,4
     40,9692	   0,0693832	74,6	   0,0694909	74,5
     40,9721	    0,069529	74,7	   0,0699261	74,5
     40,9751	   0,0697718	74,7	   0,0699298	75,0
      40,978	   0,0696291	74,7	   0,0701403	75,1
     40,9809	   0,0698177	74,7	   0,0700764	74,8
     40,9839	     0,06995	75,1	   0,0705345	74,8
     40,9868	   0,0699061	75,2	   0,0704888	75,2
     40,9897	    0,070308	74,7	   0,0707121	74,9
     40,9927	   0,0702052	75,3	   0,0705035	75,1
     40,9956	   0,0701808	75,3	   0,0706531	75,0
     40,9985	   0,0705983	75,1	   0,0708651	75,1
     41,0015	   0,0705589	75,2	   0,0709347	75,3
     41,0044	   0,0709241	75,6	   0,0710323	75,1
     41,0073	   0,0709455	75,3	   0,0710546	75,5
     41,0103	   0,0708829	75,1	   0,0714372	75,3
     41,0132	   0,0709984	75,0	   0,0714026	75,4
     41,0161	   0,0714079	75,3	   0,0714198	74,7
     41,0191	   0,0715805	75,1	   0,0719482	75,1
      41,022	   0,0715833	74,6	   0,0715602	75,6
     41,0249	   0,0717222	74,8	   0,0720399	75,4
     41,0279	   0,0720614	74,9	   0,0723911	75,4
     41,0308	   0,0719711	74,8	   0,0722976	75,3
     41,0337	   0,0724277	74,8	    0,072517	75,6
     41,0367	   0,0724177	75,2	   0,0728965	75,6
     41,0396	   0,0723629	75,6	   0,0727574	75,7
     41,0425	   0,0724591	75,3	    0,072785	75,6
     41,0455	   0,0727252	75,2	   0,0729792	76,1
     41,0484	   0,0726818	75,7	   0,0730829	75,7
     41,0513	   0,0726861	75,6	    0,073133	75,5
     41,0543	   0,0734172	75,5	   0,0733846	75,4
     41,0572	   0,0731026	75,5	     0,07363	75,4
     41,0601	   0,0734997	75,4	   0,0736431	75,5
      41,063	   0,0734836	75,6	   0,0738605	75,5
      41,066	   0,0736454	75,6	    0,074091	75,6
     41,0689	   0,0736571	75,4	   0,0741697	75,7
     41,0718	   0,0741881	75,4	   0,0738713	76,3
     41,0748	   0,0742356	75,4	   0,0743081	76,2
     41,0777	   0,0741975	75,5	   0,0745635	76,0
     41,0806	   0,0744133	76,0	   0,0746616	75,9
     41,0836	   0,0744093	75,9	   0,0748205	76,3
     41,0865	   0,0747847	75,9	    0,074926	76,1
     41,0894	   0,0751275	75,9	   0,0752023	75,8
     41,0924	   0,0750139	75,9	   0,0753635	75,7
     41,0953	   0,0753268	75,8	   0,0755321	75,8
     41,0982	   0,0753039	75,9	   0,0758189	76,0
     41,1012	   0,0755934	75,8	   0,0757087	75,8
     41,1041	   0,0756671	75,9	   0,0760045	75,8
      41,107	   0,0758425	75,7	   0,0762363	76,3
       41,11	   0,0759952	75,6	   0,0764566	76,1
     41,1129	   0,0757854	76,0	   0,0764344	76,4
     41,1158	   0,0761931	76,0	   0,0769094	75,9
     41,1188	   0,0766069	76,1	   0,0770814	75,8
     41,1217	   0,0765917	76,1	   0,0769274	76,1
     41,1246	   0,0767767	76,2	    0,077398	76,1
     41,1276	   0,0771182	76,2	   0,0772017	76,1
     41,1305	   0,0771021	76,3	   0,0778921	76,2
     41,1334	   0,0771086	76,4	   0,0779395	76,3
     41,1364	   0,0770017	76,3	   0,0779071	76,3
     41,1393	   0,0770329	76,3	   0,0784081	76,3
     41,1422	   0,0776541	76,3	   0,0784017	76,2
     41,1452	   0,0779113	76,0	   0,0786659	76,2
     41,1481	   0,0776076	76,3	   0,0789421	76,5
      41,151	   0,0780479	76,4	   0,0790811	76,8
      41,154	   0,0783815	76,6	   0,0792003	76,3
     41,1569	   0,0786057	76,6	   0,0794103	76,4
     41,1598	    0,078846	76,5	   0,0796023	76,6
     41,1628	   0,0791243	76,5	   0,0798438	76,7
     41,1657	   0,0790888	76,3	   0,0798793	76,8
     41,1686	   0,0792612	76,4	   0,0800781	76,5
     41,1716	   0,0797284	76,7	   0,0799792	76,7
     41,1745	   0,0797213	76,3	   0,0805072	76,6
     41,1774	   0,0799903	76,5	   0,0806841	76,8
     41,1804	   0,0802133	76,5	   0,0804507	77,0
     41,1833	     0,08021	76,9	   0,0808878	76,7
     41,1862	   0,0802107	76,6	   0,0810797	76,9
     41,1891	   0,0806294	76,7	   0,0814989	77,0
     41,1921	   0,0811088	76,8	   0,0812238	77,4
      41,195	   0,0811413	76,9	   0,0818882	76,9
     41,1979	    0,081375	77,1	   0,0820909	76,9
     41,2009	   0,0815971	76,9	   0,0822814	77,0
     41,2038	   0,0814574	76,7	    0,082014	77,1
     41,2067	   0,0819388	76,7	   0,0826498	77,3
     41,2097	   0,0820874	76,9	   0,0827414	77,2
     41,2126	   0,0822795	77,1	   0,0831984	77,3
     41,2155	   0,0822758	77,1	   0,0828242	77,5
     41,2185	   0,0825024	77,1	   0,0836014	77,5
     41,2214	   0,0828435	77,1	   0,0835824	77,7
     41,2243	   0,0831158	77,5	   0,0838235	77,3
     41,2273	   0,0833262	77,5	   0,0841869	77,2
     41,2302	   0,0836097	77,3	   0,0845267	77,4
     41,2331	   0,0838067	77,1	   0,0847281	77,6
     41,2361	   0,0836492	77,4	   0,0847979	77,9
      41,239	    0,084183	77,3	   0,0850064	77,6
     41,2419	   0,0844228	77,5	   0,0852304	77,4
     41,2449	   0,0846333	77,6	   0,0854958	77,4
     41,2478	   0,0847472	77,1	    0,085652	77,9
     41,2507	   0,0851896	77,5	   0,0859611	77,8
     41,2537	    0,085328	77,5	    0,086208	77,9
     41,2566	   0,0854462	77,6	   0,0864133	78,0
     41,2595	   0,0856126	77,7	    0,086799	78,1
     41,2625	    0,085926	77,6	   0,0868941	78,1
     41,2654	   0,0861693	77,5	   0,0871679	78,1
     41,2683	   0,0862684	77,6	   0,0873709	78,1
     41,2713	   0,0866207	77,9	   0,0876889	78,1
     41,2742	   0,0868192	78,0	   0,0878434	78,1
     41,2771	   0,0870511	78,0	   0,0881089	78,3
     41,2801	    0,087342	77,8	   0,0884465	78,5
      41,283	   0,0875869	77,6	   0,0886685	78,6
     41,2859	   0,0879122	78,2	   0,0888308	78,3
     41,2889	    0,087941	78,1	   0,0890992	78,3
     41,2918	   0,0880927	77,8	   0,0894937	78,3
     41,2947	   0,0883868	78,1	   0,0896847	78,4
     41,2977	   0,0887837	78,1	    0,089998	78,4
     41,3006	   0,0891042	78,1	   0,0902138	78,5
     41,3035	   0,0891757	78,6	   0,0904664	78,6
     41,3064	   0,0895148	78,5	   0,0907989	78,6
     41,3094	   0,0898161	78,2	   0,0910215	78,5
     41,3123	   0,0899881	78,1	    0,091426	78,8
     41,3153	   0,0902859	78,4	   0,0915331	78,7
     41,3182	   0,0904758	78,5	   0,0917995	78,8
     41,3211	    0,090791	78,8	   0,0920131	79,0
      41,324	    0,091166	78,8	   0,0924155	79,2
      41,327	   0,0913498	78,6	   0,0928279	79,3
     41,3299	   0,0915869	78,8	   0,0930579	79,4
     41,3328	   0,0918593	78,6	    0,093274	79,1
     41,3358	   0,0918818	78,7	   0,0935857	79,3
     41,3387	   0,0923163	78,8	   0,0938976	79,4
     41,3416	   0,0927105	78,7	    0,094238	79,6
     41,3446	   0,0925896	78,6	   0,0945091	79,7
     41,3475	   0,0932585	79,0	   0,0948042	79,7
     41,3504	    0,093543	78,8	   0,0950908	79,5
     41,3534	   0,0937896	78,9	    0,095504	79,7
     41,3563	   0,0940957	79,1	   0,0958003	79,8
     41,3592	   0,0943313	79,1	   0,0961826	80,1
     41,3622	   0,0947189	79,5	   0,0965164	80,2
     41,3651	    0,095158	79,2	    0,096787	80,2
      41,368	   0,0954519	79,5	   0,0970906	80,1
      41,371	   0,0957121	79,7	   0,0975607	79,9
     41,3739	   0,0958816	79,5	   0,0980096	80,0
     41,3768	   0,0962215	79,5	   0,0982826	80,3
     41,3798	   0,0966451	79,3	   0,0985132	80,7
     41,3827	    0,096924	79,3	    0,098799	80,5
     41,3856	   0,0971264	80,1	   0,0994424	80,5
     41,3886	   0,0972134	80,2	   0,0997046	80,3
     41,3915	   0,0973828	80,2	    0,100064	80,4
     41,3944	   0,0976207	80,2	    0,100479	80,7
     41,3974	   0,0985395	79,8	    0,100898	81,1
     41,4003	   0,0988254	80,0	    0,101341	81,2
     41,4032	   0,0992324	80,2	     0,10175	81,2
     41,4062	   0,0996344	80,3	    0,102102	81,1
     41,4091	   0,0999867	80,7	    0,102314	81,1
      41,412	    0,100307	80,6	    0,103082	81,3
      41,415	    0,100602	80,6	    0,103835	81,7
     41,4179	    0,100633	80,3	    0,104506	81,9
     41,4208	    0,101216	80,3	     0,10474	81,9
     41,4238	    0,101783	80,8	    0,104289	82,1
     41,4267	    0,102191	80,9	    0,104963	80,8
     41,4296	    0,102686	81,1	    0,110524	79,7
     41,4326	    0,103016	81,0	    0,124734	79,2
     41,4355	    0,103371	80,9	    0,142889	81,9
     41,4384	    0,103795	81,0	    0,166999	88,1
     41,4413	    0,104237	81,1	    0,184274	94,4
     41,4443	    0,104615	81,3	    0,197618	100,2
     41,4472	    0,105032	81,6	    0,209023	106,2
     41,4501	    0,105317	81,6	    0,219521	111,6
     41,4531	    0,106015	81,5	    0,225672	116,2
      41,456	     0,10638	81,7	    0,231185	119,2
     41,4589	    0,106256	81,6	    0,234356	121,8
     41,4619	    0,107284	81,9	    0,238675	124,7
     41,4648	    0,107567	81,9	    0,241492	127,4
     41,4677	    0,107685	82,2	    0,243526	129,4
     41,4707	    0,108164	81,9	    0,244144	130,9
     41,4736	    0,108979	82,5	    0,246656	132,2
     41,4765	    0,109587	82,2	    0,248613	134,1
     41,4795	     0,10999	82,5	    0,249148	135,6
     41,4824	    0,110166	82,9	    0,249112	136,6
     41,4853	    0,110905	82,8	    0,249398	137,7
     41,4883	     0,11134	82,6	     0,25121	138,4
     41,4912	    0,111754	82,8	    0,252071	139,7
     41,4941	    0,111984	83,4	     0,25258	140,7
     41,4971	    0,112673	82,8	    0,252587	141,6
        41,5	    0,113544	83,4	    0,251875	142,4
     41,5029	    0,113932	83,5	    0,251772	143,2
     41,5059	    0,114093	83,5	     0,25352	143,8
     41,5088	    0,115126	83,7	     0,25392	144,5
     41,5117	    0,115015	84,4	    0,253064	145,0
     41,5147	     0,11633	84,3	    0,252532	145,7
     41,5176	    0,117186	84,4	    0,252567	146,8
     41,5205	     0,11762	84,5	    0,253297	147,2
     41,5235	    0,118301	84,2	    0,254074	147,8
     41,5264	    0,118949	84,5	    0,253478	148,2
     41,5293	    0,119918	84,8	    0,253049	148,9
     41,5323	    0,120622	84,8	    0,252173	149,1
     41,5352	    0,121283	84,8	    0,253063	149,9
     41,5381	    0,121802	85,3	    0,254143	150,1
     41,5411	    0,122615	85,8	    0,254197	151,0
      41,544	    0,123555	86,0	    0,253507	151,4
     41,5469	     0,12426	86,1	    0,253785	151,8
     41,5499	    0,125166	86,1	    0,252751	152,2
     41,5528	    0,125616	86,2	    0,252504	152,9
     41,5557	     0,12646	86,3	    0,252235	152,8
     41,5587	    0,127674	86,8	    0,252022	153,3
     41,5616	    0,128665	87,2	    0,253613	153,6
     41,5645	    0,129576	87,7	    0,251223	153,8
     41,5674	    0,130245	87,7	     0,25114	154,4
     41,5704	    0,131294	87,9	    0,252091	155,2
     41,5733	     0,13274	88,0	    0,251844	155,6
     41,5762	    0,133826	88,3	    0,251555	155,9
     41,5792	    0,134898	88,5	    0,250798	156,1
     41,5821	    0,135765	88,8	    0,250293	156,3
      41,585	    0,137016	89,3	    0,251379	157,0
      41,588	    0,138485	90,0	    0,251686	156,9
     41,5909	     0,14017	90,6	    0,250042	157,2
     41,5938	    0,141485	90,7	    0,250533	157,9
     41,5968	    0,142702	91,1	     0,25078	158,8
     41,5997	    0,144263	91,4	    0,249897	159,0
     41,6026	    0,146138	92,1	    0,250492	159,2
     41,6056	    0,148085	92,7	    0,249892	159,4
     41,6085	    0,149728	92,9	    0,248493	159,5
     41,6114	    0,151562	93,6	    0,250692	160,3
     41,6144	    0,153604	94,4	     0,25068	159,9
     41,6173	    0,156102	95,4	    0,248783	159,9
     41,6202	    0,158751	96,2	    0,249356	161,1
     41,6232	    0,161868	97,4	    0,249091	161,3
     41,6261	    0,163944	98,5	    0,249675	161,4
      41,629	    0,166564	99,1	    0,248355	161,3
      41,632	    0,170383	101,3	    0,248822	162,2
     41,6349	    0,174744	102,9	    0,248975	162,6
     41,6378	    0,178706	104,7	    0,249015	162,8
     41,6408	     0,18486	106,6	    0,247649	162,3
     41,6437	    0,190569	109,1	     0,24583	162,8
     41,6466	    0,195917	112,3	    0,245478	162,9
     41,6496	    0,204703	117,2	    0,246732	163,8
     41,6525	    0,212791	122,4	    0,245848	163,5
     41,6554	    0,219168	127,9	    0,245258	163,8
     41,6584	    0,229682	135,1	    0,246251	164,5
     41,6613	     0,23681	142,6	    0,246311	165,1
     41,6642	    0,240729	149,9	    0,245892	165,1
     41,6672	    0,247446	156,3	    0,245239	165,1
     41,6701	    0,249011	161,6	    0,245373	165,7
      41,673	     0,24852	165,5	    0,243577	165,5
      41,676	    0,247545	167,5	    0,245737	166,2
     41,6789	    0,244881	167,7	    0,245747	166,0
     41,6818	    0,245419	167,9	    0,244307	166,1
     41,6847	    0,244502	168,3	    0,244748	166,9
     41,6877	    0,243678	168,4	    0,244317	167,1
     41,6906	    0,242201	168,0	    0,244206	167,2
     41,6936	     0,24368	168,0	    0,241128	167,0
     41,6965	    0,244349	168,7	    0,242756	167,8
     41,6994	    0,243491	168,9	    0,243701	168,1
     41,7023	     0,24082	168,8	    0,243623	168,4
     41,7053	     0,24225	169,1	    0,242549	168,4
     41,7082	    0,242525	169,1	    0,241617	168,9
     41,7111	    0,239652	169,8	    0,242859	169,4
     41,7141	    0,242036	169,9	    0,242716	169,2
      41,717	    0,238956	169,8	    0,240966	168,9
     41,7199	    0,240708	170,0	    0,241452	169,5
     41,7229	    0,239776	170,9	    0,241836	170,0
     41,7258	    0,241671	171,0	    0,239363	169,5
     41,7287	    0,241358	171,2	    0,240015	169,8
     41,7317	    0,240026	171,2	    0,240797	170,2
     41,7346	    0,236933	172,0	    0,239896	170,7
     41,7375	    0,239989	171,8	    0,239395	171,2
     41,7405	    0,237472	172,0	    0,238603	171,0
     41,7434	    0,237806	171,8	    0,238207	171,6
     41,7463	    0,238893	172,1	    0,239239	172,1
     41,7493	    0,237399	172,7	     0,23745	171,6
     41,7522	    0,237688	172,5	    0,237262	171,6
     41,7551	    0,238052	172,8	    0,237229	172,3
     41,7581	    0,237307	172,9	    0,237953	172,5
      41,761	    0,237079	173,5	    0,237609	172,5
     41,7639	    0,236283	173,4	    0,237173	172,6
     41,7669	     0,23637	173,5	    0,237146	173,1
     41,7698	    0,236475	174,0	    0,236483	173,1
     41,7727	    0,236282	174,4	    0,236372	172,9
     41,7757	    0,234123	174,4	    0,235953	173,3
     41,7786	    0,234685	174,3	     0,23369	173,8
     41,7815	    0,235238	175,1	    0,235542	174,0
     41,7845	    0,234338	175,1	    0,235319	174,5
     41,7874	    0,233708	175,3	    0,234666	174,3
     41,7903	    0,233707	175,2	    0,234379	174,9
     41,7933	    0,233709	175,6	     0,23424	175,0
     41,7962	    0,233738	176,1	    0,233692	175,0
     41,7991	    0,232401	176,0	    0,233628	175,0
     41,8021	    0,232623	175,8	     0,23336	175,5
      41,805	    0,232416	176,1	    0,232973	175,6
     41,8079	    0,231861	176,5	    0,232779	175,8
     41,8109	    0,231895	176,5	    0,232293	175,7
     41,8138	    0,230864	177,0	    0,231773	176,0
     41,8167	    0,231162	177,2	     0,23078	176,1
     41,8196	    0,230833	177,5	    0,231398	176,4
     41,8226	    0,230319	177,1	    0,231126	176,7
     41,8255	    0,229684	177,6	    0,230861	176,8
     41,8284	    0,229677	177,8	    0,230326	176,7
     41,8314	    0,229186	178,2	    0,229852	176,9
     41,8343	    0,228675	178,3	    0,229812	177,4
     41,8372	    0,228465	178,2	    0,229478	177,7
     41,8402	     0,22838	178,7	    0,228499	177,5
     41,8431	    0,227325	179,0	     0,22886	177,8
      41,846	    0,227538	178,9	    0,228483	178,1
      41,849	    0,227369	178,7	    0,228246	178,0
     41,8519	    0,227127	179,2	    0,227762	178,3
     41,8548	     0,22623	179,4	    0,227342	178,8
     41,8578	    0,226157	179,6	    0,227163	179,0
     41,8607	    0,225688	179,3	    0,226833	179,0
     41,8636	    0,225721	180,0	    0,226529	179,3
     41,8666	    0,224475	180,1	    0,226206	179,6
     41,8695	    0,223717	179,8	    0,225773	179,3
     41,8724	    0,223645	180,1	    0,225391	179,5
     41,8754	    0,224481	180,6	    0,225152	179,9
     41,8783	    0,224041	180,5	    0,224908	180,0
     41,8812	     0,22354	180,8	     0,22443	180,1
     41,8842	    0,223323	180,9	    0,224047	179,9
     41,8871	    0,222655	181,3	    0,223803	180,4
       41,89	    0,222604	181,2	    0,223517	180,4
      41,893	    0,222331	181,5	    0,223172	180,6
     41,8959	    0,221724	181,7	    0,222759	181,2
     41,8988	    0,221424	182,0	    0,222446	181,1
     41,9018	    0,220801	181,8	    0,222129	180,9
     41,9047	    0,220876	182,3	    0,221853	181,3
     41,9076	     0,21964	182,5	    0,221428	181,5
     41,9106	     0,22015	182,3	    0,220936	181,6
     41,9135	    0,219315	182,6	    0,220717	181,7
     41,9164	    0,219381	183,3	    0,220486	182,0
     41,9194	    0,218241	182,9	    0,220141	182,1
     41,9223	    0,218442	182,9	    0,219866	182,3
     41,9252	    0,217541	183,4	    0,218433	182,4
     41,9282	    0,217852	183,9	    0,218911	182,5
     41,9311	    0,217706	183,6	    0,218559	182,5
      41,934	     0,21739	183,9	    0,218363	183,0
      41,937	    0,217008	184,1	    0,218083	183,6
     41,9399	    0,215426	184,1	    0,217776	183,2
     41,9428	    0,215558	184,2	    0,217328	183,3
     41,9457	     0,21568	184,2	     0,21699	183,6
     41,9487	    0,214431	184,7	     0,21673	183,4
     41,9516	    0,214677	184,6	    0,216311	183,8
     41,9545	    0,214945	185,3	    0,216125	184,3
     41,9575	    0,214455	185,0	    0,215627	184,3
     41,9604	    0,214136	185,2	    0,215381	184,2
     41,9633	    0,213824	185,0	     0,21495	184,8
     41,9663	    0,213399	185,8	    0,214567	184,9
     41,9692	    0,212982	185,5	    0,214174	184,9
     41,9721	    0,212559	185,6	    0,214008	185,1
     41,9751	    0,212377	185,9	    0,213608	185,1
      41,978	    0,211337	186,2	    0,213112	185,6
     41,9809	    0,211666	186,2	    0,212757	185,6
     41,9839	    0,211221	186,0	     0,21262	185,8
     41,9868	    0,210961	186,4	    0,212405	185,5
     41,9897	    0,210332	186,6	    0,211892	186,2
     41,9927	    0,209981	186,6	    0,211654	186,3
     41,9956	    0,209832	187,3	     0,21132	186,1
     41,9985	    0,209318	187,2	     0,21091	186,4
     42,0015	    0,208865	186,7	    0,210466	186,9
     42,0044	    0,208753	187,2	    0,210158	186,9
     42,0073	     0,20827	187,5	    0,209921	186,8
     42,0103	    0,208092	187,4	    0,209519	187,1
     42,0132	    0,207498	187,6	    0,209127	187,4
     42,0161	    0,207361	188,0	    0,208846	187,5
     42,0191	    0,206816	188,0	    0,208448	187,8
      42,022	    0,206641	188,2	    0,208085	187,5
     42,0249	    0,206337	188,3	    0,207747	187,5
     42,0279	    0,205926	188,2	    0,207426	188,1
     42,0308	    0,205562	188,4	    0,207101	188,2
     42,0337	    0,205248	188,9	    0,206813	187,9
     42,0367	    0,204843	188,9	     0,20637	188,4
     42,0396	    0,204493	188,8	    0,205978	188,6
     42,0425	    0,204117	189,0	    0,205678	188,3
     42,0455	    0,203731	189,3	    0,205368	188,7
     42,0484	    0,203328	189,2	    0,204909	189,1
     42,0513	    0,203141	189,7	    0,204573	189,0
     42,0543	    0,202736	189,7	    0,204226	189,2
     42,0572	    0,202411	189,5	    0,203956	189,1
     42,0601	    0,202004	190,2	    0,203614	189,0
      42,063	    0,201576	190,3	    0,203266	189,5
      42,066	    0,201267	190,3	    0,202832	189,8
     42,0689	    0,200886	190,1	    0,202565	189,6
     42,0718	    0,200601	190,9	    0,202191	189,7
     42,0748	    0,200206	190,7	    0,201884	189,9
     42,0777	     0,19988	190,9	    0,201444	190,1
     42,0806	    0,199517	191,1	    0,200915	190,4
     42,0836	    0,199064	191,1	    0,200829	190,3
     42,0865	    0,198863	191,1	    0,200502	190,5
     42,0894	    0,198401	191,7	    0,200123	190,6
     42,0924	    0,197976	191,5	    0,199709	190,9
     42,0953	    0,197629	191,4	    0,199398	190,7
     42,0982	    0,197368	192,0	    0,199105	191,0
     42,1012	    0,197062	191,8	    0,198699	191,1
     42,1041	    0,196701	191,9	    0,198302	191,2
      42,107	    0,196269	192,1	    0,197903	191,5
       42,11	    0,195932	192,5	    0,197578	191,6
     42,1129	    0,195558	192,3	    0,197296	191,8
     42,1158	     0,19523	192,7	     0,19694	191,9
     42,1188	      0,1948	192,7	    0,196607	192,2
     42,1217	     0,19445	192,6	    0,196309	192,3
     42,1246	    0,194106	192,8	    0,195869	192,6
     42,1276	    0,193766	193,0	    0,195541	192,4
     42,1305	    0,193486	192,9	    0,195277	192,7
     42,1334	    0,193036	193,3	    0,194939	192,9
     42,1364	    0,192754	193,0	      0,1946	192,7
     42,1393	     0,19239	193,1	    0,194105	192,8
     42,1422	    0,191827	193,7	    0,193685	193,4
     42,1452	    0,191557	193,4	    0,193522	193,1
     42,1481	     0,19124	193,8	    0,193137	193,5
      42,151	    0,190849	194,0	    0,192746	193,7
      42,154	    0,190433	193,7	      0,1923	193,4
     42,1569	    0,190254	194,0	    0,191955	193,9
     42,1598	    0,189792	194,4	    0,191649	193,7
     42,1628	    0,189494	194,5	    0,191317	193,7
     42,1657	    0,189147	194,4	    0,190876	194,2
     42,1686	    0,188704	194,9	    0,190611	194,2
     42,1716	    0,188291	194,8	    0,190253	194,2
     42,1745	    0,188015	195,2	    0,189644	194,5
     42,1774	    0,187598	195,2	    0,189168	194,6
     42,1804	    0,187347	195,1	    0,189119	194,5
     42,1833	    0,186965	195,5	    0,188783	194,9
     42,1862	    0,186647	195,2	    0,188538	194,7
     42,1891	    0,186075	195,4	    0,188216	195,3
     42,1921	    0,185839	195,6	    0,187748	195,2
      42,195	     0,18525	195,8	     0,18745	195,1
     42,1979	    0,185258	195,8	    0,187158	195,7
     42,2009	    0,184807	196,0	    0,186827	195,5
     42,2038	     0,18446	195,8	    0,186324	195,8
     42,2067	    0,184107	196,0	    0,185913	196,0
     42,2097	    0,183801	196,3	    0,185718	196,0
     42,2126	    0,183408	196,1	    0,185397	196,2
     42,2155	    0,183028	196,4	    0,184966	196,1
     42,2185	    0,182726	196,6	    0,184606	196,3
     42,2214	    0,182244	196,5	    0,184145	196,5
     42,2243	    0,181822	196,9	    0,183885	196,3
     42,2273	    0,181685	196,9	     0,18363	196,5
     42,2302	    0,181323	197,0	    0,183217	196,8
     42,2331	    0,180927	197,4	    0,182907	196,6
     42,2361	    0,180649	197,4	    0,182388	196,8
      42,239	    0,180207	197,9	    0,182264	197,0
     42,2419	    0,179703	198,0	     0,18187	197,2
     42,2449	    0,179522	197,9	    0,181539	197,2
     42,2478	    0,178998	197,9	    0,181155	197,5
     42,2507	    0,178702	197,9	    0,180873	197,5
     42,2537	    0,178377	197,9	      0,1802	197,9
     42,2566	    0,178139	198,1	    0,179995	197,8
     42,2595	    0,177825	197,9	    0,179671	198,1
     42,2625	    0,177286	198,1	    0,179394	198,2
     42,2654	    0,176832	198,4	    0,179093	198,1
     42,2683	    0,176713	198,5	     0,17868	198,5
     42,2713	    0,176252	199,1	     0,17837	198,3
     42,2742	    0,175855	199,0	    0,177989	198,6
     42,2771	    0,175639	198,8	    0,177697	198,5
     42,2801	     0,17497	199,4	    0,177372	198,6
      42,283	    0,174754	199,2	    0,176983	198,8
     42,2859	     0,17424	199,4	    0,176615	198,7
     42,2889	    0,174158	199,7	    0,176316	198,9
     42,2918	    0,173802	199,6	    0,175969	199,3
     42,2947	    0,173381	199,7	    0,175674	199,3
     42,2977	     0,17316	199,7	    0,175132	199,4
     42,3006	    0,172776	199,7	    0,174777	199,6
     42,3035	    0,172391	-160,0	    0,174432	199,7
     42,3064	    0,171918	-160,2	    0,174212	-160,0
     42,3094	    0,171518	-160,1	    0,173968	-160,3
     42,3123	    0,171355	-159,6	    0,173571	-159,9
     42,3153	    0,171151	-159,7	    0,173166	-160,3
     42,3182	    0,170594	-159,6	    0,172769	-160,1
     42,3211	    0,170277	-159,2	    0,172376	-159,7
      42,324	    0,169918	-159,3	    0,172102	-160,1
      42,327	    0,169621	-159,0	    0,171499	-159,3
     42,3299	    0,169197	-159,0	     0,17146	-159,5
     42,3328	    0,169016	-158,8	    0,171139	-159,1
     42,3358	    0,168297	-158,9	    0,170757	-159,1
     42,3387	    0,167949	-159,0	    0,170432	-158,9
     42,3416	    0,167842	-158,7	    0,170023	-158,7
     42,3446	    0,167344	-158,9	    0,169765	-159,0
     42,3475	    0,165752	-158,8	     0,16926	-158,8
     42,3504	    0,166811	-158,2	     0,16873	-158,3
     42,3534	    0,166378	-158,6	    0,168649	-158,8
     42,3563	    0,165982	-158,0	    0,168328	-158,3
     42,3592	     0,16573	-157,9	    0,168028	-158,4
     42,3622	    0,165256	-158,0	    0,167533	-158,4
     42,3651	    0,164895	-158,0	    0,166975	-157,9
      42,368	    0,164568	-157,8	    0,166955	-157,9
      42,371	     0,16418	-157,6	    0,166357	-157,7
     42,3739	    0,164098	-157,8	    0,166353	-158,2
     42,3768	    0,163269	-157,6	    0,165914	-157,6
     42,3798	    0,163096	-157,5	    0,165441	-157,4
     42,3827	     0,16306	-157,1	    0,164764	-157,8
     42,3856	    0,162215	-157,1	    0,164885	-157,3
     42,3886	    0,162161	-157,1	    0,164613	-157,5
     42,3915	    0,161632	-156,8	    0,164092	-157,1
     42,3944	    0,161355	-156,8	     0,16392	-156,9
     42,3974	    0,161074	-156,9	    0,163508	-156,6
     42,4003	    0,160619	-156,6	    0,162971	-156,4
     42,4032	    0,160259	-156,7	     0,16291	-156,7
     42,4062	    0,159848	-156,4	    0,162516	-156,4
     42,4091	    0,159305	-156,4	    0,162201	-156,6
      42,412	     0,15957	-156,6	    0,161666	-156,4
      42,415	    0,159031	-156,0	    0,161369	-156,3
     42,4179	    0,158922	-156,1	    0,161091	-156,5
     42,4208	    0,158585	-156,1	    0,160803	-156,0
     42,4238	    0,158003	-155,6	    0,160469	-156,0
     42,4267	    0,157955	-155,8	    0,160192	-155,5
     42,4296	    0,157441	-155,5	    0,159546	-155,6
     42,4326	    0,157283	-155,9	    0,159544	-155,7
     42,4355	    0,156801	-155,5	    0,159026	-155,4
     42,4384	    0,156559	-155,5	     0,15871	-155,7
     42,4413	    0,156265	-155,4	    0,158357	-155,4
     42,4443	    0,155261	-155,0	    0,158001	-155,5
     42,4472	    0,155565	-155,0	    0,157729	-155,3
     42,4501	    0,155031	-154,8	    0,157411	-155,2
     42,4531	     0,15491	-154,7	    0,156976	-154,8
      42,456	    0,154209	-154,6	    0,156755	-154,8
     42,4589	    0,153983	-154,7	    0,156375	-154,8
     42,4619	    0,153721	-154,6	    0,155786	-154,3
     42,4648	     0,15354	-154,4	    0,155722	-154,9
     42,4677	    0,153223	-154,6	    0,155334	-154,5
     42,4707	    0,152866	-154,0	    0,155087	-154,5
     42,4736	    0,152728	-154,1	    0,154425	-154,0
     42,4765	    0,151772	-153,9	    0,154316	-154,1
     42,4795	    0,151343	-153,4	    0,154042	-154,2
     42,4824	    0,151507	-153,9	    0,153761	-153,8
     42,4853	    0,150914	-153,7	    0,153378	-154,1
     42,4883	    0,150801	-153,8	    0,152683	-153,7
     42,4912	    0,150361	-153,2	    0,152509	-153,7
     42,4941	    0,149982	-153,5	    0,152045	-153,9
     42,4971	    0,149636	-153,2	    0,151898	-153,7
        42,5	    0,149239	-153,0	    0,151427	-153,1
     42,5029	    0,149309	-153,0	    0,150978	-153,2
     42,5059	    0,148842	-153,0	    0,151071	-153,1
     42,5088	      0,1486	-153,2	    0,150511	-152,8
     42,5117	    0,147945	-152,8	    0,150309	-153,5
     42,5147	    0,147971	-152,9	    0,149849	-152,8
     42,5176	    0,147322	-152,3	    0,149531	-153,1
     42,5205	    0,147388	-152,5	    0,149068	-152,7
     42,5235	    0,146986	-152,3	     0,14889	-152,7
     42,5264	     0,14653	-152,2	    0,148331	-152,5
     42,5293	    0,146419	-152,4	    0,148052	-151,9
     42,5323	    0,145684	-152,1	    0,148028	-152,3
     42,5352	    0,145704	-152,2	    0,147246	-152,2
     42,5381	     0,14531	-151,9	    0,147493	-152,6
     42,5411	    0,144924	-151,9	    0,146764	-151,9
      42,544	    0,144089	-151,5	    0,146563	-152,1
     42,5469	    0,143854	-151,5	    0,146204	-151,8
     42,5499	    0,143622	-151,6	    0,146189	-151,6
     42,5528	    0,143482	-151,9	    0,145611	-151,8
     42,5557	    0,143051	-151,5	    0,145478	-151,8
     42,5587	    0,142445	-151,3	    0,145143	-151,6
     42,5616	     0,14252	-151,4	    0,144226	-151,3
     42,5645	    0,141691	-150,8	    0,144479	-151,5
     42,5674	    0,142149	-151,4	    0,143819	-151,0
     42,5704	    0,141638	-151,0	    0,143871	-151,1
     42,5733	    0,141163	-151,0	    0,143268	-150,8
     42,5762	    0,140856	-150,9	    0,143229	-150,9
     42,5792	    0,140784	-150,9	    0,142542	-151,0
     42,5821	    0,140098	-150,2	    0,142152	-150,8
      42,585	    0,139533	-150,3	    0,141906	-151,0
      42,588	    0,139771	-150,6	     0,14157	-150,4
     42,5909	    0,139307	-150,3	    0,141261	-150,4
     42,5938	    0,139263	-150,4	    0,140948	-150,4
     42,5968	    0,138382	-150,1	    0,140853	-150,2
     42,5997	    0,138306	-150,3	    0,140426	-150,1
     42,6026	    0,137929	-149,9	    0,139957	-150,4
     42,6056	    0,137627	-150,0	    0,139691	-149,9
     42,6085	    0,137307	-149,6	    0,139678	-150,0
     42,6114	    0,137386	-149,9	    0,138492	-149,5
     42,6144	    0,136936	-149,9	    0,139052	-149,6
     42,6173	    0,136127	-150,0	    0,138352	-149,6
     42,6202	    0,136147	-149,4	    0,138392	-149,9
     42,6232	    0,135743	-149,5	    0,137967	-149,7
     42,6261	    0,135372	-149,6	    0,137692	-149,5
      42,629	    0,134768	-149,1	    0,137355	-149,1
      42,632	    0,134906	-149,5	    0,136722	-149,2
     42,6349	    0,134118	-149,2	    0,136061	-149,2
     42,6378	    0,134286	-148,7	    0,136088	-149,2
     42,6408	    0,133368	-148,7	    0,135894	-149,3
     42,6437	    0,133599	-149,0	    0,135707	-148,7
     42,6466	    0,132813	-148,8	    0,134745	-149,1
     42,6496	    0,133107	-149,2	    0,134686	-148,4
     42,6525	    0,132458	-148,6	    0,134729	-148,8
     42,6554	    0,132448	-148,8	    0,134664	-148,5
     42,6584	    0,131586	-148,0	    0,133985	-148,8
     42,6613	    0,131479	-148,5	    0,133478	-148,4
     42,6642	    0,130966	-148,4	    0,133727	-148,5
     42,6672	     0,13096	-148,4	    0,132803	-147,9
     42,6701	    0,130519	-148,4	    0,132436	-148,3
      42,673	    0,130519	-148,1	     0,13202	-147,9
      42,676	    0,130186	-147,7	    0,132318	-148,3
     42,6789	    0,130007	-148,1	    0,131736	-147,6
     42,6818	    0,129551	-147,9	    0,131302	-147,8
     42,6847	    0,128977	-147,8	    0,131125	-147,3
     42,6877	    0,128926	-147,8	    0,131074	-147,9
     42,6906	     0,12866	-147,4	    0,130281	-147,6
     42,6936	    0,128215	-147,4	    0,130244	-147,6
     42,6965	    0,127932	-147,0	    0,129814	-147,7
     42,6994	    0,127754	-147,5	    0,129817	-147,3
     42,7023	    0,126984	-147,4	    0,128909	-146,9
     42,7053	    0,127047	-147,2	    0,128853	-146,9
     42,7082	    0,126744	-146,8	    0,128464	-147,1
     42,7111	    0,126382	-147,2	    0,128457	-147,2
     42,7141	     0,12622	-146,9	    0,128089	-146,6
      42,717	    0,125992	-147,2	    0,127724	-146,8
     42,7199	    0,125324	-146,8	    0,127701	-146,7
     42,7229	    0,125305	-146,7	    0,127135	-146,6
     42,7258	    0,124636	-146,5	    0,126887	-146,8
     42,7287	    0,124813	-146,6	    0,126393	-146,6
     42,7317	    0,124196	-146,5	     0,12651	-146,5
     42,7346	     0,12438	-146,5	    0,126099	-146,2
     42,7375	    0,123724	-146,1	    0,125939	-146,3
     42,7405	    0,123442	-146,4	    0,125241	-146,3
     42,7434	    0,123022	-146,1	     0,12537	-145,9
     42,7463	    0,123187	-146,2	    0,124749	-146,2
     42,7493	    0,122125	-146,0	      0,1246	-145,8
     42,7522	    0,122215	-146,2	    0,124225	-146,0
     42,7551	    0,121575	-145,7	    0,123756	-145,9
     42,7581	    0,121801	-146,1	    0,123445	-145,9
      42,761	     0,12147	-145,9	    0,123228	-145,7
     42,7639	    0,120871	-146,0	     0,12342	-145,5
     42,7669	    0,120444	-145,6	    0,122114	-145,5
     42,7698	    0,120737	-145,6	     0,12239	-145,5
     42,7727	    0,119874	-145,4	    0,122064	-145,5
     42,7757	    0,120241	-145,4	    0,122038	-145,6
     42,7786	    0,119606	-145,4	    0,121317	-145,4
     42,7815	    0,119271	-145,4	    0,121388	-145,2
     42,7845	    0,119165	-145,1	    0,120834	-145,1
     42,7874	    0,118832	-145,0	    0,120425	-145,3
     42,7903	    0,118253	-144,9	    0,120193	-144,9
     42,7933	    0,118331	-145,2	    0,120065	-145,1
     42,7962	    0,117651	-144,8	    0,119062	-144,8
     42,7991	     0,11738	-145,0	    0,119174	-145,0
     42,8021	    0,116979	-144,4	    0,119044	-144,9
      42,805	    0,117062	-144,7	    0,118639	-145,1
     42,8079	    0,116939	-144,6	    0,118322	-144,5
     42,8109	    0,116837	-144,5	    0,118153	-144,9
     42,8138	    0,115945	-144,3	    0,117831	-144,8
     42,8167	     0,11595	-144,2	     0,11765	-145,0
     42,8196	    0,115768	-144,2	    0,116846	-144,9
     42,8226	    0,115449	-144,2	    0,116834	-145,1
     42,8255	    0,114908	-144,2	    0,116267	-144,6
     42,8284	    0,114818	-144,0	    0,115993	-144,5
     42,8314	    0,114698	-144,0	    0,115446	-144,3
     42,8343	    0,114349	-143,9	    0,115699	-144,7
     42,8372	     0,11399	-144,0	    0,114991	-144,3
     42,8402	    0,113914	-143,9	    0,115142	-144,2
     42,8431	    0,113595	-143,8	    0,114601	-143,8
      42,846	    0,113244	-143,5	    0,114308	-144,2
      42,849	    0,112774	-143,9	    0,113953	-144,1
     42,8519	    0,113047	-143,2	    0,113764	-144,2
     42,8548	    0,112231	-143,6	    0,113316	-143,8
     42,8578	    0,112151	-143,1	    0,113052	-143,7
     42,8607	    0,111537	-143,4	    0,113114	-144,0
     42,8636	    0,111472	-143,3	    0,112405	-143,5
     42,8666	    0,111284	-143,5	    0,112562	-143,8
     42,8695	    0,111104	-142,9	    0,111858	-143,3
     42,8724	    0,110843	-143,0	    0,112103	-143,9
     42,8754	    0,110442	-142,9	    0,111508	-143,4
     42,8783	    0,110404	-142,9	    0,111661	-143,7
     42,8812	    0,109752	-142,9	    0,111037	-143,0
     42,8842	    0,109495	-142,6	    0,111213	-143,4
     42,8871	    0,109522	-142,8	    0,110253	-143,1
       42,89	    0,109473	-142,4	    0,110386	-143,3
      42,893	    0,108704	-142,7	    0,109857	-143,1
     42,8959	    0,108831	-142,3	    0,109946	-142,7
     42,8988	    0,108309	-142,5	     0,10978	-143,0
     42,9018	    0,108161	-142,4	    0,109112	-142,9
     42,9047	    0,107737	-142,5	    0,108839	-142,9
     42,9076	    0,107739	-142,1	    0,108903	-142,5
     42,9106	    0,107073	-142,2	    0,108618	-142,7
     42,9135	    0,107169	-142,1	    0,108331	-142,6
     42,9164	    0,106543	-142,0	    0,107679	-142,8
     42,9194	    0,106473	-141,8	    0,107731	-142,0
     42,9223	    0,106005	-141,8	    0,107141	-142,4
     42,9252	    0,105644	-141,9	    0,107063	-142,2
     42,9282	     0,10562	-141,7	     0,10668	-142,5
     42,9311	    0,105413	-141,9	    0,106333	-142,3
      42,934	    0,104721	-141,4	    0,106254	-142,2
      42,937	    0,104568	-141,6	    0,106204	-142,0
     42,9399	    0,105043	-141,7	    0,105525	-142,1
     42,9428	    0,104312	-141,4	    0,105303	-142,0
     42,9457	    0,103809	-141,3	    0,104794	-141,9
     42,9487	    0,103789	-141,4	    0,104963	-141,6
     42,9516	    0,103926	-141,2	      0,1043	-141,5
     42,9545	    0,103583	-141,2	    0,104529	-141,9
     42,9575	    0,102852	-141,0	    0,104129	-141,5
     42,9604	    0,102419	-141,2	    0,103916	-141,4
     42,9633	    0,102482	-141,0	    0,103308	-141,1
     42,9663	    0,102367	-141,1	     0,10336	-141,6
     42,9692	    0,101942	-141,0	    0,103013	-141,4
     42,9721	    0,101533	-140,5	    0,102635	-141,2
     42,9751	    0,101306	-140,9	    0,102714	-141,2
      42,978	     0,10138	-140,6	    0,102052	-141,2
     42,9809	    0,101012	-140,8	    0,101787	-141,3
     42,9839	    0,101232	-140,4	     0,10159	-140,8
     42,9868	    0,100294	-140,4	    0,101548	-141,0
     42,9897	    0,100326	-140,6	    0,100949	-141,1
     42,9927	    0,100099	-140,4	    0,101199	-140,7
     42,9956	   0,0997799	-140,4	    0,100992	-140,8
     42,9985	   0,0990245	-140,5	    0,100314	-140,5
     43,0015	    0,099278	-140,5	    0,100146	-140,9
     43,0044	   0,0989088	-140,4	   0,0999358	-140,6
     43,0073	    0,098579	-140,2	    0,100045	-140,4
     43,0103	   0,0984264	-140,4	   0,0996123	-140,2
     43,0132	   0,0981124	-140,0	   0,0994572	-140,6
     43,0161	   0,0983606	-140,2	   0,0990935	-140,3
     43,0191	   0,0971588	-139,7	   0,0987541	-140,2
      43,022	   0,0971035	-140,2	   0,0982627	-140,1
     43,0249	   0,0973473	-140,3	   0,0983248	-140,1
     43,0279	   0,0968397	-140,1	   0,0981403	-140,4
     43,0308	   0,0968248	-139,8	   0,0974126	-140,0
     43,0337	   0,0964321	-139,7	   0,0969848	-139,9
     43,0367	   0,0962759	-139,8	   0,0966605	-139,7
     43,0396	   0,0961398	-139,7	   0,0966146	-140,2
     43,0425	    0,095795	-139,7	   0,0966361	-139,8
     43,0455	    0,095545	-139,7	   0,0962435	-139,5
     43,0484	   0,0956621	-139,6	   0,0963116	-139,9
     43,0513	   0,0950182	-139,6	   0,0962933	-139,6
     43,0543	   0,0945199	-139,2	   0,0955002	-139,8
     43,0572	   0,0943215	-139,6	   0,0955214	-139,3
     43,0601	   0,0944898	-139,3	   0,0952759	-139,4
      43,063	    0,094188	-139,2	   0,0948007	-139,6
      43,066	   0,0937027	-138,9	   0,0949465	-138,9
     43,0689	   0,0938279	-139,3	   0,0945333	-139,3
     43,0718	   0,0934489	-139,3	   0,0938328	-139,1
     43,0748	   0,0935349	-138,9	    0,093905	-139,4
     43,0777	   0,0930108	-139,0	   0,0936393	-139,0
     43,0806	   0,0929013	-138,8	   0,0939225	-138,8
     43,0836	   0,0927358	-139,1	   0,0932264	-139,2
     43,0865	   0,0921568	-138,9	   0,0934899	-138,9
     43,0894	   0,0920147	-138,7	    0,092829	-138,8
     43,0924	   0,0922038	-138,8	   0,0925847	-139,0
     43,0953	   0,0915391	-138,5	   0,0923454	-139,0
     43,0982	   0,0911635	-138,6	    0,092317	-138,7
     43,1012	   0,0913549	-138,6	   0,0921028	-138,5
     43,1041	   0,0908493	-138,6	   0,0918817	-139,2
      43,107	   0,0909107	-138,5	   0,0914972	-138,6
       43,11	   0,0904098	-138,2	   0,0914347	-138,5
     43,1129	   0,0906351	-138,5	   0,0910886	-138,3
     43,1158	   0,0899678	-138,2	   0,0911783	-138,5
     43,1188	   0,0897717	-138,3	   0,0906092	-138,6
     43,1217	    0,088925	-138,1	   0,0904172	-137,9
     43,1246	   0,0892578	-138,1	   0,0902572	-138,4
     43,1276	   0,0889424	-138,1	   0,0896193	-138,3
     43,1305	   0,0891977	-137,7	   0,0897555	-137,8
     43,1334	   0,0872194	-137,7	   0,0894004	-138,3
     43,1364	   0,0886045	-138,0	   0,0896876	-138,0
     43,1393	   0,0879575	-137,5	   0,0886286	-138,3
     43,1422	   0,0881184	-138,0	   0,0886906	-137,7
     43,1452	   0,0873564	-137,7	   0,0887152	-137,9
     43,1481	   0,0873683	-138,1	    0,087996	-138,0
      43,151	   0,0876806	-137,4	   0,0884914	-137,5
      43,154	   0,0874231	-137,5	   0,0879137	-137,9
     43,1569	   0,0872701	-137,9	   0,0876996	-137,8
     43,1598	   0,0870272	-137,1	    0,087787	-137,5
     43,1628	   0,0865465	-137,6	   0,0871339	-137,7
     43,1657	   0,0865267	-137,2	   0,0873618	-137,2
     43,1686	   0,0857933	-137,2	   0,0869253	-137,7
     43,1716	   0,0855968	-137,3	    0,086596	-137,1
     43,1745	   0,0859802	-137,3	   0,0867096	-137,3
     43,1774	   0,0854974	-137,4	   0,0857182	-137,7
     43,1804	   0,0853033	-137,3	   0,0860351	-137,1
     43,1833	   0,0851021	-136,9	   0,0858343	-137,1
     43,1862	   0,0844149	-137,3	   0,0854308	-137,5
     43,1891	     0,08456	-136,6	   0,0854014	-136,9
     43,1921	   0,0844706	-137,1	   0,0850381	-137,1
      43,195	   0,0842895	-136,9	   0,0848007	-136,7
     43,1979	   0,0839375	-137,0	   0,0846093	-137,2
     43,2009	    0,083691	-136,9	    0,084359	-137,0
     43,2038	   0,0834971	-136,8	   0,0843974	-136,7
     43,2067	   0,0829876	-137,0	    0,083836	-137,1
     43,2097	   0,0831873	-136,5	   0,0831757	-136,6
     43,2126	   0,0832351	-136,3	   0,0829613	-136,6
     43,2155	   0,0826936	-136,9	   0,0833208	-137,0
     43,2185	   0,0823967	-136,5	   0,0833147	-136,7
     43,2214	    0,082554	-136,3	   0,0828971	-136,6
     43,2243	   0,0820373	-136,6	   0,0830966	-136,7
     43,2273	   0,0822826	-136,5	   0,0826791	-136,6
     43,2302	   0,0813546	-136,2	    0,082466	-136,5
     43,2331	   0,0812708	-136,5	   0,0820732	-136,2
     43,2361	   0,0811875	-136,1	   0,0817182	-136,6
      43,239	   0,0809532	-136,2	   0,0812773	-136,3
     43,2419	   0,0809222	-136,1	   0,0818417	-135,9
     43,2449	   0,0809354	-136,1	   0,0813204	-136,5
     43,2478	   0,0802636	-136,0	   0,0811552	-136,2
     43,2507	   0,0805212	-135,6	   0,0797533	-135,9
     43,2537	   0,0798871	-136,4	   0,0805669	-136,1
     43,2566	   0,0801529	-135,8	   0,0801256	-136,1
     43,2595	   0,0799001	-135,7	   0,0801178	-136,0
     43,2625	   0,0795267	-136,0	   0,0797213	-136,1
     43,2654	   0,0789504	-135,7	    0,080139	-135,8
     43,2683	   0,0794604	-135,5	   0,0795598	-136,2
     43,2713	   0,0785229	-135,9	   0,0792862	-135,6
     43,2742	   0,0778494	-135,5	   0,0790993	-135,9
     43,2771	   0,0785176	-135,6	   0,0790899	-135,8
     43,2801	   0,0779056	-135,5	   0,0788493	-135,9
      43,283	   0,0782003	-135,4	   0,0786018	-135,8
     43,2859	   0,0779775	-135,4	   0,0783505	-135,6
     43,2889	   0,0778947	-135,4	   0,0782426	-135,5
     43,2918	   0,0776027	-135,0	   0,0779048	-135,6
     43,2947	    0,077287	-135,3	   0,0777977	-135,5
     43,2977	   0,0773911	-135,1	   0,0780113	-135,1
     43,3006	   0,0770351	-135,4	   0,0774828	-135,7
     43,3035	   0,0770105	-135,1	   0,0773413	-135,2
     43,3064	   0,0767659	-135,0	   0,0770939	-135,0
     43,3094	   0,0765098	-135,2	   0,0767441	-135,6
     43,3123	    0,076301	-134,9	   0,0766396	-135,1
     43,3153	   0,0761343	-134,9	   0,0765552	-135,1
     43,3182	   0,0760288	-135,1	   0,0763064	-135,3
     43,3211	   0,0760287	-134,8	   0,0756973	-135,1
      43,324	   0,0755886	-134,7	   0,0758406	-135,0
      43,327	   0,0752696	-135,3	   0,0757249	-135,2
     43,3299	   0,0749859	-134,5	   0,0757241	-135,1
     43,3328	   0,0752334	-134,6	   0,0752746	-135,1
     43,3358	   0,0747774	-134,9	   0,0752465	-134,7
     43,3387	   0,0742892	-134,6	   0,0749404	-134,7
     43,3416	   0,0742365	-134,6	    0,074372	-135,0
     43,3446	   0,0742844	-135,0	   0,0737673	-134,6
     43,3475	   0,0742114	-134,3	   0,0746426	-134,8
     43,3504	   0,0737499	-134,6	   0,0741673	-134,6
     43,3534	   0,0739777	-134,7	   0,0736635	-134,7
     43,3563	   0,0738137	-134,0	   0,0738933	-134,8
     43,3592	   0,0732694	-134,6	   0,0733192	-134,6
     43,3622	   0,0735763	-134,4	   0,0726185	-134,7
     43,3651	   0,0733979	-133,9	    0,072511	-134,5
      43,368	   0,0727132	-134,5	   0,0728857	-134,4
      43,371	   0,0725984	-134,4	   0,0733231	-134,2
     43,3739	   0,0726317	-133,9	   0,0730783	-134,5
     43,3768	   0,0719858	-134,5	   0,0725196	-134,2
     43,3798	   0,0714379	-134,2	   0,0719538	-134,2
     43,3827	   0,0722089	-133,8	   0,0724017	-134,5
     43,3856	   0,0718117	-134,2	    0,071707	-134,1
     43,3886	   0,0715403	-133,9	   0,0717792	-134,1
     43,3915	   0,0716192	-133,6	   0,0714474	-134,4
     43,3944	   0,0711078	-134,2	   0,0714993	-134,0
     43,3974	   0,0711728	-134,0	   0,0714391	-134,1
     43,4003	   0,0709789	-133,7	   0,0710983	-133,9
     43,4032	   0,0706114	-134,1	    0,070498	-133,7
     43,4062	   0,0704929	-134,0	   0,0705023	-133,9
     43,4091	    0,070165	-133,7	   0,0692115	-134,1
      43,412	   0,0701955	-133,8	   0,0703707	-134,0
      43,415	    0,070246	-133,6	   0,0699138	-133,9
     43,4179	   0,0698367	-133,5	   0,0696704	-133,8
     43,4208	   0,0694101	-134,0	   0,0700716	-133,6
     43,4238	   0,0697436	-133,3	   0,0696127	-133,7
     43,4267	   0,0691218	-133,4	   0,0694329	-133,8
     43,4296	   0,0691982	-133,8	   0,0695224	-133,4
     43,4326	     0,06939	-133,1	   0,0690365	-133,6
     43,4355	   0,0684055	-133,4	    0,069073	-133,4
     43,4384	   0,0683934	-133,7	   0,0689661	-133,9
     43,4413	   0,0687407	-133,1	   0,0688452	-133,6
     43,4443	   0,0684663	-133,2	   0,0684558	-133,5
     43,4472	    0,068123	-133,8	   0,0683772	-133,6
     43,4501	   0,0682212	-133,1	   0,0685524	-133,1
     43,4531	   0,0679786	-133,3	   0,0678954	-133,2
      43,456	   0,0676853	-133,3	   0,0676883	-133,6
     43,4589	   0,0676035	-132,8	   0,0673824	-133,1
     43,4619	   0,0674505	-133,3	   0,0675905	-133,5
     43,4648	    0,067447	-133,0	    0,067158	-133,2
     43,4677	   0,0673508	-132,8	   0,0672894	-133,1
     43,4707	   0,0667599	-133,2	   0,0669773	-133,2
     43,4736	   0,0667756	-133,0	   0,0667309	-133,2
     43,4765	   0,0668737	-133,0	   0,0669368	-132,9
     43,4795	   0,0666589	-132,7	   0,0665549	-133,2
     43,4824	   0,0653364	-132,6	   0,0663601	-133,2
     43,4853	   0,0658886	-133,0	    0,066062	-133,0
     43,4883	   0,0663345	-132,4	   0,0663065	-133,1
     43,4912	   0,0656481	-132,8	   0,0657386	-132,9
     43,4941	   0,0657197	-132,9	   0,0648441	-132,4
     43,4971	   0,0648028	-132,6	   0,0657604	-132,9
        43,5	   0,0656857	-132,5	   0,0651501	-132,9

