X-Data [Hz]	Piezo (M - Filtered) [mV]	Phase [Deg]	Piezo (M - Filtered) [mV]	Phase [Deg]	
	002: [07-09-24 13:08]		003: [07-09-24 13:13]	
        40,5	    0,566227	-107,5	    0,632957	-108,1
     40,5029	    0,588385	-108,0	    0,626048	-108,2
     40,5059	    0,614476	-108,8	    0,629047	-108,7
     40,5088	    0,617615	-108,4	    0,629636	-108,4
     40,5117	    0,625142	-108,2	     0,63004	-107,6
     40,5147	    0,627843	-109,1	    0,631688	-108,4
     40,5176	    0,628673	-108,2	    0,631823	-107,9
     40,5205	    0,633186	-108,6	    0,635743	-108,5
     40,5235	    0,633675	-108,6	    0,635382	-108,6
     40,5264	    0,632488	-107,9	    0,636608	-107,8
     40,5293	    0,635441	-108,2	    0,636368	-108,0
     40,5323	    0,633877	-107,7	    0,638424	-108,8
     40,5352	    0,637283	-108,4	    0,640744	-107,9
     40,5381	    0,635846	-108,1	    0,639722	-109,2
     40,5411	    0,640276	-108,1	    0,641485	-108,7
      40,544	    0,636721	-107,7	    0,645091	-108,1
     40,5469	    0,642134	-108,6	    0,643851	-108,5
     40,5499	    0,640369	-108,1	     0,64235	-107,7
     40,5528	    0,646763	-108,4	    0,644057	-108,3
     40,5557	    0,644201	-108,3	    0,647862	-108,8
     40,5587	    0,645803	-108,5	    0,647185	-107,9
     40,5616	    0,645013	-108,3	    0,649554	-108,5
     40,5645	    0,647854	-108,2	    0,652968	-108,3
     40,5674	    0,648508	-107,8	     0,64918	-107,3
     40,5704	    0,648233	-107,8	    0,651226	-107,9
     40,5733	    0,650987	-107,8	     0,65315	-107,5
     40,5762	    0,652488	-108,2	    0,654081	-107,8
     40,5792	     0,65447	-108,0	    0,656503	-108,2
     40,5821	    0,651721	-107,6	    0,656243	-107,8
      40,585	    0,657926	-108,4	    0,656865	-107,6
      40,588	    0,655404	-108,2	    0,659599	-107,9
     40,5909	    0,658934	-107,7	    0,660077	-107,6
     40,5938	    0,660461	-108,3	    0,662044	-108,0
     40,5968	     0,66067	-107,9	    0,662943	-108,4
     40,5997	    0,662604	-108,7	    0,663222	-107,5
     40,6026	    0,663667	-108,5	    0,665819	-108,5
     40,6056	    0,663655	-107,9	    0,667572	-107,9
     40,6085	    0,666135	-108,5	    0,665617	-107,4
     40,6114	    0,667037	-108,1	    0,670294	-107,8
     40,6144	    0,666875	-107,5	    0,671154	-107,6
     40,6173	     0,66926	-107,8	    0,669972	-107,8
     40,6202	    0,668539	-107,4	    0,674493	-108,5
     40,6232	    0,671375	-107,4	    0,673558	-108,1
     40,6261	    0,672844	-108,4	    0,674071	-107,5
      40,629	    0,672606	-107,5	    0,676508	-108,0
      40,632	    0,675963	-107,2	    0,675729	-107,6
     40,6349	    0,675842	-108,1	    0,679147	-107,7
     40,6378	    0,676252	-107,5	    0,680463	-108,5
     40,6408	    0,680051	-107,5	    0,680304	-107,3
     40,6437	    0,678125	-107,7	    0,682686	-108,0
     40,6466	    0,681575	-107,4	    0,685186	-108,3
     40,6496	    0,682406	-107,7	     0,68561	-107,8
     40,6525	    0,683624	-108,4	    0,684094	-107,2
     40,6554	    0,681638	-107,6	    0,689004	-107,5
     40,6584	    0,683801	-107,1	    0,685916	-107,1
     40,6613	    0,686932	-107,9	    0,690386	-107,4
     40,6642	    0,686699	-107,5	    0,692808	-108,2
     40,6672	    0,691202	-107,7	     0,69301	-107,8
     40,6701	    0,689895	-108,3	    0,693973	-107,8
      40,673	    0,689914	-107,8	    0,694712	-107,6
      40,676	    0,690723	-108,2	    0,695186	-107,1
     40,6789	    0,693428	-108,2	    0,698298	-107,9
     40,6818	    0,694916	-107,6	    0,697946	-107,0
     40,6847	    0,698545	-107,3	    0,699667	-107,1
     40,6877	    0,699373	-108,0	    0,700649	-107,2
     40,6906	    0,696624	-107,3	    0,705238	-107,8
     40,6936	    0,697512	-107,2	    0,705191	-107,2
     40,6965	    0,699541	-107,0	    0,705843	-108,1
     40,6994	    0,701168	-106,9	    0,706914	-107,5
     40,7023	     0,70482	-107,2	    0,706664	-106,9
     40,7053	    0,707131	-107,7	    0,707904	-107,0
     40,7082	     0,70497	-107,3	    0,709692	-107,8
     40,7111	    0,708312	-107,5	    0,711962	-106,8
     40,7141	    0,708675	-107,3	    0,712132	-107,2
      40,717	    0,708541	-106,8	    0,714658	-107,4
     40,7199	      0,7134	-106,6	     0,71751	-107,3
     40,7229	    0,712996	-107,2	     0,71795	-107,6
     40,7258	    0,713042	-106,7	    0,719642	-106,9
     40,7287	    0,716972	-106,8	     0,71824	-106,7
     40,7317	    0,718863	-107,4	    0,720291	-106,8
     40,7346	    0,721071	-107,2	    0,724183	-107,5
     40,7375	    0,720796	-107,4	    0,723347	-106,4
     40,7405	    0,723528	-107,6	    0,724889	-106,8
     40,7434	    0,721541	-107,4	    0,728112	-107,2
     40,7463	    0,721501	-106,5	     0,72777	-107,3
     40,7493	     0,72482	-107,4	    0,732124	-107,1
     40,7522	    0,724641	-106,8	    0,732962	-107,2
     40,7551	    0,726273	-106,9	    0,733213	-106,9
     40,7581	    0,729945	-106,9	    0,734579	-106,5
      40,761	    0,730173	-107,5	    0,734811	-106,9
     40,7639	    0,732912	-106,8	    0,738492	-106,5
     40,7669	    0,735601	-107,4	    0,736994	-106,5
     40,7698	     0,73501	-107,5	     0,73989	-107,0
     40,7727	    0,736313	-106,9	    0,745184	-107,4
     40,7757	    0,736345	-106,6	    0,742352	-106,5
     40,7786	    0,742257	-107,0	    0,744109	-107,0
     40,7815	    0,740376	-106,6	    0,746187	-106,8
     40,7845	    0,743516	-106,8	    0,746524	-106,2
     40,7874	    0,745821	-107,6	    0,748832	-106,8
     40,7903	    0,744267	-106,9	     0,75164	-107,0
     40,7933	    0,750202	-106,8	    0,750373	-106,0
     40,7962	    0,751856	-107,3	     0,75393	-106,6
     40,7991	    0,750821	-107,2	     0,75701	-107,2
     40,8021	    0,751105	-106,6	     0,75772	-106,4
      40,805	    0,754163	-107,5	    0,757587	-106,4
     40,8079	    0,756744	-107,4	    0,758193	-106,7
     40,8109	    0,757094	-106,6	    0,761301	-106,4
     40,8138	    0,759321	-106,9	     0,76355	-106,1
     40,8167	    0,761933	-107,1	    0,762837	-106,7
     40,8196	    0,762329	-106,6	    0,766375	-107,0
     40,8226	     0,76326	-107,0	    0,765494	-106,1
     40,8255	    0,765262	-107,3	    0,768714	-106,9
     40,8284	    0,768117	-107,1	    0,772072	-106,8
     40,8314	    0,768627	-106,6	    0,774741	-106,7
     40,8343	    0,771846	-107,1	    0,774833	-106,6
     40,8372	    0,773821	-106,9	    0,778668	-106,8
     40,8402	    0,774168	-106,3	    0,775436	-106,6
     40,8431	    0,775384	-106,7	    0,781364	-106,4
      40,846	    0,774213	-107,0	    0,780998	-106,8
      40,849	    0,779338	-106,6	    0,784696	-106,4
     40,8519	    0,777651	-106,1	    0,783733	-106,0
     40,8548	    0,781596	-106,8	    0,785203	-105,7
     40,8578	    0,783354	-106,7	    0,788071	-106,1
     40,8607	    0,781517	-106,3	    0,789048	-106,0
     40,8636	    0,785649	-106,1	    0,790475	-106,1
     40,8666	    0,787008	-106,3	    0,793872	-106,6
     40,8695	     0,78921	-106,2	    0,797113	-106,4
     40,8724	    0,792109	-106,2	     0,79547	-105,9
     40,8754	    0,791644	-106,8	    0,796618	-105,6
     40,8783	    0,795114	-106,7	    0,799533	-105,8
     40,8812	    0,792547	-105,7	    0,800186	-105,3
     40,8842	    0,799768	-106,8	    0,801147	-105,6
     40,8871	    0,801885	-106,7	     0,80703	-106,0
       40,89	    0,799833	-105,9	    0,808378	-106,4
      40,893	    0,803143	-105,5	    0,807537	-105,8
     40,8959	    0,805164	-106,6	     0,80978	-105,6
     40,8988	    0,804391	-106,2	    0,812271	-106,4
     40,9018	    0,808189	-105,7	    0,817561	-106,3
     40,9047	    0,807477	-105,6	    0,816833	-106,1
     40,9076	    0,812763	-105,8	    0,818279	-106,3
     40,9106	     0,81116	-105,6	     0,82146	-106,4
     40,9135	    0,816652	-105,3	    0,823928	-105,9
     40,9164	    0,816851	-106,0	    0,821387	-105,6
     40,9194	    0,821027	-106,3	    0,825604	-105,8
     40,9223	    0,821401	-105,6	    0,828284	-106,0
     40,9252	    0,823452	-105,8	    0,827809	-105,5
     40,9282	    0,825735	-106,3	    0,830736	-105,2
     40,9311	    0,827024	-106,2	    0,830466	-105,4
      40,934	    0,830021	-105,4	    0,834099	-105,4
      40,937	    0,832283	-106,1	    0,837483	-105,1
     40,9399	    0,832643	-106,0	     0,83702	-105,4
     40,9428	    0,835342	-105,7	       0,842	-105,3
     40,9457	    0,837028	-105,6	    0,841937	-105,1
     40,9487	    0,838065	-105,7	    0,844173	-105,1
     40,9516	     0,84091	-105,5	    0,844995	-105,6
     40,9545	    0,840729	-105,8	    0,849084	-105,2
     40,9575	    0,842387	-105,5	    0,850058	-105,0
     40,9604	    0,846916	-105,8	    0,850235	-105,3
     40,9633	    0,847858	-106,1	    0,853328	-105,7
     40,9663	    0,848987	-105,3	    0,856902	-105,4
     40,9692	     0,85202	-105,5	    0,859169	-105,0
     40,9721	    0,856681	-105,7	    0,860851	-105,7
     40,9751	     0,85922	-106,0	    0,864356	-105,7
      40,978	    0,857169	-105,2	    0,866302	-105,3
     40,9809	    0,862224	-105,6	    0,866602	-105,4
     40,9839	    0,863512	-105,6	    0,868997	-105,4
     40,9868	    0,865765	-105,5	     0,86989	-105,0
     40,9897	    0,868481	-105,5	    0,872481	-104,8
     40,9927	    0,869118	-105,3	    0,875356	-104,6
     40,9956	     0,87088	-105,6	    0,877968	-105,1
     40,9985	    0,874402	-105,8	    0,880025	-105,5
     41,0015	     0,87487	-105,1	    0,883115	-105,2
     41,0044	    0,879548	-105,0	    0,882785	-105,0
     41,0073	    0,879931	-105,6	     0,88799	-105,3
     41,0103	    0,881826	-105,8	    0,891686	-105,3
     41,0132	    0,883186	-105,6	    0,888963	-104,8
     41,0161	    0,885768	-105,3	    0,893649	-105,1
     41,0191	    0,892817	-105,6	    0,896124	-104,7
      41,022	     0,88936	-105,8	    0,899627	-105,0
     41,0249	     0,89215	-105,1	     0,90152	-104,8
     41,0279	     0,89519	-104,9	      0,9012	-104,4
     41,0308	    0,895179	-105,5	    0,906793	-105,1
     41,0337	    0,901419	-105,4	    0,908603	-104,7
     41,0367	    0,899457	-104,5	    0,908823	-104,2
     41,0396	    0,903918	-104,5	    0,911193	-104,2
     41,0425	    0,904478	-104,9	    0,913395	-104,6
     41,0455	    0,907056	-104,4	    0,917183	-104,3
     41,0484	    0,911857	-104,4	    0,917708	-104,5
     41,0513	    0,909134	-104,7	    0,920182	-104,3
     41,0543	    0,917313	-104,8	    0,921983	-104,1
     41,0572	    0,916114	-104,7	    0,926185	-104,6
     41,0601	    0,918154	-104,4	    0,927711	-104,2
      41,063	    0,921733	-104,5	    0,930764	-104,3
      41,066	    0,926687	-104,8	    0,930247	-104,0
     41,0689	    0,925666	-105,1	    0,935167	-104,6
     41,0718	    0,931914	-104,9	    0,938147	-104,1
     41,0748	    0,933932	-104,6	    0,937449	-103,9
     41,0777	    0,933769	-104,7	    0,942301	-104,0
     41,0806	     0,93815	-104,7	    0,944155	-104,3
     41,0836	    0,938685	-104,5	    0,949767	-104,0
     41,0865	     0,94303	-104,1	    0,949044	-103,9
     41,0894	    0,946257	-104,1	    0,949765	-103,6
     41,0924	    0,950301	-104,5	    0,951876	-104,1
     41,0953	    0,950366	-104,7	    0,960591	-104,3
     41,0982	    0,948688	-103,8	    0,963002	-103,7
     41,1012	    0,954823	-103,9	    0,961914	-103,9
     41,1041	    0,955994	-104,2	    0,964485	-104,0
      41,107	    0,958833	-104,3	    0,969238	-104,0
       41,11	    0,961196	-104,0	    0,973619	-104,3
     41,1129	    0,963576	-104,1	    0,973274	-103,6
     41,1158	    0,968621	-104,2	    0,976173	-103,8
     41,1188	    0,969991	-104,1	    0,978574	-104,0
     41,1217	    0,970937	-103,9	    0,982305	-104,0
     41,1246	    0,972689	-103,5	    0,985595	-103,5
     41,1276	    0,976675	-103,5	    0,985558	-103,5
     41,1305	    0,979183	-103,5	    0,992245	-103,6
     41,1334	    0,980258	-103,4	    0,993549	-103,7
     41,1364	    0,980324	-103,5	    0,995403	-104,0
     41,1393	    0,982406	-103,4	    0,998393	-103,1
     41,1422	    0,986482	-103,4	     1,00145	-103,6
     41,1452	    0,994384	-104,0	     1,00705	-103,9
     41,1481	    0,992843	-103,6	     1,01212	-103,7
      41,151	    0,996651	-103,3	     1,01316	-103,2
      41,154	    0,999008	-103,1	     1,01297	-103,3
     41,1569	     1,00211	-103,2	      1,0177	-103,3
     41,1598	     1,00895	-103,5	     1,02166	-103,5
     41,1628	     1,00904	-103,1	     1,02517	-103,4
     41,1657	     1,01117	-103,3	     1,02819	-103,1
     41,1686	     1,01707	-103,2	     1,02932	-103,1
     41,1716	     1,02272	-103,6	     1,03107	-103,6
     41,1745	     1,02452	-103,8	     1,03799	-103,4
     41,1774	     1,02646	-103,3	     1,04137	-103,2
     41,1804	     1,02648	-103,1	     1,04296	-102,9
     41,1833	     1,02864	-102,8	     1,04395	-103,1
     41,1862	     1,03167	-103,7	     1,05036	-103,1
     41,1891	      1,0354	-103,0	     1,05216	-103,1
     41,1921	     1,04294	-102,7	     1,05625	-102,9
      41,195	     1,04351	-102,6	     1,05833	-102,8
     41,1979	     1,04656	-102,6	     1,06175	-102,9
     41,2009	     1,05088	-103,1	     1,06651	-103,0
     41,2038	     1,05216	-103,1	     1,06998	-102,8
     41,2067	     1,05482	-102,9	     1,07153	-102,4
     41,2097	     1,05999	-102,5	     1,07505	-102,2
     41,2126	     1,06443	-103,1	       1,078	-102,0
     41,2155	     1,06639	-102,9	     1,08219	-102,4
     41,2185	     1,06792	-102,8	     1,08798	-102,1
     41,2214	     1,06977	-102,5	     1,09039	-102,0
     41,2243	      1,0752	-102,4	     1,08871	-102,1
     41,2273	     1,08202	-102,5	     1,09487	-102,4
     41,2302	     1,08643	-102,7	     1,10223	-102,3
     41,2331	     1,08877	-102,9	     1,10718	-102,0
     41,2361	     1,08828	-102,2	     1,10735	-101,5
      41,239	     1,09575	-102,4	     1,10982	-101,7
     41,2419	     1,09954	-102,4	     1,11306	-102,0
     41,2449	     1,10319	-102,5	     1,11945	-102,2
     41,2478	     1,10132	-102,3	      1,1221	-101,7
     41,2507	     1,10942	-101,7	     1,12546	-101,7
     41,2537	     1,11255	-102,0	     1,13079	-101,5
     41,2566	     1,11591	-102,1	     1,13269	-101,2
     41,2595	     1,12141	-102,2	     1,14071	-101,7
     41,2625	     1,12528	-102,4	      1,1435	-101,6
     41,2654	     1,12653	-101,8	      1,1478	-101,5
     41,2683	     1,13162	-101,9	     1,15166	-101,4
     41,2713	     1,13215	-101,6	      1,1569	-101,3
     41,2742	     1,13943	-102,0	     1,16091	-101,8
     41,2771	     1,14339	-101,9	     1,16423	-101,5
     41,2801	     1,14617	-101,8	     1,16911	-101,2
      41,283	     1,14959	-101,8	     1,17334	-101,0
     41,2859	     1,15769	-101,7	     1,17368	-101,0
     41,2889	     1,16369	-101,9	     1,17934	-101,4
     41,2918	      1,1637	-102,1	       1,188	-101,5
     41,2947	     1,16563	-101,6	     1,19056	-101,3
     41,2977	     1,17115	-101,4	     1,19297	-100,8
     41,3006	     1,17464	-101,2	     1,19726	-100,6
     41,3035	     1,18153	-101,1	     1,19931	-100,7
     41,3064	      1,1868	-101,4	     1,20713	-100,8
     41,3094	     1,18977	-101,6	     1,21263	-101,1
     41,3123	     1,19324	-101,6	     1,21866	-100,4
     41,3153	     1,19664	-101,0	     1,21923	-100,4
     41,3182	     1,20125	-101,0	     1,22275	-100,3
     41,3211	     1,20548	-100,8	     1,22571	-100,1
      41,324	     1,21376	-101,0	     1,23567	-100,5
      41,327	     1,21942	-101,2	     1,24243	-100,3
     41,3299	     1,21744	-100,5	      1,2451	-99,9
     41,3328	     1,22295	-100,7	     1,24898	-100,1
     41,3358	     1,22506	-100,6	     1,25505	-99,8
     41,3387	     1,23329	-101,0	     1,25834	-99,7
     41,3416	     1,23812	-100,9	     1,26744	-99,9
     41,3446	      1,2409	-100,6	     1,27031	-99,8
     41,3475	     1,24644	-100,4	     1,27497	-99,6
     41,3504	      1,2514	-100,5	     1,27931	-99,6
     41,3534	     1,25607	-100,3	     1,28879	-99,4
     41,3563	     1,26321	-100,7	     1,29406	-99,7
     41,3592	     1,26815	-100,6	     1,30019	-99,7
     41,3622	     1,27199	-100,3	     1,30607	-99,3
     41,3651	      1,2774	-100,0	     1,31161	-99,2
      41,368	     1,28251	-99,7	     1,31482	-99,2
      41,371	        1,29	-99,7	     1,32326	-99,4
     41,3739	      1,2929	-100,1	     1,33134	-99,5
     41,3768	      1,3007	-100,2	     1,33652	-99,2
     41,3798	     1,30462	-100,0	     1,34022	-98,8
     41,3827	     1,30742	-99,9	     1,34491	-99,0
     41,3856	     1,31053	-99,1	     1,35337	-98,5
     41,3886	     1,32023	-98,9	      1,3575	-98,6
     41,3915	     1,32857	-99,3	     1,36404	-98,8
     41,3944	     1,33217	-99,5	      1,3715	-98,5
     41,3974	     1,33571	-99,4	       1,381	-98,2
     41,4003	     1,34083	-99,1	     1,38502	-98,0
     41,4032	     1,35043	-98,9	     1,39465	-97,8
     41,4062	      1,3539	-98,9	     1,39986	-97,8
     41,4091	     1,36247	-98,7	     1,40573	-97,8
      41,412	     1,36662	-98,9	     1,41942	-98,1
      41,415	      1,3749	-98,9	     1,43254	-97,6
     41,4179	     1,37982	-98,8	     1,44242	-97,4
     41,4208	     1,38627	-98,5	     1,44645	-97,1
     41,4238	     1,38999	-98,3	     1,43877	-96,9
     41,4267	     1,39871	-98,2	     1,44879	-98,5
     41,4296	      1,4094	-98,3	     1,55198	-100,4
     41,4326	     1,41587	-98,5	     1,79092	-100,3
     41,4355	     1,41994	-98,5	     2,11916	-97,3
     41,4384	     1,42749	-98,3	     2,55424	-90,7
     41,4413	     1,43291	-97,9	     2,87995	-84,2
     41,4443	     1,43953	-97,7	     3,15584	-77,9
     41,4472	     1,44911	-97,6	     3,37771	-71,9
     41,4501	     1,45682	-97,7	     3,58627	-66,2
     41,4531	     1,46568	-97,9	     3,71924	-61,9
      41,456	     1,47357	-97,6	     3,82544	-58,7
     41,4589	     1,47831	-97,6	     3,90717	-55,8
     41,4619	     1,48552	-97,1	     3,98374	-52,9
     41,4648	      1,4933	-97,1	     4,03959	-50,4
     41,4677	     1,50055	-97,1	     4,08685	-48,4
     41,4707	     1,50929	-97,0	     4,12838	-46,6
     41,4736	     1,52218	-97,2	     4,16278	-45,2
     41,4765	     1,52756	-97,2	     4,20226	-43,3
     41,4795	     1,53425	-96,8	     4,22015	-42,0
     41,4824	     1,54246	-96,6	      4,2419	-40,6
     41,4853	     1,55005	-96,1	     4,25902	-39,7
     41,4883	     1,56496	-96,1	     4,27532	-38,8
     41,4912	     1,56969	-96,3	     4,29088	-37,7
     41,4941	      1,5772	-95,6	     4,30379	-36,7
     41,4971	     1,58684	-96,2	       4,314	-35,7
        41,5	     1,59827	-95,6	     4,32272	-34,9
     41,5029	     1,60719	-95,7	      4,3354	-34,0
     41,5059	     1,61718	-95,8	     4,34225	-33,7
     41,5088	     1,62904	-95,2	      4,3475	-32,9
     41,5117	     1,63348	-94,7	     4,35263	-32,0
     41,5147	     1,64995	-94,7	     4,35556	-31,6
     41,5176	      1,6634	-94,8	     4,36206	-30,4
     41,5205	     1,67471	-94,7	     4,36693	-30,1
     41,5235	     1,68663	-94,7	     4,36854	-29,4
     41,5264	     1,69574	-94,5	     4,37113	-28,8
     41,5293	     1,70662	-94,1	     4,37587	-28,4
     41,5323	     1,71926	-94,0	     4,37503	-28,0
     41,5352	     1,73123	-93,9	     4,38069	-27,5
     41,5381	     1,74952	-93,7	      4,3806	-26,9
     41,5411	     1,76177	-93,3	     4,38259	-26,2
      41,544	     1,77469	-93,0	     4,38184	-25,8
     41,5469	     1,78589	-92,9	     4,38466	-25,5
     41,5499	     1,79938	-92,7	     4,38533	-25,0
     41,5528	     1,81265	-92,6	     4,38617	-24,2
     41,5557	     1,82967	-92,3	     4,38028	-24,0
     41,5587	     1,84544	-91,9	     4,38113	-23,6
     41,5616	     1,86571	-91,6	     4,37853	-23,5
     41,5645	     1,88349	-91,2	     4,37795	-23,1
     41,5674	     1,90034	-91,1	     4,37823	-22,5
     41,5704	     1,91802	-90,9	     4,37845	-21,9
     41,5733	     1,93405	-90,6	      4,3782	-21,4
     41,5762	     1,95413	-90,2	     4,37893	-21,3
     41,5792	     1,97244	-90,2	     4,37739	-20,9
     41,5821	     1,99642	-89,7	     4,37297	-20,6
      41,585	     2,01952	-89,0	     4,37102	-20,1
      41,588	     2,04929	-88,6	     4,36788	-19,9
     41,5909	      2,0699	-88,1	      4,3662	-19,8
     41,5938	     2,09621	-87,9	      4,3629	-19,3
     41,5968	     2,12372	-87,6	     4,36181	-18,6
     41,5997	     2,15494	-87,2	     4,36022	-18,2
     41,6026	     2,18367	-86,4	     4,35921	-18,3
     41,6056	     2,21474	-85,8	     4,35814	-17,7
     41,6085	     2,24837	-85,5	     4,35489	-17,6
     41,6114	     2,28109	-84,7	     4,35092	-17,1
     41,6144	     2,32644	-83,9	      4,3478	-17,0
     41,6173	     2,36515	-82,8	     4,34456	-16,9
     41,6202	     2,40834	-82,0	      4,3412	-16,3
     41,6232	     2,47073	-81,0	     4,33432	-16,1
     41,6261	     2,52504	-80,1	     4,33107	-15,8
      41,629	     2,58243	-78,9	     4,32792	-15,6
      41,632	     2,65226	-77,2	     4,32407	-15,2
     41,6349	     2,72863	-75,7	      4,3224	-14,9
     41,6378	     2,82786	-73,5	     4,31859	-14,8
     41,6408	     2,92275	-71,2	     4,31328	-14,6
     41,6437	     3,03138	-68,5	     4,31185	-14,3
     41,6466	     3,15352	-65,3	     4,30728	-14,1
     41,6496	     3,32848	-60,2	      4,3024	-13,5
     41,6525	     3,49093	-55,4	     4,29814	-13,5
     41,6554	     3,66872	-49,3	     4,29766	-13,3
     41,6584	     3,84821	-42,3	     4,29443	-12,8
     41,6613	     4,04136	-34,3	     4,28939	-12,4
     41,6642	     4,18911	-27,2	     4,28515	-12,1
     41,6672	     4,28727	-20,9	     4,28065	-12,1
     41,6701	     4,34376	-15,5	      4,2782	-11,8
      41,673	     4,35261	-11,6	     4,27082	-11,8
      41,676	       4,338	-9,9	     4,26854	-11,3
     41,6789	     4,31984	-9,4	     4,26418	-11,3
     41,6818	     4,29859	-9,2	     4,26142	-11,1
     41,6847	     4,28099	-9,2	      4,2575	-10,6
     41,6877	     4,26587	-9,0	     4,24648	-10,3
     41,6906	     4,25947	-9,3	     4,24342	-10,1
     41,6936	     4,26141	-9,2	     4,24108	-10,0
     41,6965	     4,26015	-8,8	     4,23835	-9,6
     41,6994	     4,25169	-8,6	     4,23406	-9,3
     41,7023	     4,24766	-8,4	     4,23213	-9,1
     41,7053	     4,23989	-8,2	     4,22782	-8,9
     41,7082	     4,23532	-8,0	      4,2203	-8,6
     41,7111	     4,22966	-7,5	     4,21853	-8,1
     41,7141	     4,22431	-7,5	     4,21034	-8,2
      41,717	        4,22	-7,5	     4,20624	-8,3
     41,7199	     4,21799	-7,2	     4,20212	-7,9
     41,7229	      4,2097	-6,6	     4,19846	-7,5
     41,7258	     4,20345	-6,5	     4,19505	-7,5
     41,7287	     4,19958	-6,3	       4,187	-7,5
     41,7317	     4,19573	-6,1	     4,18142	-7,2
     41,7346	     4,19231	-5,6	     4,17525	-6,7
     41,7375	      4,1801	-5,6	     4,17077	-6,3
     41,7405	     4,17341	-5,3	     4,16717	-6,3
     41,7434	     4,16783	-5,5	     4,16422	-5,9
     41,7463	     4,16361	-5,2	     4,16022	-5,4
     41,7493	     4,15928	-4,7	     4,15492	-5,6
     41,7522	     4,15238	-4,8	     4,15177	-5,6
     41,7551	     4,15025	-4,7	     4,14397	-5,3
     41,7581	     4,14496	-4,3	     4,13755	-5,0
      41,761	      4,1379	-3,9	       4,136	-5,0
     41,7639	     4,13297	-3,9	     4,13217	-4,9
     41,7669	     4,12736	-3,8	     4,12515	-4,4
     41,7698	     4,12199	-3,5	     4,11712	-4,2
     41,7727	     4,11613	-3,1	     4,11197	-4,4
     41,7757	      4,1101	-3,1	     4,10478	-4,1
     41,7786	     4,10643	-3,0	     4,09927	-3,6
     41,7815	     4,10096	-2,5	     4,09682	-3,4
     41,7845	     4,09246	-2,3	     4,09395	-3,1
     41,7874	     4,08683	-2,1	     4,08581	-3,2
     41,7903	     4,07986	-2,1	     4,07961	-2,6
     41,7933	     4,07431	-1,7	     4,07598	-2,5
     41,7962	     4,06761	-1,4	     4,07207	-2,5
     41,7991	     4,06233	-1,4	     4,07106	-2,5
     41,8021	     4,05712	-1,6	     4,06244	-2,0
      41,805	     4,05158	-1,2	     4,05741	-2,0
     41,8079	     4,04586	-0,9	     4,04952	-1,8
     41,8109	     4,04134	-0,9	     4,04187	-1,8
     41,8138	     4,03646	-0,6	      4,0388	-1,4
     41,8167	     4,03237	-0,3	     4,03621	-1,3
     41,8196	     4,02586	-0,0	     4,02973	-1,1
     41,8226	     4,01871	-0,4	     4,02452	-0,8
     41,8255	     4,01262	 0,1	     4,01772	-0,6
     41,8284	     4,00806	 0,3	     4,00974	-0,7
     41,8314	     4,00318	 0,6	     4,00303	-0,5
     41,8343	     3,99099	 0,8	     3,99787	-0,1
     41,8372	     3,98767	 0,7	     3,99385	 0,3
     41,8402	     3,98359	 1,2	     3,98672	 0,1
     41,8431	     3,97831	 1,5	     3,98248	 0,4
      41,846	     3,97258	 1,4	      3,9753	 0,7
      41,849	     3,96132	 1,4	     3,96964	 0,5
     41,8519	     3,95587	 1,8	     3,96792	 0,7
     41,8548	     3,95124	 2,0	      3,9618	 1,2
     41,8578	     3,94745	 2,0	     3,95623	 1,4
     41,8607	     3,94275	 1,9	     3,94976	 1,4
     41,8636	      3,9356	 2,5	     3,94453	 1,8
     41,8666	     3,92841	 2,6	     3,94007	 2,0
     41,8695	     3,91952	 2,5	     3,93272	 1,8
     41,8724	     3,91771	 2,7	     3,92905	 1,9
     41,8754	     3,91385	 3,2	     3,92246	 2,3
     41,8783	      3,9076	 3,1	     3,91932	 2,4
     41,8812	     3,90152	 3,4	     3,91285	 2,5
     41,8842	     3,89357	 3,3	     3,90434	 2,4
     41,8871	     3,88753	 3,8	     3,89755	 2,9
       41,89	     3,88458	 3,6	     3,89596	 2,9
      41,893	     3,87777	 3,9	     3,88875	 3,0
     41,8959	     3,87016	 4,2	     3,88257	 3,6
     41,8988	     3,86554	 4,4	     3,87473	 3,6
     41,9018	     3,86166	 4,3	     3,86806	 3,4
     41,9047	     3,85319	 4,7	     3,86561	 3,7
     41,9076	     3,84539	 4,9	     3,86038	 3,9
     41,9106	     3,84324	 4,8	     3,84767	 4,2
     41,9135	     3,83472	 5,1	      3,8436	 4,2
     41,9164	     3,83069	 5,6	      3,8423	 4,6
     41,9194	      3,8253	 5,3	      3,8371	 4,6
     41,9223	     3,81882	 5,4	     3,83247	 4,8
     41,9252	     3,80958	 5,9	     3,82015	 5,0
     41,9282	     3,80441	 6,4	     3,81205	 5,0
     41,9311	     3,80138	 6,0	     3,80642	 5,1
      41,934	      3,7944	 6,2	     3,80565	 5,6
      41,937	     3,78332	 6,6	     3,80061	 6,1
     41,9399	     3,78124	 6,6	     3,79507	 5,8
     41,9428	     3,77844	 6,7	     3,78674	 5,8
     41,9457	      3,7645	 6,8	     3,78217	 6,1
     41,9487	     3,75714	 7,2	     3,77947	 5,9
     41,9516	     3,75612	 7,1	     3,77049	 6,3
     41,9545	     3,75074	 7,7	     3,76736	 6,8
     41,9575	     3,73897	 7,5	     3,75789	 6,8
     41,9604	     3,73343	 7,7	     3,75354	 6,8
     41,9633	      3,7303	 7,6	     3,74817	 7,2
     41,9663	      3,7215	 8,3	     3,74218	 7,4
     41,9692	     3,71831	 7,9	     3,73475	 7,3
     41,9721	     3,71095	 8,0	     3,73105	 7,7
     41,9751	     3,70544	 8,4	     3,72757	 7,6
      41,978	     3,69965	 8,6	     3,72342	 8,0
     41,9809	     3,69468	 8,6	     3,71458	 8,1
     41,9839	     3,68701	 8,4	     3,70889	 8,3
     41,9868	      3,6811	 9,0	     3,70171	 8,0
     41,9897	     3,67225	 9,1	     3,69874	 8,6
     41,9927	     3,66726	 9,0	     3,68963	 8,8
     41,9956	     3,66624	 9,7	     3,68473	 8,6
     41,9985	     3,65632	 9,7	      3,6774	 8,9
     42,0015	     3,64534	 9,3	     3,67042	 9,3
     42,0044	     3,64222	 9,7	      3,6661	 9,4
     42,0073	      3,6385	10,0	     3,66067	 9,3
     42,0103	     3,63088	10,0	     3,65403	 9,6
     42,0132	     3,62468	10,0	     3,64951	 9,8
     42,0161	      3,6179	10,5	     3,64595	 9,9
     42,0191	     3,61121	10,4	     3,63782	10,2
      42,022	     3,60483	10,7	     3,62947	10,0
     42,0249	     3,60152	10,8	     3,62393	10,0
     42,0279	     3,59429	10,8	     3,62056	10,5
     42,0308	     3,58855	10,9	       3,614	10,6
     42,0337	     3,58146	11,4	     3,60766	10,4
     42,0367	     3,57805	11,3	     3,60173	10,8
     42,0396	     3,57051	11,3	     3,59255	11,0
     42,0425	     3,56281	11,5	      3,5879	10,8
     42,0455	     3,55481	11,9	     3,58367	11,2
     42,0484	     3,54982	11,6	     3,57679	11,5
     42,0513	     3,54551	12,2	     3,57141	11,4
     42,0543	     3,53827	12,2	     3,56261	11,7
     42,0572	     3,53361	12,0	     3,56002	11,6
     42,0601	     3,52557	12,6	     3,55344	11,5
      42,063	      3,5201	12,7	     3,54782	12,0
      42,066	     3,51482	12,6	     3,54117	12,2
     42,0689	     3,50566	12,6	     3,53485	12,0
     42,0718	     3,50132	13,3	     3,52801	12,2
     42,0748	     3,49511	13,1	     3,52545	12,3
     42,0777	     3,49102	13,2	     3,51573	12,6
     42,0806	     3,48233	13,5	     3,50908	12,9
     42,0836	     3,47425	13,5	     3,50746	12,7
     42,0865	     3,47055	13,5	     3,50279	12,9
     42,0894	     3,46753	13,9	     3,49311	13,1
     42,0924	     3,45649	14,0	     3,48465	13,3
     42,0953	      3,4512	13,8	     3,48242	13,1
     42,0982	     3,44746	14,3	      3,4795	13,4
     42,1012	     3,44296	14,1	     3,47249	13,3
     42,1041	     3,43811	14,2	     3,46426	13,6
      42,107	      3,4319	14,4	     3,45741	13,8
       42,11	     3,42279	14,9	     3,45376	13,8
     42,1129	     3,41758	14,6	     3,44664	14,1
     42,1158	     3,41359	14,9	     3,44064	14,2
     42,1188	     3,40357	15,0	     3,43775	14,5
     42,1217	     3,39949	14,9	      3,4298	14,7
     42,1246	     3,39179	15,1	     3,42257	14,8
     42,1276	     3,38725	15,3	     3,41976	14,7
     42,1305	     3,38184	15,2	     3,41294	15,0
     42,1334	     3,37291	15,7	      3,4058	15,3
     42,1364	     3,36612	15,5	     3,39882	15,1
     42,1393	     3,36397	15,4	     3,39303	15,1
     42,1422	     3,35547	16,1	     3,38651	15,7
     42,1452	     3,34556	15,8	     3,38023	15,4
     42,1481	     3,33922	16,2	     3,37385	15,9
      42,151	     3,33486	16,3	     3,36943	16,0
      42,154	     3,32444	16,2	     3,36011	15,8
     42,1569	     3,32086	16,4	     3,35176	16,3
     42,1598	     3,31414	16,9	     3,34825	16,1
     42,1628	     3,30942	16,8	     3,34079	16,1
     42,1657	     3,30245	16,8	      3,3344	16,6
     42,1686	     3,29408	17,3	     3,32833	16,7
     42,1716	     3,28771	17,1	     3,32459	16,6
     42,1745	      3,2863	17,5	     3,32146	16,9
     42,1774	     3,27697	17,6	     3,31449	16,6
     42,1804	     3,27317	17,5	     3,30153	16,9
     42,1833	     3,26944	17,8	     3,29799	17,3
     42,1862	     3,26271	17,4	     3,29584	17,0
     42,1891	     3,25454	17,7	       3,292	17,5
     42,1921	     3,24885	17,9	      3,2828	17,6
      42,195	     3,24378	18,0	     3,27863	17,3
     42,1979	     3,23929	18,0	      3,2737	17,9
     42,2009	     3,23211	18,3	     3,26677	17,7
     42,2038	     3,22276	18,2	     3,25739	18,2
     42,2067	     3,21875	18,2	     3,25329	18,3
     42,2097	     3,21389	18,7	     3,24639	18,2
     42,2126	     3,20369	18,5	     3,23919	18,6
     42,2155	     3,20018	18,6	     3,23093	18,5
     42,2185	      3,1923	19,0	     3,22639	18,6
     42,2214	     3,18386	18,8	     3,22097	18,9
     42,2243	      3,1779	19,4	     3,21161	18,8
     42,2273	     3,17265	19,3	     3,20753	18,9
     42,2302	     3,16778	19,4	     3,20342	19,1
     42,2331	     3,16188	19,8	     3,19632	19,0
     42,2361	     3,15673	19,6	     3,19171	19,2
      42,239	     3,15254	20,0	     3,18925	19,3
     42,2419	     3,14176	20,3	     3,18096	19,4
     42,2449	     3,13752	20,2	     3,17457	19,5
     42,2478	     3,13361	20,0	     3,16865	19,7
     42,2507	     3,12905	20,1	     3,16428	19,7
     42,2537	     3,11969	20,1	     3,15534	20,2
     42,2566	     3,11628	20,4	     3,14896	19,9
     42,2595	     3,10628	20,3	     3,14212	20,4
     42,2625	     3,10027	20,3	     3,13413	20,5
     42,2654	     3,09452	20,8	     3,13397	20,3
     42,2683	     3,08617	20,8	     3,12359	20,8
     42,2713	     3,08204	21,4	     3,11607	20,7
     42,2742	     3,07625	21,3	     3,11042	21,0
     42,2771	     3,06786	21,2	     3,10844	20,8
     42,2801	     3,06045	21,8	     3,10258	20,9
      42,283	     3,05884	21,6	     3,09471	21,2
     42,2859	     3,05236	21,6	     3,09085	21,0
     42,2889	     3,04304	22,0	     3,08552	21,2
     42,2918	     3,04104	21,8	     3,08073	21,5
     42,2947	     3,03582	21,9	     3,07266	21,6
     42,2977	     3,03005	21,9	     3,06509	21,6
     42,3006	     3,02217	22,0	      3,0587	21,8
     42,3035	     3,01717	22,2	      3,0503	22,0
     42,3064	      3,0088	22,1	     3,04282	22,4
     42,3094	     3,00323	22,2	      3,0398	22,1
     42,3123	     2,99462	22,8	     3,03283	22,4
     42,3153	      2,9901	22,6	     3,02619	22,1
     42,3182	     2,98379	22,9	     3,02283	22,2
     42,3211	      2,9751	23,2	     3,01367	22,7
      42,324	     2,96903	22,9	     3,01324	22,2
      42,327	     2,96845	23,2	     3,00772	22,9
     42,3299	     2,96013	23,2	     3,00358	22,6
     42,3328	     2,95857	23,3	      2,9943	23,1
     42,3358	     2,95061	23,3	     2,98815	23,2
     42,3387	     2,94214	23,2	     2,98204	23,2
     42,3416	      2,9339	23,7	     2,97323	23,6
     42,3446	     2,93064	23,5	     2,96921	23,4
     42,3475	     2,92359	23,7	     2,96163	23,6
     42,3504	     2,91523	24,1	     2,95461	24,1
     42,3534	     2,90751	23,8	     2,95108	23,6
     42,3563	     2,90149	24,4	     2,94676	23,9
     42,3592	     2,89637	24,3	     2,94212	23,7
     42,3622	     2,89465	24,2	     2,93394	23,8
     42,3651	     2,89021	24,2	     2,92967	24,2
      42,368	     2,88234	24,4	     2,92264	24,3
      42,371	     2,87716	24,5	     2,91425	24,6
     42,3739	     2,87036	24,4	     2,90982	24,2
     42,3768	     2,86185	24,8	     2,90126	24,6
     42,3798	     2,85557	24,9	     2,89356	24,9
     42,3827	     2,84973	25,2	      2,8875	24,5
     42,3856	     2,84322	25,2	      2,8907	24,8
     42,3886	     2,83726	25,2	     2,87994	24,8
     42,3915	     2,83529	25,4	     2,87687	25,0
     42,3944	      2,8323	25,3	     2,87019	25,1
     42,3974	     2,82519	25,3	     2,86161	25,5
     42,4003	     2,81717	25,5	     2,85602	25,6
     42,4032	     2,81116	25,5	     2,85222	25,5
     42,4062	     2,80184	25,9	     2,84344	25,9
     42,4091	     2,79853	25,9	      2,8384	25,7
      42,412	     2,79134	25,7	     2,83476	25,9
      42,415	     2,78095	26,3	     2,82514	26,1
     42,4179	     2,78269	26,1	      2,8221	25,7
     42,4208	     2,77491	26,2	     2,81804	26,1
     42,4238	     2,76553	26,6	     2,81155	26,1
     42,4267	     2,76478	26,3	     2,80289	26,7
     42,4296	     2,75902	26,6	     2,79919	26,5
     42,4326	     2,75184	26,4	     2,79198	26,5
     42,4355	     2,75036	26,6	     2,78274	26,8
     42,4384	     2,74044	26,7	     2,77649	26,6
     42,4413	      2,7341	26,9	     2,77492	26,8
     42,4443	     2,72573	27,4	      2,7678	26,8
     42,4472	     2,72206	27,1	     2,76408	26,9
     42,4501	     2,71508	27,4	     2,75803	26,9
     42,4531	     2,71294	27,4	     2,75266	27,4
      42,456	     2,71077	27,4	     2,74457	27,4
     42,4589	     2,70404	27,5	     2,73893	27,2
     42,4619	     2,69232	27,7	     2,72953	28,0
     42,4648	     2,68936	27,7	     2,72611	27,4
     42,4677	     2,68149	27,8	     2,72322	27,7
     42,4707	     2,67856	28,3	     2,71802	27,5
     42,4736	      2,6743	28,1	     2,71065	28,0
     42,4765	     2,66873	28,2	      2,7075	27,9
     42,4795	     2,66176	28,8	     2,69957	27,9
     42,4824	     2,65757	28,1	     2,69123	28,4
     42,4853	     2,65166	28,5	     2,68476	28,2
     42,4883	      2,6439	28,5	      2,6781	28,6
     42,4912	      2,6373	29,1	     2,67332	28,5
     42,4941	     2,63064	28,8	     2,67145	28,3
     42,4971	     2,62406	29,0	     2,66575	28,3
        42,5	     2,61923	29,2	     2,65859	29,0
     42,5029	     2,61815	28,9	     2,65462	28,8
     42,5059	     2,61133	29,1	     2,64585	29,0
     42,5088	     2,60837	28,8	     2,63979	29,4
     42,5117	     2,59801	29,3	      2,6339	28,8
     42,5147	     2,59103	29,4	     2,62635	29,4
     42,5176	     2,58481	29,8	     2,62453	29,1
     42,5205	     2,58291	29,5	     2,62119	29,3
     42,5235	     2,57305	29,7	     2,61324	29,3
     42,5264	     2,57226	29,8	     2,60581	29,7
     42,5293	     2,56745	29,7	     2,60116	30,0
     42,5323	     2,56302	29,9	      2,5937	29,8
     42,5352	     2,55445	29,9	     2,58886	30,1
     42,5381	     2,54582	30,4	      2,5834	29,5
     42,5411	     2,54012	30,3	     2,58181	30,0
      42,544	     2,53869	30,6	     2,57335	29,9
     42,5469	     2,52855	30,6	     2,56852	30,2
     42,5499	     2,52631	30,3	     2,56652	30,4
     42,5528	     2,51935	30,3	     2,55219	30,5
     42,5557	     2,51164	30,8	     2,55108	30,4
     42,5587	     2,50688	30,9	     2,54319	30,6
     42,5616	     2,49756	30,9	     2,54102	30,8
     42,5645	     2,49343	31,3	     2,53579	30,5
     42,5674	     2,49351	30,6	      2,5305	30,9
     42,5704	     2,48856	31,1	     2,52311	31,0
     42,5733	     2,48444	31,1	     2,51747	31,1
     42,5762	     2,47556	31,3	     2,50789	31,2
     42,5792	     2,46697	31,4	     2,50617	31,2
     42,5821	     2,46346	31,9	     2,49954	31,4
      42,585	     2,45506	31,9	     2,49928	31,1
      42,588	     2,45484	31,4	     2,48939	31,5
     42,5909	     2,45108	31,7	     2,48344	31,7
     42,5938	     2,44154	31,6	     2,47525	31,7
     42,5968	     2,43345	32,2	     2,47068	31,8
     42,5997	     2,42994	31,8	      2,4646	32,0
     42,6026	     2,42431	32,3	     2,46261	31,6
     42,6056	     2,41901	32,1	     2,45914	32,0
     42,6085	     2,41686	32,3	     2,45445	31,8
     42,6114	     2,41217	32,2	      2,4473	32,5
     42,6144	     2,40487	32,1	     2,43651	32,4
     42,6173	     2,39232	32,3	     2,43274	32,6
     42,6202	     2,38679	32,7	     2,43073	32,0
     42,6232	     2,38662	32,5	      2,4216	32,4
     42,6261	     2,38486	32,4	     2,42042	32,4
      42,629	     2,37696	32,8	      2,4119	32,9
      42,632	      2,3746	32,5	     2,40756	32,8
     42,6349	      2,3619	33,0	     2,39798	32,9
     42,6378	     2,35897	33,2	     2,39522	32,9
     42,6408	     2,34885	33,5	     2,39026	32,7
     42,6437	     2,34695	32,9	     2,38787	33,1
     42,6466	     2,34352	33,1	      2,3824	32,9
     42,6496	     2,33667	32,9	     2,37435	33,6
     42,6525	     2,33156	33,6	     2,36383	33,4
     42,6554	     2,32563	33,4	     2,36441	33,5
     42,6584	     2,31955	33,9	     2,35716	33,3
     42,6613	     2,31706	33,4	     2,35376	33,6
     42,6642	     2,31121	33,6	     2,35024	33,4
     42,6672	     2,30625	33,6	     2,34109	34,1
     42,6701	     2,30183	33,7	     2,33288	33,9
      42,673	     2,29394	34,1	      2,3276	34,2
      42,676	     2,29043	34,2	     2,32711	33,7
     42,6789	     2,28856	33,8	     2,32306	34,2
     42,6818	     2,28122	34,1	     2,31981	33,9
     42,6847	     2,27628	34,2	     2,30816	34,6
     42,6877	     2,26813	34,3	     2,30307	34,2
     42,6906	     2,26358	34,7	     2,30015	34,4
     42,6936	     2,26394	34,4	     2,29455	34,4
     42,6965	      2,2566	34,8	     2,29062	34,2
     42,6994	     2,25064	34,4	     2,28462	34,5
     42,7023	     2,24234	34,7	     2,27489	35,2
     42,7053	     2,23558	34,9	     2,27108	35,1
     42,7082	     2,23278	35,1	     2,26576	35,1
     42,7111	     2,22444	34,9	     2,26524	34,7
     42,7141	     2,22475	35,0	     2,25983	35,2
      42,717	      2,2195	34,8	     2,25009	35,2
     42,7199	      2,2096	35,3	      2,2433	35,2
     42,7229	     2,20365	35,3	     2,23621	35,5
     42,7258	     2,19998	35,6	     2,23727	35,2
     42,7287	     2,19859	35,2	     2,23409	35,2
     42,7317	     2,19426	35,4	      2,2324	35,4
     42,7346	     2,18745	35,7	     2,22119	35,7
     42,7375	     2,18252	35,9	     2,21102	35,8
     42,7405	     2,17321	35,8	     2,20998	35,7
     42,7434	     2,17307	35,8	     2,20973	35,9
     42,7463	     2,16948	35,6	     2,20545	35,6
     42,7493	     2,16345	35,9	     2,19497	36,1
     42,7522	     2,15371	35,9	     2,18623	36,0
     42,7551	     2,14608	36,4	     2,18083	36,2
     42,7581	     2,14832	35,7	     2,18062	36,0
      42,761	     2,14306	36,1	     2,17789	36,1
     42,7639	      2,1369	35,9	     2,17207	36,4
     42,7669	     2,13086	36,5	      2,1589	36,7
     42,7698	     2,12295	36,5	     2,15403	36,5
     42,7727	     2,12223	36,4	     2,15212	36,6
     42,7757	     2,11871	36,3	     2,15064	36,1
     42,7786	     2,11305	36,5	     2,14653	36,4
     42,7815	     2,10208	36,7	     2,13756	36,6
     42,7845	     2,10072	36,8	     2,12795	37,0
     42,7874	     2,09514	37,0	     2,12708	36,6
     42,7903	     2,09355	36,9	     2,12572	36,8
     42,7933	     2,08975	36,7	     2,11762	36,6
     42,7962	     2,07787	37,3	     2,11178	37,0
     42,7991	      2,0736	37,1	     2,10375	37,1
     42,8021	     2,06973	37,5	     2,09743	37,2
      42,805	     2,07159	37,0	     2,09475	36,8
     42,8079	     2,06668	37,3	     2,09509	37,2
     42,8109	     2,05855	37,6	     2,08376	37,1
     42,8138	     2,05063	37,8	     2,08152	37,2
     42,8167	     2,04833	37,6	     2,06999	37,1
     42,8196	     2,04704	37,5	      2,0679	37,1
     42,8226	      2,0407	37,8	      2,0654	36,7
     42,8255	     2,03601	37,8	     2,05679	37,4
     42,8284	     2,02593	38,1	     2,04835	37,5
     42,8314	     2,02338	37,9	      2,0461	37,7
     42,8343	     2,02275	37,8	     2,04523	37,2
     42,8372	     2,01601	38,0	     2,04307	37,5
     42,8402	     2,00959	38,1	     2,03074	37,8
     42,8431	     2,00381	38,2	     2,02554	38,2
      42,846	     2,00217	38,2	     2,02405	37,8
      42,849	     1,99952	37,9	     2,02416	37,6
     42,8519	     1,98966	38,8	     2,01752	37,6
     42,8548	      1,9846	38,4	      2,0111	38,0
     42,8578	     1,97931	38,8	     2,00275	38,3
     42,8607	     1,97935	38,3	     2,00262	37,9
     42,8636	     1,97407	38,6	     1,99932	38,2
     42,8666	     1,96869	38,3	     1,99536	37,9
     42,8695	     1,95956	39,1	      1,9863	38,6
     42,8724	     1,96006	38,7	     1,97772	38,1
     42,8754	     1,95778	38,9	      1,9813	38,3
     42,8783	     1,94897	39,1	     1,97495	38,1
     42,8812	      1,9436	39,2	     1,96689	38,7
     42,8842	     1,93818	39,2	     1,96011	38,6
     42,8871	     1,93955	38,9	     1,95708	38,8
       42,89	     1,93394	39,5	     1,95487	38,4
      42,893	      1,9265	39,1	     1,95121	38,7
     42,8959	     1,91879	39,6	     1,94134	39,1
     42,8988	      1,9194	39,2	     1,93675	39,0
     42,9018	     1,91883	39,3	     1,93579	38,9
     42,9047	      1,9115	39,2	     1,93137	38,8
     42,9076	     1,89862	39,9	     1,92947	39,1
     42,9106	     1,89958	39,6	     1,91744	39,2
     42,9135	     1,89953	39,6	     1,91492	39,4
     42,9164	      1,8956	39,6	     1,91378	38,9
     42,9194	     1,88625	40,1	     1,90837	39,7
     42,9223	     1,87916	40,0	     1,90518	39,3
     42,9252	     1,88175	39,8	     1,89341	39,8
     42,9282	     1,87248	40,1	     1,89327	39,3
     42,9311	     1,86958	40,0	     1,88626	39,6
      42,934	     1,86386	40,6	     1,88549	39,5
      42,937	     1,86198	40,0	     1,87898	39,9
     42,9399	     1,85971	40,0	     1,87554	39,7
     42,9428	     1,85441	40,2	     1,87447	39,5
     42,9457	     1,84395	40,7	     1,86723	39,8
     42,9487	     1,84054	40,5	     1,86114	40,0
     42,9516	     1,84187	40,4	     1,85327	40,4
     42,9545	     1,83402	40,7	     1,85427	39,8
     42,9575	     1,82984	40,8	     1,84946	40,2
     42,9604	     1,82115	40,8	     1,83906	40,5
     42,9633	     1,82274	40,6	     1,83656	40,8
     42,9663	     1,81904	40,6	     1,83386	40,4
     42,9692	     1,80977	41,0	     1,83189	40,2
     42,9721	     1,80337	41,4	     1,82771	40,4
     42,9751	     1,80306	40,7	     1,81846	40,7
      42,978	     1,80184	41,0	     1,81867	40,6
     42,9809	     1,79178	41,1	     1,81439	40,5
     42,9839	     1,79136	41,4	     1,81004	40,8
     42,9868	     1,78468	41,3	     1,80003	40,9
     42,9897	     1,78472	40,9	     1,80013	40,7
     42,9927	     1,77631	41,6	     1,79733	40,9
     42,9956	     1,77078	41,4	     1,79409	40,8
     42,9985	      1,7707	41,1	     1,78331	41,4
     43,0015	     1,76646	41,0	     1,77915	41,0
     43,0044	     1,75897	41,6	     1,77947	41,1
     43,0073	     1,75483	41,7	     1,77291	41,3
     43,0103	     1,75452	41,1	     1,76583	41,5
     43,0132	     1,74841	41,4	     1,75936	41,3
     43,0161	     1,74394	41,6	     1,76323	41,3
     43,0191	     1,73401	42,2	     1,75616	41,5
      43,022	     1,73512	41,4	     1,75432	41,5
     43,0249	     1,73165	41,4	     1,74389	41,7
     43,0279	     1,72733	41,7	     1,74654	41,2
     43,0308	     1,71796	42,0	     1,74025	41,5
     43,0337	     1,72245	41,7	     1,73315	42,1
     43,0367	     1,71676	41,7	      1,7274	42,2
     43,0396	      1,7116	42,2	     1,72789	41,6
     43,0425	     1,70359	42,2	     1,72159	41,8
     43,0455	     1,70525	41,8	     1,71625	42,4
     43,0484	     1,69959	42,2	     1,71151	41,9
     43,0513	       1,693	42,3	     1,71345	42,0
     43,0543	     1,68696	42,6	     1,70766	41,8
     43,0572	     1,68704	41,8	      1,6983	42,5
     43,0601	     1,68272	42,5	     1,69773	42,3
      43,063	      1,6775	42,6	     1,69577	41,9
      43,066	     1,67141	43,0	     1,68901	42,9
     43,0689	     1,67176	42,2	     1,68422	42,5
     43,0718	      1,6662	42,5	     1,68145	42,7
     43,0748	     1,66175	42,8	     1,67844	42,1
     43,0777	     1,65826	42,7	     1,67128	42,8
     43,0806	     1,65675	42,7	     1,66785	43,0
     43,0836	     1,65005	42,7	     1,66631	42,6
     43,0865	     1,64568	42,9	     1,66299	42,6
     43,0894	     1,64866	42,8	     1,65202	43,0
     43,0924	     1,64287	42,7	     1,65283	42,7
     43,0953	     1,63684	43,4	      1,6504	42,8
     43,0982	     1,63156	43,0	     1,64969	42,7
     43,1012	     1,62935	43,0	     1,63793	43,4
     43,1041	     1,62743	42,8	     1,63801	42,6
      43,107	     1,61853	43,4	     1,63555	42,8
       43,11	     1,61891	43,4	     1,62715	43,3
     43,1129	     1,61697	43,0	     1,62279	43,5
     43,1158	     1,60516	43,8	     1,62187	43,2
     43,1188	     1,60399	43,6	     1,62013	42,8
     43,1217	     1,60614	43,4	     1,61059	43,9
     43,1246	     1,59827	43,7	     1,61185	43,2
     43,1276	     1,58953	43,7	     1,60702	43,4
     43,1305	     1,58702	44,0	     1,60319	43,5
     43,1334	      1,5912	43,2	      1,5984	43,6
     43,1364	     1,58114	43,8	     1,59485	43,8
     43,1393	      1,5756	44,1	     1,59214	43,2
     43,1422	     1,57911	43,4	     1,58529	44,0
     43,1452	     1,57638	43,7	     1,58048	43,9
     43,1481	     1,56469	43,7	     1,58224	43,4
      43,151	     1,56324	44,1	     1,57875	43,9
      43,154	     1,56351	44,0	     1,56907	43,8
     43,1569	     1,55835	43,7	     1,57027	43,8
     43,1598	     1,54986	44,6	     1,56725	43,9
     43,1628	     1,55432	43,8	     1,55876	44,0
     43,1657	     1,54742	44,2	     1,55603	44,6
     43,1686	     1,54202	44,5	     1,55668	43,8
     43,1716	     1,53772	44,2	      1,5508	44,3
     43,1745	     1,53752	44,2	      1,5432	44,5
     43,1774	     1,53072	44,4	     1,54554	43,8
     43,1804	      1,5291	44,2	     1,54131	44,3
     43,1833	     1,52817	44,5	     1,53302	44,4
     43,1862	      1,5217	44,4	     1,53327	44,2
     43,1891	     1,51585	45,0	      1,5297	44,5
     43,1921	     1,51623	44,2	     1,52858	44,2
      43,195	     1,51284	44,4	      1,5181	45,1
     43,1979	     1,50662	44,9	     1,52055	44,2
     43,2009	     1,50382	44,7	     1,51315	44,4
     43,2038	     1,50305	44,7	     1,50624	45,1
     43,2067	     1,49965	44,6	     1,50355	44,6
     43,2097	     1,49094	45,2	     1,50634	44,6
     43,2126	     1,49206	44,9	     1,49789	45,1
     43,2155	     1,48672	44,6	     1,49961	44,5
     43,2185	     1,47784	45,2	      1,4943	44,8
     43,2214	     1,48313	44,9	     1,48661	44,9
     43,2243	     1,47828	44,7	     1,48677	44,9
     43,2273	     1,47072	45,2	     1,48083	45,1
     43,2302	     1,46863	45,3	     1,48184	44,8
     43,2331	     1,46928	44,9	     1,47255	45,6
     43,2361	     1,45793	45,7	     1,47428	44,9
      43,239	     1,45721	45,5	      1,4668	45,2
     43,2419	     1,45762	45,2	     1,46535	45,6
     43,2449	     1,45191	45,6	     1,46231	45,1
     43,2478	      1,4497	45,4	     1,46152	45,1
     43,2507	     1,44518	45,8	     1,45172	45,7
     43,2537	     1,44348	45,1	       1,449	45,6
     43,2566	     1,43524	45,9	     1,44967	45,3
     43,2595	     1,44014	45,5	     1,44233	45,5
     43,2625	     1,43594	45,2	     1,43932	45,6
     43,2654	      1,4262	46,1	      1,4367	45,8
     43,2683	     1,42737	45,8	     1,43634	45,2
     43,2713	     1,42617	45,3	     1,42766	46,0
     43,2742	      1,4186	46,3	     1,42861	45,6
     43,2771	     1,42008	45,7	     1,42493	45,6
     43,2801	     1,41741	45,7	     1,41943	45,9
      43,283	       1,408	46,1	      1,4159	45,8
     43,2859	     1,40467	45,9	      1,4175	45,6
     43,2889	     1,40947	45,9	     1,40851	46,2
     43,2918	      1,3972	46,7	     1,40424	46,1
     43,2947	     1,39445	46,4	     1,40839	45,7
     43,2977	     1,39775	46,1	     1,39887	46,5
     43,3006	     1,39103	46,2	     1,39742	45,8
     43,3035	     1,38707	46,4	     1,39693	46,0
     43,3064	     1,38862	46,3	     1,38849	46,3
     43,3094	     1,37904	46,6	     1,38734	46,0
     43,3123	      1,3771	46,7	     1,38733	46,1
     43,3153	     1,37925	46,3	      1,3815	46,0
     43,3182	     1,36893	46,5	     1,37576	46,5
     43,3211	     1,36546	46,9	     1,37902	46,1
      43,324	     1,37126	46,5	     1,36772	46,5
      43,327	      1,3623	46,3	     1,37052	46,2
     43,3299	     1,35703	47,0	     1,36853	46,2
     43,3328	     1,36137	46,6	     1,35955	46,2
     43,3358	     1,35536	46,6	     1,35693	46,8
     43,3387	     1,34754	47,0	     1,35899	46,4
     43,3416	      1,3498	46,6	     1,35174	46,3
     43,3446	     1,34078	46,8	     1,34767	47,2
     43,3475	     1,33964	47,3	     1,35097	46,4
     43,3504	     1,34037	46,6	     1,34172	46,8
     43,3534	     1,33392	46,9	      1,3403	46,9
     43,3563	        1,33	47,4	     1,33851	46,5
     43,3592	     1,32831	46,8	     1,33227	46,9
     43,3622	     1,32942	47,1	     1,33224	46,8
     43,3651	     1,32211	47,6	     1,33103	46,7
      43,368	     1,32555	46,6	     1,32742	46,8
      43,371	     1,31433	47,3	     1,32033	47,5
     43,3739	     1,31584	47,3	     1,32288	46,6
     43,3768	     1,31239	46,7	     1,31152	47,4
     43,3798	     1,30764	47,4	     1,31069	47,4
     43,3827	      1,3061	47,5	      1,3129	46,7
     43,3856	     1,30541	47,2	     1,30505	47,4
     43,3886	     1,30104	47,6	     1,30541	47,4
     43,3915	      1,2955	47,8	     1,30639	46,8
     43,3944	     1,29612	47,0	     1,29597	47,5
     43,3974	     1,28852	47,7	     1,29533	47,4
     43,4003	     1,28624	47,9	     1,29389	47,1
     43,4032	     1,28846	47,1	     1,28715	47,6
     43,4062	     1,27734	47,7	     1,28915	47,5
     43,4091	     1,27803	47,9	      1,2859	47,1
      43,412	     1,27986	47,2	     1,27759	47,6
      43,415	     1,26973	48,0	     1,27449	47,8
     43,4179	     1,27383	47,6	     1,27819	47,2
     43,4208	     1,26901	47,5	     1,26948	48,0
     43,4238	     1,26266	48,0	     1,27088	47,5
     43,4267	     1,26322	47,8	     1,26919	47,2
     43,4296	     1,26334	47,6	     1,26174	48,2
     43,4326	     1,25649	48,3	     1,26275	47,4
     43,4355	     1,25782	47,7	     1,25445	48,1
     43,4384	     1,24848	48,0	     1,25898	47,4
     43,4413	     1,24683	48,5	     1,25337	47,7
     43,4443	     1,24917	47,8	     1,24721	47,9
     43,4472	     1,24381	48,0	     1,24841	47,9
     43,4501	     1,24372	47,8	     1,24449	47,9
     43,4531	     1,24272	47,6	     1,23885	48,1
      43,456	     1,23499	48,2	     1,23993	47,9
     43,4589	     1,23157	48,4	     1,23694	48,0
     43,4619	     1,23341	48,0	     1,23095	48,1
     43,4648	     1,22617	48,3	     1,23271	48,1
     43,4677	     1,22503	48,4	     1,22938	48,0
     43,4707	     1,22567	48,0	     1,22066	48,4
     43,4736	     1,21781	48,5	     1,22731	47,7
     43,4765	     1,22089	48,0	     1,21884	48,2
     43,4795	     1,21159	48,8	     1,21274	48,4
     43,4824	     1,20701	48,5	      1,2187	47,9
     43,4853	     1,21277	48,1	     1,20699	48,7
     43,4883	     1,20722	49,1	     1,21128	48,0
     43,4912	     1,20184	48,4	     1,20426	48,4
     43,4941	     1,20364	48,3	     1,20091	49,1
     43,4971	     1,19754	48,9	     1,20113	48,3
        43,5	     1,19024	48,7	     1,19112	48,3

