X-Data [Hz]	Laser (M - Filtered) [m/s]	Phase [Deg]	Laser (M - Filtered) [m/s]	Phase [Deg]	
	003: [06-27-24 09:52]		005: [06-27-24 09:56]	
         155	   0,0308269	58,1	   0,0298282	58,9
     155,029	   0,0336059	58,9	   0,0299847	56,9
     155,059	   0,0345807	59,3	   0,0307967	58,0
     155,088	   0,0351809	59,8	    0,030989	59,0
     155,117	   0,0350884	60,7	   0,0309618	55,8
     155,147	   0,0354229	57,9	   0,0311065	55,7
     155,176	   0,0354652	57,5	   0,0309913	55,9
     155,205	   0,0356114	57,9	   0,0306301	59,0
     155,235	   0,0365766	59,9	   0,0310329	57,2
     155,264	   0,0377125	58,2	   0,0308743	60,3
     155,293	   0,0380571	55,4	   0,0315406	58,3
     155,323	   0,0382149	56,2	    0,032071	56,7
     155,352	   0,0385413	59,1	   0,0324328	59,1
     155,381	   0,0385249	60,4	   0,0327221	57,9
     155,411	   0,0388762	59,0	    0,032986	56,5
      155,44	    0,039293	57,2	   0,0330498	57,0
     155,469	   0,0397171	57,9	    0,032492	57,6
     155,499	   0,0393791	59,5	    0,032999	56,3
     155,528	   0,0397962	61,0	   0,0333815	57,3
     155,557	   0,0400683	60,8	   0,0336904	56,6
     155,587	   0,0406329	58,2	   0,0344225	55,9
     155,616	   0,0409038	59,6	   0,0340552	58,0
     155,645	    0,041018	58,9	   0,0340723	58,0
     155,674	   0,0416433	59,2	   0,0342295	56,8
     155,704	   0,0421551	58,5	   0,0345616	60,5
     155,733	   0,0419157	59,5	   0,0349917	57,9
     155,762	   0,0427235	56,1	   0,0350494	57,9
     155,792	   0,0433503	62,7	   0,0351291	60,0
     155,821	   0,0432752	58,7	   0,0356784	54,9
      155,85	   0,0437787	58,3	   0,0359655	60,5
      155,88	   0,0442097	57,9	   0,0360585	59,1
     155,909	   0,0447074	59,5	   0,0365203	57,1
     155,938	   0,0453856	59,8	   0,0367337	57,3
     155,968	   0,0457584	60,4	   0,0369908	56,5
     155,997	   0,0455721	58,5	   0,0378323	59,3
     156,026	   0,0459982	58,0	   0,0381483	58,7
     156,056	   0,0464965	58,0	    0,038028	58,7
     156,085	   0,0467296	58,0	   0,0380862	57,5
     156,114	    0,047157	59,8	    0,038851	58,2
     156,144	   0,0480107	57,2	   0,0392289	56,9
     156,173	   0,0483248	57,0	   0,0392442	58,3
     156,202	    0,048563	61,1	   0,0396739	56,4
     156,232	   0,0494303	60,2	   0,0399962	58,4
     156,261	   0,0494223	59,5	    0,040639	56,6
      156,29	   0,0504249	60,6	   0,0414796	59,2
      156,32	   0,0508438	61,0	   0,0414452	59,5
     156,349	   0,0519312	59,7	   0,0415664	58,0
     156,378	   0,0523602	60,5	    0,041387	58,7
     156,408	   0,0519545	57,6	   0,0421309	57,0
     156,437	   0,0527468	59,5	   0,0422869	58,3
     156,466	   0,0523984	59,8	   0,0429482	59,0
     156,496	   0,0532774	59,9	   0,0435099	58,0
     156,525	   0,0548903	58,4	   0,0436282	57,1
     156,554	   0,0547403	60,3	   0,0446742	58,4
     156,584	   0,0559633	58,8	   0,0442567	56,8
     156,613	   0,0559725	58,6	     0,04473	59,6
     156,642	   0,0568355	57,8	   0,0453489	58,3
     156,672	   0,0569467	58,6	   0,0460312	58,4
     156,701	   0,0586701	59,2	   0,0458663	57,1
      156,73	   0,0588459	60,1	   0,0467535	57,0
      156,76	   0,0594648	59,2	    0,047732	58,7
     156,789	   0,0596349	59,0	   0,0482309	58,0
     156,818	   0,0605356	59,3	   0,0477404	58,9
     156,848	   0,0606989	59,2	   0,0482612	59,4
     156,877	   0,0632245	58,8	   0,0495549	56,5
     156,906	   0,0621986	61,5	   0,0493037	57,9
     156,935	   0,0636397	61,4	   0,0503248	57,9
     156,965	   0,0631632	59,9	   0,0506475	58,8
     156,994	     0,06506	60,8	   0,0509893	60,6
     157,023	   0,0663015	60,1	   0,0519208	60,4
     157,053	   0,0653678	62,6	   0,0530371	60,0
     157,082	    0,067601	60,7	   0,0531587	59,8
     157,111	   0,0682541	61,0	   0,0534305	58,5
     157,141	   0,0696109	59,2	   0,0538757	58,5
      157,17	   0,0697532	60,7	   0,0552236	57,2
     157,199	   0,0706188	60,8	   0,0561279	57,3
     157,229	   0,0717081	60,4	   0,0560456	59,8
     157,258	   0,0725544	59,9	   0,0562599	61,1
     157,287	   0,0734919	59,8	   0,0572205	60,3
     157,317	   0,0742564	61,7	   0,0577743	58,2
     157,346	   0,0766416	59,3	   0,0583094	59,8
     157,375	   0,0767448	60,6	    0,059048	61,1
     157,405	   0,0771876	61,4	   0,0599625	59,8
     157,434	   0,0785286	60,7	   0,0604985	58,3
     157,463	   0,0789384	60,3	   0,0608323	60,4
     157,493	   0,0803528	63,8	   0,0625091	59,6
     157,522	   0,0814162	62,8	   0,0629169	58,4
     157,551	   0,0823365	61,1	   0,0634852	59,6
     157,581	   0,0844039	62,5	   0,0648058	60,0
      157,61	   0,0852048	62,8	   0,0655614	59,1
     157,639	   0,0858067	61,0	   0,0666905	60,4
     157,669	   0,0874668	61,4	   0,0667919	60,9
     157,698	   0,0882682	61,2	   0,0682873	61,7
     157,727	   0,0898035	62,6	   0,0689885	59,9
     157,757	   0,0909489	63,7	   0,0703935	61,2
     157,786	   0,0921103	62,4	   0,0711605	58,6
     157,815	   0,0935371	63,6	    0,071675	60,2
     157,845	   0,0945452	63,1	   0,0730258	61,0
     157,874	   0,0965941	62,6	   0,0741862	59,1
     157,903	   0,0973509	62,6	   0,0743975	60,1
     157,933	   0,0989768	62,3	   0,0756358	60,0
     157,962	    0,100616	63,5	   0,0764476	61,3
     157,991	    0,102504	62,7	   0,0780579	61,2
     158,021	    0,103247	63,0	   0,0782063	59,7
      158,05	    0,103973	63,8	   0,0806861	60,3
     158,079	    0,107302	62,0	   0,0806737	62,5
     158,109	    0,107308	63,1	   0,0818426	61,5
     158,138	    0,110261	66,3	   0,0837061	60,5
     158,167	    0,109961	64,5	   0,0841274	62,7
     158,196	    0,112354	64,1	   0,0855618	62,4
     158,226	    0,114006	63,8	   0,0863631	60,2
     158,255	    0,114392	64,7	   0,0891776	62,1
     158,284	    0,117236	65,2	   0,0894348	61,9
     158,314	    0,118159	63,9	   0,0903835	62,2
     158,343	     0,11989	66,1	   0,0925427	63,2
     158,372	    0,121511	64,2	   0,0925243	60,0
     158,402	    0,123415	65,6	   0,0955511	61,7
     158,431	    0,124938	65,8	   0,0960991	60,8
      158,46	    0,126886	65,9	   0,0987676	61,3
      158,49	    0,129288	65,4	    0,100066	65,3
     158,519	    0,130844	65,1	    0,102096	60,8
     158,548	     0,13214	65,5	    0,102488	64,4
     158,578	     0,13371	66,9	    0,103501	62,5
     158,607	    0,135489	65,4	    0,105561	64,4
     158,636	    0,136617	67,4	    0,106501	61,8
     158,666	    0,138569	66,5	    0,109269	62,8
     158,695	    0,140257	66,7	    0,110201	61,7
     158,724	    0,142158	65,8	    0,111771	64,7
     158,754	    0,144234	67,0	    0,113129	62,9
     158,783	    0,145977	67,2	    0,115163	63,5
     158,812	    0,147991	66,2	    0,117321	61,2
     158,842	    0,149659	67,0	    0,118405	64,5
     158,871	    0,151893	64,9	    0,120334	61,1
       158,9	    0,152711	67,6	    0,121148	65,1
      158,93	    0,155114	65,2	    0,122778	65,1
     158,959	    0,157152	69,6	    0,124857	65,5
     158,988	    0,158285	66,7	    0,127264	62,8
     159,018	    0,161199	68,4	    0,128432	64,7
     159,047	    0,160787	69,4	    0,129532	65,9
     159,076	    0,163377	67,5	    0,131452	62,2
     159,106	    0,165283	68,7	    0,133413	64,6
     159,135	    0,167088	68,8	    0,134111	62,7
     159,164	    0,169515	69,2	    0,136725	65,6
     159,194	    0,170221	67,1	    0,138614	67,6
     159,223	    0,173372	66,5	    0,139872	65,3
     159,252	    0,173719	70,3	    0,142784	66,1
     159,282	     0,17656	70,3	     0,14352	66,3
     159,311	    0,178442	67,8	    0,146272	67,0
      159,34	    0,179842	71,6	    0,148103	66,2
      159,37	    0,180864	69,6	    0,149441	64,7
     159,399	    0,182647	70,2	    0,151954	66,4
     159,428	    0,184948	71,7	    0,152847	66,9
     159,457	    0,186616	70,4	    0,155186	68,2
     159,487	    0,188596	69,6	    0,156856	67,7
     159,516	    0,189567	71,2	    0,159556	65,6
     159,545	    0,191461	70,6	    0,161112	68,5
     159,575	     0,19307	70,5	    0,161979	68,7
     159,604	    0,194643	71,8	    0,163627	66,1
     159,633	    0,196244	71,1	    0,165919	68,2
     159,663	    0,197869	72,8	    0,167766	67,2
     159,692	    0,200368	73,1	    0,169111	66,2
     159,721	    0,202411	70,0	    0,171321	67,8
     159,751	    0,204613	68,0	     0,17461	65,8
      159,78	    0,205251	74,4	    0,176067	69,2
     159,809	    0,207959	72,9	    0,176653	68,6
     159,839	    0,208526	70,4	    0,179487	66,9
     159,868	    0,210716	72,8	    0,180751	67,2
     159,897	    0,211279	74,5	    0,182569	67,3
     159,927	    0,214399	72,0	     0,18444	70,6
     159,956	    0,215129	71,2	    0,186371	68,4
     159,985	    0,216816	73,1	    0,186817	70,1
     160,015	    0,218843	75,0	    0,188967	70,8
     160,044	    0,219685	72,0	    0,191693	69,4
     160,073	    0,222537	71,7	    0,192616	67,6
     160,103	    0,223374	72,3	    0,195133	69,0
     160,132	    0,225365	77,2	    0,196124	69,2
     160,161	    0,228067	70,8	    0,198487	71,9
     160,191	    0,229502	74,1	    0,199213	68,2
      160,22	    0,231308	71,4	     0,20077	71,2
     160,249	    0,232358	73,0	    0,201758	69,8
     160,279	    0,234416	73,5	    0,205042	68,4
     160,308	    0,235307	74,3	    0,205758	68,9
     160,337	    0,237356	72,7	    0,207225	71,0
     160,367	    0,238496	74,3	    0,208297	73,9
     160,396	    0,240616	73,5	    0,209529	71,0
     160,425	    0,241515	75,1	    0,212411	71,5
     160,455	    0,242868	74,8	    0,213629	70,5
     160,484	    0,244144	75,1	    0,214202	70,2
     160,513	    0,246176	72,3	    0,215138	72,1
     160,543	    0,248196	73,5	    0,216828	73,2
     160,572	    0,249288	72,1	     0,21801	71,4
     160,601	    0,251977	76,2	    0,220407	69,1
      160,63	    0,250986	77,3	    0,221036	70,6
      160,66	    0,253772	76,3	    0,223659	71,1
     160,689	    0,254332	77,7	    0,224723	74,5
     160,718	    0,256689	74,5	    0,226043	71,9
     160,748	    0,257793	77,3	     0,22818	73,4
     160,777	    0,259259	74,3	    0,228719	73,0
     160,806	    0,260357	74,7	    0,231056	71,5
     160,836	    0,261514	75,5	    0,231778	70,2
     160,865	    0,263216	77,2	    0,233933	73,3
     160,894	     0,26478	76,5	    0,234809	73,5
     160,924	    0,266501	75,8	    0,236129	75,1
     160,953	    0,268083	76,6	    0,237539	72,7
     160,982	    0,269047	76,3	    0,239443	75,5
     161,012	    0,270798	75,3	    0,217794	159,7
     161,041	    0,271886	74,0	    0,197232	-157,4
      161,07	    0,272847	76,4	    0,187169	-146,5
       161,1	    0,275428	76,6	    0,178946	-145,4
     161,129	    0,275754	74,5	    0,170877	-142,0
     161,158	    0,277444	75,7	    0,162479	-141,2
     161,188	    0,279084	77,2	    0,153223	-140,1
     161,217	    0,280251	74,9	    0,144162	-138,2
     161,246	    0,281609	77,3	    0,136241	-137,0
     161,276	    0,282476	76,8	    0,129569	-136,4
     161,305	    0,284047	79,2	     0,12417	-134,7
     161,334	    0,285124	76,3	    0,119444	-135,4
     161,364	    0,286676	78,9	    0,115627	-137,3
     161,393	    0,287553	77,1	    0,111889	-134,0
     161,422	     0,28962	77,6	    0,108463	-135,3
     161,452	    0,290148	80,0	     0,10488	-136,5
     161,481	    0,292352	76,7	    0,101752	-133,0
      161,51	    0,293311	78,1	   0,0991495	-130,7
      161,54	    0,294289	76,5	   0,0972113	-134,2
     161,569	    0,295814	76,9	   0,0947108	-132,8
     161,598	    0,297028	79,1	   0,0917654	-132,1
     161,628	    0,298003	77,8	   0,0905252	-131,7
     161,657	    0,300441	76,5	   0,0892832	-132,7
     161,686	    0,300411	76,5	   0,0886468	-131,9
     161,716	    0,301784	78,9	   0,0862136	-130,1
     161,745	    0,303945	80,1	   0,0834911	-132,6
     161,774	    0,304097	77,9	   0,0817473	-129,6
     161,804	    0,306074	79,3	   0,0809124	-130,5
     161,833	    0,307052	78,7	   0,0794667	-131,6
     161,862	    0,308942	78,5	   0,0778322	-132,7
     161,891	    0,309511	79,9	     0,07558	-133,8
     161,921	    0,310544	81,5	   0,0752712	-133,5
      161,95	    0,311686	82,2	    0,075171	-133,4
     161,979	    0,313834	81,9	   0,0737533	-128,9
     162,009	    0,314901	79,7	   0,0714269	-130,9
     162,038	    0,316388	79,6	   0,0698819	-130,6
     162,067	    0,317132	80,9	    0,070663	-129,7
     162,097	     0,31895	79,2	    0,070341	-128,7
     162,126	    0,319875	80,3	   0,0687965	-131,2
     162,155	    0,321265	82,6	   0,0675876	-131,0
     162,185	    0,322556	79,8	    0,066757	-132,9
     162,214	    0,324175	78,9	   0,0663783	-132,8
     162,243	    0,325061	80,5	   0,0647683	-130,3
     162,273	    0,327076	79,8	   0,0637943	-129,1
     162,302	     0,32773	80,3	    0,064292	-127,9
     162,331	    0,328723	80,3	   0,0637922	-129,5
     162,361	    0,329711	81,5	   0,0620403	-130,7
      162,39	    0,331147	82,9	    0,061646	-130,7
     162,419	    0,332762	79,2	   0,0612884	-129,7
     162,449	    0,333811	82,1	   0,0598124	-131,1
     162,478	    0,334556	83,4	   0,0585526	-129,8
     162,507	    0,335598	81,5	   0,0590785	-129,0
     162,537	    0,337954	82,0	   0,0589002	-130,6
     162,566	    0,338773	80,1	   0,0571642	-130,8
     162,595	    0,339787	79,3	   0,0575637	-129,8
     162,625	    0,340922	80,4	   0,0569379	-128,6
     162,654	    0,342037	84,1	   0,0557749	-130,7
     162,683	    0,343491	81,5	   0,0559688	-129,3
     162,713	    0,344171	81,6	   0,0551425	-130,4
     162,742	    0,346174	81,6	   0,0544772	-129,2
     162,771	    0,346429	83,6	   0,0548431	-126,9
     162,801	    0,348108	81,6	   0,0535493	-129,3
      162,83	    0,348946	82,4	   0,0531475	-131,2
     162,859	    0,350536	83,4	   0,0529241	-129,0
     162,889	    0,351617	81,5	   0,0523727	-127,9
     162,918	    0,352936	81,3	   0,0508233	-128,9
     162,947	    0,353265	82,7	   0,0506057	-131,6
     162,977	    0,354953	81,6	   0,0505686	-130,0
     163,006	    0,355802	82,7	   0,0503542	-129,1
     163,035	    0,356361	82,8	   0,0506328	-127,5
     163,065	    0,358279	82,8	   0,0494974	-131,2
     163,094	     0,35881	81,1	   0,0482249	-128,6
     163,123	    0,359669	84,2	     0,04822	-129,1
     163,152	    0,360857	85,7	   0,0470821	-128,8
     163,182	    0,362758	82,5	    0,047452	-128,4
     163,211	    0,363102	84,9	   0,0471092	-129,3
      163,24	     0,36436	87,4	   0,0464781	-127,8
      163,27	    0,365123	84,5	   0,0464853	-132,4
     163,299	    0,366027	83,8	     0,04603	-125,7
     163,328	     0,36736	84,2	   0,0453146	-130,4
     163,358	     0,36911	82,1	   0,0443243	-130,4
     163,387	    0,369462	83,0	   0,0451548	-127,0
     163,416	    0,370425	84,4	   0,0437445	-128,8
     163,446	    0,371611	81,6	   0,0442943	-128,8
     163,475	    0,373541	82,7	   0,0430264	-127,4
     163,504	    0,374314	84,1	   0,0431349	-129,8
     163,534	    0,374953	82,2	   0,0425096	-132,2
     163,563	    0,376543	85,2	    0,042878	-128,6
     163,592	    0,377616	85,4	   0,0421164	-127,7
     163,622	     0,37826	86,1	   0,0415214	-129,7
     163,651	    0,379367	85,2	   0,0412588	-129,9
      163,68	    0,380294	83,3	   0,0413291	-129,2
      163,71	    0,381314	85,3	   0,0405335	-127,9
     163,739	    0,383062	83,2	   0,0404842	-130,2
     163,768	    0,383751	85,2	   0,0403722	-127,4
     163,798	    0,384865	85,0	     0,03976	-130,8
     163,827	    0,386753	84,2	   0,0395648	-128,7
     163,856	    0,386547	86,1	   0,0400679	-128,8
     163,886	    0,387928	85,2	   0,0393229	-131,0
     163,915	    0,389675	85,0	   0,0394379	-127,8
     163,944	    0,389708	86,0	   0,0394082	-127,7
     163,974	    0,391239	85,3	   0,0384638	-126,8
     164,003	    0,392402	86,6	   0,0389991	-128,3
     164,032	    0,393255	84,0	    0,038006	-126,9
     164,062	    0,393989	88,4	   0,0377307	-133,2
     164,091	    0,395418	85,0	   0,0378987	-128,4
      164,12	    0,396439	88,0	   0,0366562	-128,7
      164,15	    0,397686	83,4	   0,0372619	-128,9
     164,179	     0,39822	86,4	   0,0368276	-124,9
     164,208	    0,399798	86,6	    0,036474	-128,7
     164,238	    0,399851	88,6	   0,0365472	-128,0
     164,267	    0,401744	85,7	   0,0362399	-128,5
     164,296	    0,402772	85,6	   0,0363628	-126,9
     164,326	    0,404418	83,7	   0,0350887	-128,9
     164,355	    0,404776	86,3	   0,0356984	-127,1
     164,384	    0,405612	87,2	   0,0353944	-128,6
     164,413	    0,406661	88,2	   0,0349956	-127,9
     164,443	     0,40839	82,9	   0,0345908	-127,5
     164,472	    0,408836	87,2	   0,0348206	-129,4
     164,501	    0,409901	88,1	   0,0341071	-128,1
     164,531	    0,410845	88,5	   0,0338669	-128,4
      164,56	    0,412105	86,8	   0,0345368	-130,0
     164,589	    0,413083	88,1	   0,0340187	-126,9
     164,619	    0,414454	88,6	    0,033928	-126,9
     164,648	     0,41571	84,9	    0,034007	-130,7
     164,677	    0,417366	85,1	   0,0335571	-128,1
     164,707	    0,418268	88,4	   0,0336604	-127,8
     164,736	    0,418987	88,2	   0,0326402	-126,7
     164,765	    0,419558	85,6	   0,0322687	-128,6
     164,795	    0,421172	88,3	   0,0327193	-129,6
     164,824	    0,421765	87,5	   0,0326259	-128,5
     164,853	    0,423423	86,8	    0,032824	-129,9
     164,883	    0,424265	88,8	   0,0327053	-126,5
     164,912	    0,424563	90,0	   0,0321187	-129,9
     164,941	    0,426886	88,6	   0,0316993	-131,0
     164,971	    0,427291	89,0	   0,0316469	-126,0
         165	    0,427749	88,9	   0,0310903	-128,6
     165,029	    0,429362	90,7	   0,0317324	-127,9
     165,059	    0,430048	88,9	   0,0316387	-128,2
     165,088	    0,432089	86,8	   0,0308095	-129,0
     165,117	    0,432515	90,7	   0,0305111	-129,5
     165,147	    0,433776	87,7	   0,0305534	-128,9
     165,176	    0,435804	88,5	   0,0308458	-128,0
     165,205	    0,435425	91,4	   0,0306193	-125,0
     165,235	    0,437011	88,7	   0,0300744	-124,5
     165,264	    0,438082	88,7	   0,0292409	-130,1
     165,293	    0,439414	92,4	   0,0303168	-127,9
     165,323	    0,440351	87,1	   0,0295716	-126,9
     165,352	    0,440894	91,8	    0,029208	-130,1
     165,381	    0,442173	92,0	   0,0296604	-125,5
     165,411	    0,442799	88,4	   0,0289444	-127,0
      165,44	    0,444114	89,0	   0,0288017	-128,6
     165,469	    0,445531	89,2	   0,0291089	-129,0
     165,499	    0,447471	89,1	    0,028959	-126,6
     165,528	    0,448034	89,9	   0,0289454	-129,8
     165,557	    0,448612	92,4	   0,0289684	-128,0
     165,587	    0,450281	89,3	   0,0285037	-126,2
     165,616	    0,450741	91,5	   0,0281926	-124,9
     165,645	    0,451705	88,2	   0,0277684	-129,9
     165,674	    0,452903	89,3	   0,0283213	-128,0
     165,704	    0,453667	91,8	   0,0283759	-125,6
     165,733	    0,454612	93,3	   0,0274271	-126,8
     165,762	    0,456196	90,5	   0,0271709	-127,1
     165,792	    0,456519	92,3	   0,0276319	-133,2
     165,821	    0,457445	91,0	   0,0277282	-128,0
      165,85	    0,458654	94,1	   0,0278005	-123,9
      165,88	    0,459756	90,1	   0,0275786	-127,3
     165,909	    0,460525	93,4	   0,0272781	-126,7
     165,938	    0,461647	91,6	    0,027023	-127,1
     165,968	    0,463013	92,5	   0,0267157	-127,0
     165,997	    0,463911	91,9	    0,026978	-126,3
     166,026	    0,464481	93,7	   0,0266345	-129,5
     166,056	    0,465617	89,8	    0,026425	-129,6
     166,085	    0,466241	92,0	   0,0263011	-126,0
     166,114	    0,467444	90,2	   0,0259027	-127,1
     166,144	    0,468684	91,3	   0,0260682	-125,6
     166,173	     0,46916	92,3	    0,026104	-130,2
     166,202	    0,469818	91,0	    0,025799	-128,6
     166,232	    0,470888	94,0	   0,0256842	-128,5
     166,261	    0,471629	92,1	    0,025441	-127,4
      166,29	    0,472317	94,8	   0,0255241	-126,4
      166,32	    0,473128	93,4	   0,0250635	-126,6
     166,349	    0,474784	91,1	   0,0249766	-127,8
     166,378	    0,475553	92,9	    0,024603	-129,6
     166,408	    0,476567	90,0	   0,0248748	-129,2
     166,437	    0,477273	92,0	   0,0246807	-128,8
     166,466	    0,478177	93,0	    0,024846	-128,6
     166,496	    0,479167	92,6	   0,0249003	-127,7
     166,525	    0,480139	94,8	   0,0246535	-124,4
     166,554	    0,480859	91,3	   0,0243719	-128,1
     166,584	    0,482225	93,5	   0,0242469	-126,6
     166,613	    0,482847	92,1	   0,0243377	-126,7
     166,642	    0,483356	93,9	   0,0239532	-129,3
     166,672	    0,484434	90,7	   0,0237306	-128,9
     166,701	    0,485651	90,3	   0,0243298	-127,8
      166,73	    0,486367	94,0	   0,0239918	-124,0
      166,76	    0,487535	93,7	   0,0242239	-126,5
     166,789	    0,488148	93,3	   0,0243638	-128,8
     166,818	    0,489467	94,0	   0,0237506	-125,5
     166,848	    0,490412	94,3	   0,0237872	-127,4
     166,877	    0,490475	95,2	    0,023009	-127,3
     166,906	    0,491879	94,1	   0,0230943	-128,0
     166,935	    0,492296	94,5	   0,0231488	-127,4
     166,965	    0,493725	94,9	   0,0236331	-124,2
     166,994	    0,494803	92,7	   0,0237611	-123,9
     167,023	    0,495521	95,8	   0,0237991	-125,4
     167,053	    0,496773	96,1	   0,0234523	-125,7
     167,082	    0,497832	93,1	   0,0236659	-125,5
     167,111	    0,499219	93,1	   0,0229447	-127,9
     167,141	    0,499184	95,9	   0,0227787	-126,1
      167,17	    0,499624	95,2	    0,022989	-126,4
     167,199	    0,500843	92,8	   0,0229515	-127,2
     167,229	    0,501405	95,2	   0,0227317	-127,5
     167,258	    0,501919	96,0	   0,0227495	-125,3
     167,287	    0,502787	96,5	   0,0222828	-128,7
     167,317	    0,503805	95,9	   0,0222988	-124,9
     167,346	    0,505412	93,4	   0,0225712	-125,7
     167,375	    0,506258	95,7	   0,0217917	-125,3
     167,405	    0,506948	97,8	   0,0216727	-125,7
     167,434	    0,507506	96,2	   0,0218487	-125,2
     167,463	    0,508116	95,8	   0,0219467	-126,9
     167,493	    0,509597	94,6	   0,0221116	-130,0
     167,522	    0,510929	93,3	    0,022098	-129,1
     167,551	     0,51181	92,7	   0,0218829	-128,1
     167,581	    0,512513	94,9	   0,0210615	-127,5
      167,61	    0,512893	95,3	   0,0213278	-127,6
     167,639	    0,513909	95,5	    0,021446	-126,7
     167,669	    0,514211	97,5	   0,0216647	-127,4
     167,698	    0,515695	94,5	   0,0211792	-127,2
     167,727	    0,516489	96,9	   0,0210523	-124,7
     167,757	    0,516753	96,8	   0,0211226	-129,8
     167,786	    0,517971	95,7	   0,0206069	-127,6
     167,815	    0,518478	95,4	   0,0210048	-127,9
     167,845	    0,519961	95,1	   0,0211424	-129,2
     167,874	    0,521306	93,1	   0,0210532	-130,2
     167,903	    0,521753	97,5	   0,0204022	-128,1
     167,933	    0,522546	98,5	   0,0206697	-127,8
     167,962	    0,522922	97,6	   0,0209522	-129,5
     167,991	    0,523754	98,7	   0,0201497	-128,7
     168,021	    0,524552	96,9	    0,020659	-127,4
      168,05	    0,525481	95,9	   0,0205796	-127,4
     168,079	    0,527079	95,1	   0,0205756	-130,8
     168,109	    0,527569	97,0	   0,0204179	-128,1
     168,138	    0,527989	99,0	   0,0199103	-129,6
     168,167	    0,529293	96,9	   0,0202604	-124,9
     168,196	    0,530071	96,8	   0,0201315	-127,0
     168,226	    0,531239	94,2	   0,0201527	-128,1
     168,255	    0,532045	96,1	   0,0200301	-132,0
     168,284	    0,532263	98,0	   0,0200366	-125,6
     168,314	    0,533737	95,6	   0,0198336	-129,9
     168,343	    0,534252	95,6	   0,0197369	-128,4
     168,372	    0,535016	96,4	   0,0197191	-128,5
     168,402	    0,535797	99,1	   0,0199655	-128,9
     168,431	    0,536172	96,8	   0,0193966	-128,3
      168,46	    0,537412	95,9	   0,0195187	-126,0
      168,49	    0,538263	94,8	   0,0194834	-129,2
     168,519	    0,538792	100,7	   0,0196591	-126,0
     168,548	    0,539973	97,0	   0,0190102	-129,3
     168,578	     0,54113	97,5	   0,0188769	-127,5
     168,607	    0,542451	96,4	   0,0195848	-125,6
     168,636	    0,543256	100,1	   0,0187463	-129,7
     168,666	    0,543699	97,8	   0,0195457	-127,1
     168,695	    0,544305	95,9	   0,0189454	-127,9
     168,724	    0,545191	99,2	   0,0187822	-126,1
     168,754	    0,545728	99,8	   0,0189763	-125,4
     168,783	    0,547191	99,8	   0,0186124	-126,0
     168,812	    0,548164	97,3	   0,0185898	-127,5
     168,842	    0,549192	96,7	   0,0190233	-128,5
     168,871	    0,549552	97,2	    0,018688	-128,0
       168,9	    0,550562	96,8	   0,0187391	-129,4
      168,93	    0,551131	98,6	   0,0185503	-123,8
     168,959	    0,552188	99,4	   0,0185173	-125,2
     168,988	    0,553062	101,4	   0,0183091	-126,9
     169,018	    0,553772	102,3	   0,0182712	-125,0
     169,047	    0,554414	98,6	    0,018238	-122,4
     169,076	    0,555436	96,5	   0,0182145	-129,4
     169,106	    0,556547	102,0	   0,0182698	-127,5
     169,135	    0,557092	96,5	    0,017957	-128,2
     169,164	    0,558286	98,3	   0,0182637	-128,9
     169,194	     0,55885	98,0	   0,0180487	-129,2
     169,223	    0,559207	101,0	   0,0180956	-126,9
     169,252	    0,560391	99,6	   0,0178015	-128,1
     169,282	    0,561132	100,3	   0,0179328	-127,6
     169,311	    0,561872	103,1	   0,0175082	-127,0
      169,34	    0,563286	100,3	   0,0174506	-126,9
      169,37	    0,563745	98,7	   0,0179584	-124,6
     169,399	    0,564264	102,7	   0,0175101	-129,6
     169,428	    0,565258	100,0	   0,0175786	-125,8
     169,457	    0,565766	97,8	   0,0182668	-123,6
     169,487	    0,567366	101,5	   0,0172226	-130,1
     169,516	    0,567418	101,9	   0,0180759	-124,7
     169,545	    0,568845	101,4	   0,0174082	-127,4
     169,575	     0,56912	100,5	    0,017716	-131,2
     169,604	    0,569785	102,6	   0,0173967	-124,5
     169,633	    0,571149	101,4	   0,0170046	-126,1
     169,663	    0,572605	99,8	    0,017673	-124,2
     169,692	    0,572542	103,0	   0,0169138	-129,2
     169,721	    0,573726	99,7	   0,0174407	-127,1
     169,751	    0,574276	101,0	   0,0168119	-126,9
      169,78	    0,575422	101,7	   0,0172635	-125,9
     169,809	     0,57585	101,7	   0,0169678	-123,6
     169,839	    0,576575	102,3	   0,0171122	-128,5
     169,868	    0,577247	102,7	   0,0170511	-125,9
     169,897	     0,57835	100,1	   0,0167393	-126,5
     169,927	    0,579348	100,3	   0,0174561	-124,7
     169,956	    0,580147	99,9	   0,0166065	-129,2
     169,985	    0,580771	101,7	   0,0169402	-127,6
     170,015	    0,581565	101,0	   0,0169305	-125,7
     170,044	     0,58327	99,7	   0,0170079	-126,1
     170,073	    0,584266	98,5	   0,0166476	-127,4
     170,103	    0,584464	102,3	   0,0167504	-127,2
     170,132	    0,584884	103,0	   0,0168716	-125,3
     170,161	    0,586344	102,7	   0,0168331	-128,1
     170,191	    0,587016	99,2	   0,0168035	-127,2
      170,22	    0,587373	102,1	   0,0168028	-125,9
     170,249	    0,588461	102,2	   0,0167538	-128,4
     170,279	    0,589248	100,5	   0,0161077	-129,0
     170,308	    0,589971	102,0	   0,0168465	-127,1
     170,337	    0,591088	101,6	   0,0166822	-128,9
     170,367	    0,591789	101,1	   0,0162669	-123,7
     170,396	    0,592996	101,8	   0,0162622	-127,9
     170,425	    0,593449	100,7	   0,0162855	-123,3
     170,455	    0,594473	101,2	   0,0160924	-128,3
     170,484	    0,595116	100,8	   0,0164791	-130,0
     170,513	    0,595673	104,1	   0,0163797	-128,5
     170,543	     0,59638	103,8	   0,0163907	-126,8
     170,572	     0,59787	102,7	   0,0160727	-124,5
     170,601	    0,598165	103,3	    0,016285	-127,0
      170,63	    0,599473	102,6	   0,0161716	-128,3
      170,66	     0,59964	104,0	   0,0160242	-124,8
     170,689	    0,600094	106,2	   0,0156317	-129,2
     170,718	    0,601677	102,8	   0,0158287	-125,7
     170,748	    0,601828	104,9	   0,0158993	-126,0
     170,777	    0,602654	104,1	     0,01552	-122,6
     170,806	     0,60366	101,8	   0,0156604	-129,8
     170,836	    0,604346	101,7	   0,0157656	-123,8
     170,865	    0,605821	104,0	   0,0156098	-128,3
     170,894	    0,606219	104,3	   0,0153678	-128,7
     170,924	    0,607104	104,5	   0,0158165	-126,4
     170,953	    0,607635	104,1	   0,0156296	-129,7
     170,982	    0,608439	102,0	   0,0156194	-122,0
     171,012	    0,609447	103,9	   0,0154063	-127,5
     171,041	    0,609982	104,4	    0,015478	-128,5
      171,07	    0,611122	103,3	   0,0157564	-126,0
       171,1	    0,612026	105,2	   0,0154673	-129,7
     171,129	    0,612719	105,2	   0,0157372	-129,4
     171,158	    0,613672	102,1	   0,0154526	-128,8
     171,188	    0,614203	104,2	   0,0152562	-128,9
     171,217	    0,614801	105,0	    0,015298	-130,0
     171,246	    0,615673	103,2	   0,0153485	-129,9
     171,276	    0,616402	106,4	   0,0152031	-125,4
     171,305	     0,61715	103,5	   0,0149772	-127,9
     171,334	    0,617667	104,3	   0,0153528	-130,7
     171,364	    0,619052	104,5	   0,0148778	-127,8
     171,393	    0,619521	103,7	   0,0152867	-124,3
     171,422	    0,620711	102,3	   0,0152679	-129,2
     171,452	    0,621837	103,5	    0,015179	-128,2
     171,481	    0,622237	107,0	   0,0153858	-125,9
      171,51	    0,622441	104,0	   0,0151971	-127,1
      171,54	    0,623189	104,5	   0,0148397	-126,0
     171,569	    0,624027	104,5	    0,014649	-127,7
     171,598	    0,624987	104,5	   0,0146039	-128,5
     171,628	    0,626492	106,1	   0,0144929	-129,0
     171,657	    0,626864	104,2	   0,0146373	-126,7
     171,686	    0,627368	103,4	   0,0146907	-127,2
     171,716	    0,628455	104,2	   0,0149464	-129,3
     171,745	    0,629136	107,5	   0,0146846	-128,5
     171,774	    0,630106	107,9	   0,0146425	-124,6
     171,804	    0,630514	105,9	   0,0145062	-127,1
     171,833	    0,631005	105,2	   0,0143864	-129,0
     171,862	    0,631959	102,8	    0,014532	-131,8
     171,891	    0,632641	108,4	   0,0141417	-130,8
     171,921	     0,63359	106,6	   0,0139409	-125,9
      171,95	      0,6346	105,4	    0,014121	-129,3
     171,979	    0,635545	106,2	   0,0139361	-129,9
     172,009	    0,635692	105,4	    0,014375	-131,3
     172,038	    0,637012	103,6	   0,0142777	-125,1
     172,067	    0,637532	106,1	   0,0140034	-128,5
     172,097	     0,63844	110,3	   0,0145593	-124,1
     172,126	    0,639124	106,7	    0,014691	-125,6
     172,155	    0,639948	107,3	   0,0145637	-126,3
     172,185	    0,640752	104,3	    0,014211	-122,6
     172,214	    0,642029	106,5	   0,0142264	-125,1
     172,243	    0,641961	107,2	   0,0143083	-127,7
     172,273	    0,642868	109,0	   0,0143609	-128,7
     172,302	    0,643833	105,3	   0,0143019	-127,5
     172,331	    0,643946	106,6	   0,0143851	-126,4
     172,361	    0,644789	107,6	   0,0142333	-125,0
      172,39	    0,645502	110,3	   0,0138968	-127,7
     172,419	    0,646482	109,0	   0,0140065	-127,9
     172,449	    0,647325	108,3	     0,01418	-128,0
     172,478	    0,647889	109,9	   0,0141521	-127,3
     172,507	    0,648625	109,3	   0,0142662	-125,9
     172,537	    0,649535	111,1	   0,0142532	-123,7
     172,566	    0,650738	109,2	   0,0138906	-127,6
     172,595	    0,651234	109,9	    0,013605	-128,1
     172,625	    0,652071	105,6	   0,0136075	-130,2
     172,654	    0,652971	108,5	   0,0133832	-126,5
     172,683	     0,65412	107,0	   0,0137276	-128,9
     172,713	    0,654978	108,7	   0,0138841	-125,2
     172,742	    0,655745	107,5	   0,0136413	-128,5
     172,771	    0,656328	108,5	    0,013978	-124,0
     172,801	    0,657342	108,3	   0,0137727	-125,8
      172,83	    0,657584	108,6	   0,0139656	-127,9
     172,859	    0,658444	108,2	   0,0140118	-126,8
     172,889	    0,659045	108,4	   0,0132952	-128,1
     172,918	    0,659743	108,2	   0,0137957	-123,6
     172,947	    0,660466	108,2	   0,0133468	-125,6
     172,977	    0,661395	109,9	   0,0135575	-125,7
     173,006	    0,662463	106,6	   0,0136287	-128,0
     173,035	    0,663146	106,7	   0,0137361	-126,5
     173,065	    0,663875	111,1	   0,0132876	-130,8
     173,094	    0,664741	106,7	   0,0132988	-127,5
     173,123	    0,665486	110,4	   0,0136187	-125,4
     173,152	    0,666205	110,8	   0,0134079	-126,8
     173,182	    0,667311	107,6	   0,0133369	-124,0
     173,211	    0,668375	107,8	   0,0133949	-125,9
      173,24	    0,668812	108,6	   0,0134623	-125,0
      173,27	    0,668966	107,5	   0,0135348	-130,5
     173,299	    0,670458	109,7	   0,0133799	-128,7
     173,328	    0,671364	107,1	   0,0132825	-127,1
     173,358	    0,671945	108,9	   0,0135047	-128,9
     173,387	    0,672429	108,8	     0,01324	-127,8
     173,416	      0,6733	111,3	   0,0132212	-123,3
     173,446	    0,674011	109,2	   0,0133163	-125,0
     173,475	    0,674814	108,0	    0,013033	-127,1
     173,504	    0,675028	110,3	   0,0130498	-126,7
     173,534	    0,675977	109,8	    0,013234	-129,2
     173,563	    0,676777	110,3	   0,0132263	-130,6
     173,592	    0,677705	109,7	   0,0130822	-127,2
     173,622	    0,678334	107,6	   0,0130819	-129,0
     173,651	    0,678944	112,8	   0,0131615	-125,6
      173,68	    0,679725	108,5	   0,0128128	-124,3
      173,71	    0,680662	111,3	   0,0132323	-125,0
     173,739	    0,682056	110,4	   0,0130592	-128,8
     173,768	    0,682688	110,1	   0,0129188	-129,3
     173,798	    0,682764	111,2	   0,0127465	-129,0
     173,827	    0,683515	112,3	   0,0129291	-127,5
     173,856	    0,684455	112,4	   0,0128152	-129,6
     173,886	    0,685384	110,4	   0,0126168	-127,8
     173,915	    0,686416	111,9	    0,012627	-126,2
     173,944	    0,686384	111,3	   0,0129396	-126,5
     173,974	    0,687673	109,2	   0,0122605	-128,2
     174,003	      0,6886	107,5	   0,0128033	-124,2
     174,032	    0,689114	110,5	   0,0126556	-123,7
     174,062	    0,690025	109,3	   0,0128953	-128,4
     174,091	    0,690878	109,4	   0,0126962	-128,8
      174,12	     0,69113	111,9	   0,0127658	-129,4
      174,15	    0,692152	108,5	   0,0126796	-124,5
     174,179	    0,692701	110,7	   0,0124432	-127,4
     174,208	    0,693561	109,3	   0,0127896	-125,9
     174,238	     0,69409	112,1	   0,0125766	-129,6
     174,267	    0,695431	113,7	   0,0124426	-126,0
     174,296	    0,695656	110,6	   0,0124692	-126,7
     174,326	    0,696545	112,4	    0,012322	-129,0
     174,355	    0,696859	111,9	   0,0124755	-129,8
     174,384	    0,697958	110,7	   0,0126004	-128,4
     174,413	    0,698573	113,8	    0,012273	-125,2
     174,443	    0,699754	114,6	   0,0123927	-129,6
     174,472	    0,700474	109,3	   0,0127095	-127,9
     174,501	    0,700825	113,0	   0,0124551	-127,4
     174,531	     0,70079	113,3	   0,0123132	-125,8
      174,56	    0,702075	111,6	   0,0122737	-128,1
     174,589	     0,70303	113,8	    0,012266	-126,4
     174,619	    0,703886	108,9	   0,0123553	-123,1
     174,648	    0,705114	111,8	   0,0119963	-125,0
     174,677	    0,705524	110,1	   0,0123767	-129,4
     174,707	    0,705981	113,7	   0,0123903	-128,8
     174,736	    0,706298	112,6	   0,0123298	-127,1
     174,765	    0,707138	114,3	   0,0120628	-128,3
     174,795	    0,707401	113,0	   0,0121545	-124,6
     174,824	    0,708362	116,4	   0,0119162	-128,7
     174,853	    0,709459	112,2	   0,0123294	-126,0
     174,883	    0,710485	113,2	   0,0119245	-124,4
     174,912	     0,71073	113,6	   0,0120891	-128,6
     174,941	    0,711426	112,7	   0,0120258	-130,0
     174,971	    0,712296	112,3	   0,0119417	-129,7
         175	     0,71262	115,3	   0,0121528	-128,6
     175,029	    0,713754	113,7	   0,0120826	-130,2
     175,059	     0,71431	112,4	   0,0122806	-128,5
     175,088	    0,715118	114,2	   0,0117023	-126,7
     175,117	     0,71639	112,3	   0,0120465	-128,4
     175,147	    0,717127	113,2	   0,0120349	-129,3
     175,176	      0,7169	116,0	   0,0117976	-123,5
     175,205	    0,717621	115,4	   0,0119324	-128,8
     175,235	    0,718508	118,0	   0,0118778	-125,5
     175,264	    0,719499	113,3	    0,011649	-126,2
     175,293	    0,720551	113,6	   0,0118259	-127,3
     175,323	    0,721335	112,7	   0,0118754	-123,6
     175,352	    0,721655	117,1	   0,0119644	-124,9
     175,381	     0,72275	113,8	    0,011606	-126,0
     175,411	    0,723067	117,9	   0,0119706	-128,1
      175,44	    0,723812	114,5	   0,0117246	-126,3
     175,469	    0,724732	111,3	   0,0117213	-127,3
     175,499	     0,72475	114,7	   0,0119275	-127,8
     175,528	    0,726507	112,4	    0,011695	-122,4
     175,557	    0,727644	115,0	   0,0115497	-129,5
     175,587	    0,727262	114,4	   0,0116587	-125,8
     175,616	    0,727858	115,5	   0,0115924	-129,5
     175,645	    0,729239	114,2	   0,0112885	-127,8
     175,674	    0,730252	112,6	   0,0116745	-124,9
     175,704	    0,730658	113,3	   0,0118427	-128,4
     175,733	    0,731306	115,4	   0,0120055	-126,3
     175,762	    0,732013	115,2	   0,0115692	-124,6
     175,792	    0,732949	113,2	   0,0116936	-126,6
     175,821	    0,733647	113,7	   0,0115627	-128,2
      175,85	    0,734286	114,8	   0,0114161	-126,7
      175,88	    0,734519	114,8	   0,0113958	-128,3
     175,909	    0,735719	114,0	   0,0113278	-129,4
     175,938	    0,737047	114,1	   0,0114574	-121,7
     175,968	    0,737294	116,5	    0,011361	-125,7
     175,997	    0,738218	116,7	   0,0113427	-127,5
     176,026	    0,738808	116,6	   0,0113203	-125,7
     176,056	    0,739961	117,4	   0,0111073	-129,2
     176,085	    0,740363	115,8	   0,0114453	-129,2
     176,114	    0,741023	117,4	   0,0111797	-130,0
     176,144	    0,741254	119,0	   0,0112513	-128,3
     176,173	    0,742592	116,1	    0,011114	-124,6
     176,202	    0,743607	115,9	   0,0112781	-129,2
     176,232	    0,743772	115,5	   0,0110859	-125,7
     176,261	    0,744438	118,0	   0,0112627	-130,2
      176,29	    0,745157	118,1	   0,0109925	-125,6
      176,32	    0,746191	115,4	   0,0112646	-131,4
     176,349	    0,746871	118,4	   0,0110982	-125,9
     176,378	    0,747664	115,6	   0,0110226	-128,9
     176,408	    0,748439	114,0	   0,0112492	-128,0
     176,437	    0,749197	115,8	   0,0113122	-130,0
     176,466	     0,75015	114,5	   0,0108093	-125,8
     176,496	    0,750694	115,0	   0,0111287	-127,0
     176,525	    0,751838	116,0	   0,0108955	-127,5
     176,554	    0,751967	119,5	    0,011069	-123,5
     176,584	    0,753146	118,0	   0,0110531	-127,3
     176,613	    0,753491	119,3	   0,0107888	-125,5
     176,642	    0,754328	117,3	   0,0109631	-129,9
     176,672	    0,754919	118,5	   0,0112446	-127,3
     176,701	    0,756001	117,2	   0,0111575	-125,0
      176,73	    0,756691	118,2	   0,0111705	-131,7
      176,76	    0,757207	117,9	   0,0110769	-122,6
     176,789	    0,758246	116,0	   0,0109208	-126,4
     176,818	    0,759119	119,1	   0,0112375	-130,4
     176,848	    0,759861	117,3	   0,0109725	-126,0
     176,877	    0,760519	116,4	   0,0109787	-130,1
     176,906	     0,76082	122,7	    0,010742	-125,4
     176,935	    0,761706	118,9	    0,010933	-129,6
     176,965	    0,762783	118,8	   0,0110056	-125,1
     176,994	     0,76373	119,4	   0,0108508	-122,7
     177,023	    0,763863	121,2	    0,011183	-122,7
     177,053	    0,764931	116,9	   0,0108734	-129,4
     177,082	    0,765522	119,1	   0,0106957	-127,1
     177,111	    0,766161	120,6	   0,0109744	-123,7
     177,141	    0,767193	120,4	   0,0107322	-126,3
      177,17	    0,767372	119,6	   0,0110218	-126,5
     177,199	    0,768512	121,1	    0,010723	-131,6
     177,229	    0,770117	120,1	   0,0108782	-122,5
     177,258	    0,770225	118,1	   0,0107131	-125,9
     177,287	    0,770564	118,2	    0,010971	-125,8
     177,317	    0,771123	123,4	   0,0108168	-125,9
     177,346	    0,772448	119,6	   0,0104883	-127,1
     177,375	    0,773197	117,5	   0,0106504	-127,3
     177,405	    0,773877	120,4	   0,0108626	-124,8
     177,434	    0,775255	118,9	   0,0106994	-127,5
     177,463	    0,774896	122,9	   0,0106034	-128,6
     177,493	    0,776663	119,9	   0,0107495	-129,1
     177,522	    0,777307	121,3	   0,0103181	-125,6
     177,551	    0,777832	120,6	   0,0105467	-129,0
     177,581	    0,778468	116,6	   0,0105516	-134,1
      177,61	    0,779039	119,1	   0,0104825	-128,4
     177,639	    0,780156	120,7	   0,0108063	-128,6
     177,669	    0,780426	123,6	   0,0107282	-126,8
     177,698	    0,781513	122,8	   0,0103379	-124,3
     177,727	    0,782018	121,3	   0,0102601	-125,1
     177,757	    0,782358	120,2	    0,010471	-127,0
     177,786	    0,784015	120,6	   0,0103217	-130,1
     177,815	    0,784976	122,6	    0,010434	-130,2
     177,845	    0,784525	122,2	   0,0105329	-126,2
     177,874	    0,786065	122,0	   0,0102534	-125,0
     177,903	    0,785983	120,9	   0,0102546	-124,2
     177,933	    0,787354	122,5	   0,0102735	-127,5
     177,962	    0,787965	123,8	   0,0103074	-127,6
     177,991	    0,788996	120,9	   0,0103848	-128,8
     178,021	    0,789505	121,8	   0,0103789	-125,5
      178,05	    0,790009	123,7	   0,0102792	-125,5
     178,079	    0,791133	118,1	    0,010243	-128,5
     178,109	     0,79157	122,5	   0,0103088	-128,7
     178,138	    0,792352	124,7	   0,0104465	-126,4
     178,167	    0,793054	121,9	   0,0103178	-126,0
     178,196	    0,793766	123,7	   0,0101765	-123,2
     178,226	    0,794852	120,9	   0,0102642	-131,5
     178,255	    0,794947	122,5	   0,0102921	-132,1
     178,284	    0,796093	124,7	   0,0103023	-130,9
     178,314	     0,79714	123,2	   0,0101168	-126,0
     178,343	    0,797722	123,6	   0,0101074	-124,8
     178,372	    0,798793	118,2	   0,0100693	-124,6
     178,402	    0,798918	124,9	  0,00980582	-125,0
     178,431	    0,800013	125,2	  0,00993102	-124,8
      178,46	    0,801065	122,1	  0,00990178	-124,2
      178,49	    0,801367	123,5	  0,00993265	-127,9
     178,519	    0,801529	125,0	   0,0102215	-128,0
     178,548	    0,802909	126,8	     0,01014	-128,6
     178,578	    0,804023	122,9	   0,0104938	-125,7
     178,607	    0,804453	122,7	   0,0103653	-125,7
     178,636	    0,805018	128,6	   0,0101304	-122,8
     178,666	    0,805755	127,9	   0,0101507	-123,8
     178,695	    0,806223	128,7	   0,0101549	-126,9
     178,724	    0,807567	124,9	  0,00994098	-127,3
     178,754	     0,80808	125,8	  0,00981973	-126,4
     178,783	    0,808974	124,3	   0,0100123	-125,9
     178,812	    0,809829	125,7	   0,0100821	-122,5
     178,842	    0,810307	125,7	    0,010042	-127,3
     178,871	    0,811742	126,3	   0,0102104	-128,7
       178,9	    0,811651	126,8	   0,0100374	-125,7
      178,93	    0,812611	126,5	  0,00995613	-127,7
     178,959	    0,813712	124,2	   0,0101741	-129,1
     178,988	    0,813983	127,2	   0,0100383	-127,9
     179,018	      0,8151	125,4	   0,0100605	-124,1
     179,047	    0,815578	126,4	   0,0096443	-123,4
     179,076	    0,816183	126,0	  0,00979449	-128,0
     179,106	    0,817102	130,6	  0,00978941	-127,0
     179,135	    0,817992	127,1	  0,00988695	-127,7
     179,164	    0,818822	127,8	   0,0100101	-127,1
     179,194	    0,819463	125,0	   0,0100371	-127,1
     179,223	    0,819634	129,3	   0,0100439	-127,1
     179,252	    0,820934	130,5	  0,00994032	-130,0
     179,282	    0,821482	127,0	  0,00992079	-127,0
     179,311	    0,822341	127,5	  0,00995726	-128,8
      179,34	    0,823445	126,6	  0,00997377	-128,5
      179,37	    0,823688	127,7	  0,00981211	-124,7
     179,399	    0,824212	126,3	  0,00996838	-127,8
     179,428	    0,824943	130,5	  0,00975414	-129,4
     179,457	    0,825803	126,8	  0,00990904	-130,7
     179,487	    0,826315	128,8	   0,0100085	-127,9
     179,516	    0,827237	131,9	  0,00975702	-127,9
     179,545	    0,828032	130,7	  0,00965933	-122,8
     179,575	    0,828761	129,7	  0,00984834	-123,9
     179,604	    0,829085	129,6	   0,0100373	-127,0
     179,633	    0,830229	129,4	  0,00987868	-127,8
     179,663	    0,831036	133,6	  0,00994365	-129,2
     179,692	    0,831945	129,4	  0,00979878	-122,4
     179,721	    0,832165	130,8	  0,00972942	-127,0
     179,751	    0,833738	131,4	  0,00998437	-125,6
      179,78	    0,834295	129,9	   0,0098104	-124,9
     179,809	    0,834609	130,1	  0,00960198	-124,5
     179,839	     0,83599	130,2	  0,00975024	-129,4
     179,868	    0,836259	132,8	  0,00976931	-127,9
     179,897	    0,836863	130,9	  0,00979917	-132,0
     179,927	    0,837487	135,2	  0,00958452	-127,1
     179,956	    0,838997	134,5	  0,00945249	-126,3
     179,985	    0,839537	130,9	  0,00975213	-126,3
     180,015	    0,840402	131,4	  0,00978505	-130,1
     180,044	    0,841467	130,9	  0,00959554	-126,0
     180,073	    0,841869	133,7	  0,00939077	-123,0
     180,103	    0,842526	133,8	  0,00970618	-125,6
     180,132	    0,843455	134,3	  0,00969659	-130,5
     180,161	    0,844141	132,5	  0,00942639	-124,8
     180,191	    0,845299	128,7	  0,00955332	-124,2
      180,22	    0,846085	135,5	  0,00950674	-127,3
     180,249	    0,846624	133,6	  0,00983734	-125,5
     180,279	    0,847306	136,2	  0,00934184	-125,3
     180,308	    0,847995	135,1	  0,00920545	-122,7
     180,337	    0,848591	137,8	  0,00962005	-129,2
     180,367	    0,849774	135,6	  0,00968143	-129,4
     180,396	    0,850757	134,7	  0,00916298	-125,0
     180,425	    0,850503	136,2	  0,00945066	-125,0
     180,455	    0,851685	140,9	   0,0093559	-129,9
     180,484	    0,852292	138,0	   0,0091359	-125,9
     180,513	    0,852527	138,2	   0,0091872	-126,0
     180,543	     0,85354	141,1	  0,00944507	-130,4
     180,572	    0,854462	141,0	  0,00960151	-132,8
     180,601	    0,855542	141,7	  0,00957319	-128,7
      180,63	    0,854756	141,3	  0,00910298	-126,9
      180,66	    0,856137	142,7	  0,00927059	-123,8
     180,689	    0,856893	145,6	  0,00935409	-128,8
     180,718	    0,857001	147,5	  0,00942226	-129,6
     180,748	    0,857545	145,5	  0,00941152	-128,5
     180,777	    0,857597	153,7	  0,00892394	-125,7
     180,806	    0,858273	152,3	  0,00929678	-126,6
     180,836	    0,858452	159,6	  0,00942687	-129,6
     180,865	    0,857729	161,1	  0,00924852	-124,3
     180,894	    0,856899	176,1	  0,00937963	-127,7
     180,924	    0,848949	-155,4	  0,00924066	-129,1
     180,953	  0,00896629	-125,9	  0,00916723	-125,1
     180,982	  0,00933474	-127,4	  0,00920978	-128,3
     181,012	  0,00905858	-124,8	  0,00913611	-125,2
     181,041	  0,00922158	-133,3	  0,00955875	-127,1
      181,07	  0,00911052	-129,4	  0,00899422	-128,8
       181,1	  0,00901658	-126,1	  0,00915907	-122,8
     181,129	  0,00925216	-127,5	  0,00953007	-130,8
     181,158	  0,00915193	-130,8	  0,00951428	-130,8
     181,188	  0,00918841	-122,2	  0,00913794	-128,8
     181,217	  0,00883652	-128,8	  0,00936992	-129,8
     181,246	  0,00922506	-130,0	  0,00893886	-126,5
     181,276	  0,00893368	-123,7	   0,0093145	-129,6
     181,305	  0,00903162	-127,2	  0,00919029	-128,2
     181,334	  0,00923135	-129,2	  0,00893394	-127,1
     181,364	  0,00916233	-125,3	  0,00941895	-129,8
     181,393	  0,00899273	-127,8	   0,0089306	-126,5
     181,422	  0,00927098	-129,7	  0,00915542	-128,6
     181,452	  0,00886441	-130,4	  0,00907507	-125,9
     181,481	  0,00919773	-126,4	  0,00933461	-131,3
      181,51	  0,00889686	-124,4	  0,00910979	-122,2
      181,54	  0,00894706	-126,4	  0,00919916	-128,4
     181,569	  0,00917182	-128,3	  0,00895505	-126,5
     181,598	  0,00902443	-123,5	  0,00877353	-124,0
     181,628	  0,00876594	-127,0	  0,00926652	-130,6
     181,657	  0,00901565	-125,5	  0,00887493	-124,7
     181,686	  0,00898713	-122,6	  0,00917834	-128,5
     181,716	  0,00891768	-123,0	   0,0091368	-123,3
     181,745	  0,00926854	-127,4	  0,00903263	-122,7
     181,774	   0,0090924	-132,5	  0,00900076	-128,3
     181,804	  0,00919704	-127,3	  0,00893601	-129,5
     181,833	  0,00906308	-129,0	  0,00916195	-123,9
     181,862	  0,00881793	-125,2	  0,00893185	-126,7
     181,891	  0,00913969	-123,4	  0,00930657	-128,1
     181,921	  0,00887108	-124,9	  0,00881487	-123,6
      181,95	  0,00874299	-124,4	  0,00911055	-126,5
     181,979	   0,0091775	-127,4	  0,00900493	-122,4
     182,009	  0,00882992	-127,3	   0,0092403	-129,2
     182,038	  0,00917047	-127,2	  0,00911922	-131,9
     182,067	  0,00888192	-125,5	  0,00887147	-121,2
     182,097	   0,0091391	-128,4	  0,00873914	-125,0
     182,126	  0,00911009	-128,0	  0,00899896	-132,5
     182,155	  0,00870183	-126,7	   0,0087564	-130,4
     182,185	  0,00896802	-127,5	  0,00926074	-127,0
     182,214	  0,00875218	-125,4	  0,00880525	-126,1
     182,243	  0,00885917	-125,7	  0,00904541	-126,9
     182,273	  0,00862626	-126,7	  0,00888284	-121,2
     182,302	  0,00910615	-128,5	  0,00892047	-128,5
     182,331	  0,00865132	-123,9	  0,00908638	-129,8
     182,361	  0,00908465	-124,6	  0,00867085	-125,1
      182,39	  0,00868082	-121,9	  0,00902483	-128,0
     182,419	  0,00875215	-128,3	  0,00890529	-129,0
     182,449	  0,00850802	-125,9	  0,00867766	-123,2
     182,478	   0,0087371	-128,4	  0,00905238	-127,5
     182,507	  0,00902512	-124,0	  0,00856617	-125,0
     182,537	  0,00881887	-125,0	  0,00869328	-127,6
     182,566	  0,00880961	-127,6	  0,00900709	-125,1
     182,595	  0,00860209	-128,9	  0,00880895	-125,8
     182,625	  0,00867011	-125,9	  0,00896699	-130,1
     182,654	  0,00901088	-129,4	  0,00881008	-124,1
     182,683	  0,00864762	-129,6	  0,00853756	-124,8
     182,713	  0,00861409	-129,9	  0,00903271	-130,6
     182,742	  0,00860721	-126,3	  0,00881466	-128,7
     182,771	  0,00907331	-127,3	  0,00867353	-126,3
     182,801	  0,00892097	-129,5	   0,0087778	-129,8
      182,83	  0,00875661	-128,1	  0,00896294	-131,3
     182,859	  0,00846873	-123,7	  0,00864028	-122,4
     182,889	  0,00896692	-124,5	  0,00859744	-125,9
     182,918	  0,00876136	-131,2	  0,00903356	-128,5
     182,947	  0,00858534	-126,0	  0,00869296	-122,1
     182,977	  0,00886852	-125,3	   0,0085604	-129,8
     183,006	  0,00875308	-127,2	  0,00874016	-126,8
     183,035	  0,00863193	-127,9	  0,00894301	-130,0
     183,065	  0,00863657	-123,8	  0,00854436	-126,8
     183,094	  0,00884801	-124,7	  0,00854184	-129,4
     183,123	  0,00873072	-131,5	  0,00885332	-130,2
     183,152	  0,00875875	-130,6	  0,00880443	-131,8
     183,182	  0,00873055	-127,1	  0,00844332	-126,5
     183,211	  0,00884038	-127,4	  0,00863363	-124,0
      183,24	   0,0087618	-131,5	  0,00882484	-130,6
      183,27	  0,00872805	-128,3	  0,00904411	-129,0
     183,299	   0,0082851	-127,7	  0,00877881	-127,5
     183,328	  0,00853151	-128,2	  0,00872456	-127,6
     183,358	   0,0087766	-123,3	  0,00884461	-130,0
     183,387	  0,00847921	-128,4	  0,00886103	-131,1
     183,416	  0,00845867	-122,7	  0,00847923	-128,8
     183,446	  0,00866305	-124,1	  0,00856286	-130,7
     183,475	  0,00873177	-129,9	  0,00885141	-130,8
     183,504	  0,00882468	-130,8	  0,00883827	-128,1
     183,534	  0,00834546	-124,2	  0,00843138	-128,7
     183,563	  0,00830848	-124,1	   0,0085565	-125,3
     183,592	  0,00843529	-122,5	   0,0085271	-132,2
     183,622	   0,0087048	-128,4	  0,00866087	-129,1
     183,651	  0,00845429	-123,4	  0,00852321	-126,4
      183,68	  0,00866317	-126,1	  0,00858305	-129,6
      183,71	  0,00878511	-124,8	  0,00869117	-127,8
     183,739	  0,00876098	-128,3	  0,00877375	-126,3
     183,768	  0,00851538	-130,0	  0,00847736	-123,7
     183,798	  0,00839324	-127,4	  0,00850789	-130,5
     183,827	  0,00836807	-130,0	  0,00865349	-130,0
     183,856	  0,00872075	-128,8	  0,00861168	-125,5
     183,886	  0,00864552	-127,5	  0,00870607	-125,5
     183,915	  0,00854466	-126,9	  0,00853284	-122,5
     183,944	  0,00862477	-127,5	  0,00824163	-124,1
     183,974	   0,0084453	-127,5	  0,00831854	-125,4
     184,003	   0,0085408	-129,0	  0,00836564	-123,4
     184,032	   0,0085955	-128,0	  0,00860074	-129,8
     184,062	  0,00840161	-124,7	  0,00886357	-125,6
     184,091	  0,00847245	-123,1	  0,00857298	-125,8
      184,12	  0,00845236	-127,1	  0,00873265	-127,7
      184,15	  0,00825054	-126,3	  0,00851751	-125,9
     184,179	  0,00838364	-129,2	  0,00865525	-123,1
     184,208	  0,00839302	-128,1	  0,00831906	-127,2
     184,238	  0,00834352	-123,7	  0,00836459	-129,9
     184,267	  0,00829885	-123,4	  0,00833755	-124,2
     184,296	  0,00824203	-122,8	  0,00823252	-126,5
     184,326	  0,00809495	-126,9	  0,00815562	-126,7
     184,355	  0,00812154	-123,6	  0,00826074	-127,4
     184,384	  0,00821292	-125,8	  0,00834529	-130,4
     184,413	  0,00830552	-123,9	  0,00859771	-130,9
     184,443	  0,00842179	-123,2	  0,00865488	-131,2
     184,472	  0,00853989	-129,9	  0,00836466	-126,3
     184,501	  0,00848079	-130,9	   0,0085118	-130,0
     184,531	  0,00845086	-131,4	  0,00848323	-131,4
      184,56	  0,00829629	-131,3	  0,00836621	-126,8
     184,589	  0,00851711	-131,9	  0,00831884	-124,4
     184,619	  0,00841605	-127,1	  0,00842076	-123,5
     184,648	  0,00852514	-126,7	  0,00816963	-125,0
     184,677	  0,00852999	-125,3	   0,0083078	-126,2
     184,707	  0,00852113	-129,8	  0,00831271	-128,1
     184,736	  0,00819726	-130,0	   0,0080021	-128,7
     184,765	  0,00827011	-126,3	  0,00803623	-127,3
     184,795	    0,008193	-125,3	  0,00818947	-129,3
     184,824	   0,0083236	-127,1	  0,00826513	-128,9
     184,853	  0,00827759	-130,1	  0,00807992	-125,8
     184,883	  0,00850637	-129,2	  0,00835245	-125,9
     184,912	  0,00841924	-128,2	  0,00829007	-127,9
     184,941	  0,00800969	-127,0	  0,00846455	-121,4
     184,971	   0,0081778	-127,4	  0,00847248	-130,1
         185	  0,00838528	-124,0	  0,00779668	-126,5

