X-Data [Hz]	Laser (M - Filtered) [m/s]	Phase [Deg]	Laser (M - Filtered) [m/s]	Phase [Deg]	
	003: [06-04-24 09:57]		005: [06-04-24 10:02]	
         120	  0,00510524	61,2	  0,00507731	59,9
     120,088	  0,00536111	63,3	  0,00488307	62,9
     120,176	  0,00539968	60,2	  0,00476769	61,5
     120,264	  0,00552209	65,4	  0,00507905	62,2
     120,352	  0,00521386	66,0	  0,00528213	66,3
      120,44	   0,0052982	60,9	  0,00507296	59,0
     120,528	  0,00539246	59,5	  0,00486592	59,1
     120,616	  0,00537229	66,2	  0,00534711	65,4
     120,704	  0,00501643	59,9	  0,00530646	60,2
     120,792	  0,00555161	64,2	  0,00499388	65,4
      120,88	  0,00519745	59,4	   0,0054376	61,7
     120,968	  0,00524552	63,7	  0,00495031	58,2
     121,056	  0,00555449	62,9	  0,00547322	58,5
     121,144	  0,00505567	61,1	   0,0048302	59,0
     121,232	  0,00569087	65,7	  0,00552639	65,8
      121,32	  0,00532793	63,6	  0,00527746	59,0
     121,408	  0,00588819	71,6	  0,00540384	67,4
     121,496	  0,00514836	56,6	  0,00516492	58,6
     121,584	  0,00549912	60,0	  0,00557396	65,8
     121,672	  0,00533141	61,5	  0,00530361	61,7
      121,76	  0,00588434	67,0	  0,00571741	62,2
     121,848	  0,00556004	59,2	  0,00533977	66,1
     121,935	  0,00529374	55,8	  0,00520522	56,5
     122,023	  0,00573148	59,4	  0,00585443	63,6
     122,111	  0,00557296	61,2	   0,0057407	64,5
     122,199	  0,00555006	64,9	  0,00558273	67,8
     122,287	  0,00572368	69,9	  0,00532213	58,7
     122,375	  0,00604503	66,2	  0,00564717	57,6
     122,463	   0,0059468	63,1	  0,00588636	61,0
     122,551	  0,00601107	61,6	  0,00554238	62,2
     122,639	  0,00573472	63,5	  0,00565356	64,2
     122,727	  0,00627535	62,9	  0,00567897	64,0
     122,815	   0,0062954	60,5	  0,00535917	62,2
     122,903	  0,00575387	56,9	  0,00574618	55,6
     122,991	  0,00593445	57,3	  0,00570523	55,1
     123,079	  0,00582454	60,3	  0,00571724	58,1
     123,167	   0,0058497	63,8	  0,00571606	57,3
     123,255	  0,00597752	63,9	  0,00600273	61,1
     123,343	  0,00620717	62,2	  0,00624919	59,1
     123,431	   0,0062797	66,0	  0,00633685	63,4
     123,519	  0,00614284	62,3	  0,00606285	58,1
     123,607	  0,00594348	61,4	  0,00603199	61,0
     123,695	  0,00607174	59,2	  0,00628233	68,1
     123,783	  0,00611305	59,1	  0,00619457	69,7
     123,871	  0,00638131	59,5	  0,00635427	63,9
     123,959	   0,0064501	64,0	  0,00620031	57,2
     124,047	  0,00635895	63,0	  0,00615755	62,8
     124,135	  0,00644289	59,0	  0,00606814	60,8
     124,223	   0,0066102	63,0	  0,00621027	63,2
     124,311	  0,00648003	64,9	  0,00650288	61,1
     124,399	  0,00659453	60,7	  0,00651051	61,6
     124,487	  0,00670411	61,6	  0,00618003	59,0
     124,575	  0,00664929	66,9	  0,00674976	64,9
     124,663	  0,00684248	60,6	  0,00624012	61,6
     124,751	   0,0068505	61,8	   0,0065795	61,6
     124,839	  0,00644628	59,8	  0,00646379	61,9
     124,927	  0,00681513	60,6	  0,00638516	62,5
     125,015	  0,00659601	60,1	  0,00688151	59,1
     125,103	  0,00705135	65,0	  0,00652331	57,3
     125,191	  0,00662864	61,5	  0,00680071	64,8
     125,279	  0,00718244	63,8	  0,00647622	54,7
     125,367	  0,00679884	60,8	  0,00699763	67,6
     125,455	   0,0071907	63,0	  0,00660046	55,4
     125,543	  0,00706171	57,7	  0,00702187	62,0
     125,631	   0,0068276	61,8	  0,00695199	66,4
     125,718	  0,00721211	60,7	  0,00666425	56,2
     125,806	  0,00728694	63,1	  0,00682753	58,4
     125,894	  0,00726599	64,5	   0,0068123	65,5
     125,982	  0,00740292	64,2	  0,00685794	58,4
      126,07	  0,00723078	58,5	  0,00735495	60,0
     126,158	  0,00717303	61,2	  0,00692983	54,9
     126,246	   0,0075945	59,7	  0,00704988	56,4
     126,334	  0,00741517	54,9	  0,00737369	67,2
     126,422	  0,00751947	54,5	  0,00705024	60,9
      126,51	   0,0073781	57,0	  0,00719188	55,7
     126,598	  0,00754354	62,0	  0,00732487	57,5
     126,686	   0,0076193	64,2	  0,00750022	60,5
     126,774	  0,00754888	63,3	   0,0076338	61,3
     126,862	  0,00760187	62,3	  0,00759258	62,7
      126,95	  0,00763429	59,2	  0,00747378	61,4
     127,038	  0,00778817	57,1	  0,00767078	63,1
     127,126	  0,00773826	58,8	  0,00791591	61,4
     127,214	  0,00814092	65,0	  0,00778938	63,4
     127,302	  0,00802861	61,4	  0,00765266	60,4
      127,39	  0,00817107	61,7	  0,00774042	57,1
     127,478	  0,00829936	58,7	  0,00774828	56,1
     127,566	  0,00838459	63,4	  0,00794536	60,6
     127,654	  0,00831726	64,0	  0,00816722	61,7
     127,742	  0,00835741	65,0	  0,00793361	60,4
      127,83	  0,00834733	55,7	  0,00801402	59,9
     127,918	  0,00844139	59,3	  0,00824058	64,5
     128,006	  0,00841298	59,7	  0,00818405	57,5
     128,094	   0,0084556	59,6	   0,0084223	65,3
     128,182	  0,00878811	62,6	   0,0082713	56,8
      128,27	   0,0087419	65,6	  0,00826008	61,0
     128,358	  0,00871741	57,6	   0,0083549	63,4
     128,446	  0,00877033	64,6	   0,0084708	64,0
     128,534	  0,00881097	58,2	  0,00826358	66,1
     128,622	  0,00904201	63,3	  0,00870634	54,4
      128,71	  0,00885926	63,1	    0,008582	65,5
     128,798	  0,00915214	64,9	  0,00851856	63,7
     128,886	  0,00915602	57,9	  0,00857803	60,9
     128,974	  0,00907477	64,8	  0,00873117	65,8
     129,062	  0,00925293	61,3	  0,00912954	59,8
      129,15	  0,00919854	63,7	  0,00916524	63,2
     129,238	  0,00950325	61,1	  0,00883744	60,0
     129,326	  0,00955302	63,4	  0,00902758	65,9
     129,413	  0,00935923	59,5	  0,00896197	59,3
     129,501	  0,00957709	63,3	     0,00924	64,5
     129,589	  0,00971187	60,2	  0,00924332	58,4
     129,677	  0,00963733	61,9	  0,00909516	62,7
     129,765	  0,00972526	62,8	  0,00942418	60,5
     129,853	  0,00997096	61,4	  0,00985384	57,6
     129,941	  0,00973514	59,4	  0,00950267	63,4
     130,029	  0,00976986	63,5	  0,00943062	60,1
     130,117	   0,0100934	57,3	  0,00977368	58,0
     130,205	   0,0102427	60,3	  0,00966611	63,7
     130,293	   0,0105731	63,8	  0,00987825	59,4
     130,381	   0,0105171	62,1	  0,00982046	62,1
     130,469	    0,010618	60,2	   0,0098044	59,5
     130,557	   0,0108978	56,1	  0,00998224	61,6
     130,645	   0,0109001	58,5	  0,00978049	65,2
     130,733	    0,010871	58,1	   0,0101469	64,6
     130,821	   0,0108359	59,5	   0,0100666	62,6
     130,909	    0,010886	61,3	   0,0103352	63,1
     130,997	   0,0109659	60,5	   0,0107288	58,6
     131,085	   0,0112565	59,7	   0,0107417	60,6
     131,173	   0,0112102	59,5	   0,0109469	57,7
     131,261	   0,0113713	62,6	    0,010542	60,3
     131,349	   0,0115118	60,4	   0,0110485	62,9
     131,437	   0,0114772	58,6	   0,0110002	64,4
     131,525	   0,0117985	56,9	   0,0110711	62,5
     131,613	   0,0116501	60,3	   0,0114062	57,8
     131,701	   0,0119886	57,5	   0,0115669	61,4
     131,789	    0,012071	63,4	   0,0113368	60,6
     131,877	   0,0122707	62,3	   0,0118587	59,5
     131,965	    0,012213	59,2	   0,0114671	62,6
     132,053	   0,0124857	59,2	   0,0118675	62,3
     132,141	   0,0125051	61,1	   0,0118663	63,9
     132,229	   0,0126912	61,3	   0,0121745	57,5
     132,317	   0,0129239	58,8	    0,012514	57,7
     132,405	   0,0129432	62,7	   0,0121673	63,4
     132,493	   0,0130815	60,6	   0,0124736	61,2
     132,581	   0,0130644	62,8	   0,0125007	62,5
     132,669	   0,0135054	60,0	   0,0129423	64,4
     132,757	   0,0134839	58,9	    0,012839	56,6
     132,845	   0,0138443	61,8	   0,0129497	63,9
     132,933	    0,014144	58,5	   0,0131682	60,6
     133,021	   0,0139314	59,3	   0,0131399	62,9
     133,109	   0,0141008	62,2	   0,0135727	60,0
     133,196	   0,0143322	62,9	   0,0137847	60,1
     133,284	   0,0145795	58,5	   0,0140034	58,5
     133,372	   0,0151877	60,0	   0,0136746	62,6
      133,46	   0,0150065	60,6	    0,014115	58,8
     133,548	   0,0148303	58,4	   0,0141031	61,7
     133,636	   0,0151861	60,3	   0,0140515	60,6
     133,724	   0,0151734	60,0	   0,0145779	56,2
     133,812	   0,0156297	62,2	   0,0147907	62,7
       133,9	   0,0157451	62,1	   0,0149863	60,6
     133,988	   0,0158184	59,4	   0,0150574	60,2
     134,076	   0,0162147	55,8	   0,0152694	60,1
     134,164	   0,0165642	56,0	   0,0156245	60,2
     134,252	   0,0169414	58,2	   0,0156528	62,7
      134,34	   0,0170269	59,9	   0,0159444	59,1
     134,428	   0,0173816	62,4	   0,0164431	59,8
     134,516	   0,0174794	61,4	   0,0160768	62,4
     134,604	   0,0182566	58,9	   0,0169845	58,4
     134,692	   0,0183247	57,9	   0,0172341	60,4
      134,78	   0,0180303	59,7	   0,0167083	61,5
     134,868	   0,0186125	58,7	   0,0174985	58,7
     134,956	   0,0188979	59,3	   0,0175344	59,9
     135,044	   0,0190962	59,3	   0,0181844	60,2
     135,132	   0,0194031	63,2	   0,0180497	60,4
      135,22	   0,0195062	63,1	   0,0182073	60,0
     135,308	   0,0203542	59,5	   0,0186123	58,1
     135,396	    0,020082	60,4	   0,0191378	58,5
     135,484	   0,0206771	60,3	   0,0193855	61,1
     135,572	   0,0211937	58,9	   0,0194812	61,8
      135,66	   0,0216299	60,5	    0,019928	62,1
     135,748	   0,0216215	60,8	   0,0207633	59,8
     135,836	   0,0223645	63,7	   0,0202653	59,5
     135,924	   0,0226178	58,7	   0,0213024	60,0
     136,012	   0,0231892	60,0	   0,0212038	59,9
       136,1	    0,023556	63,8	   0,0223983	58,5
     136,188	   0,0238391	61,1	   0,0225414	57,9
     136,276	   0,0249476	58,9	   0,0226141	60,2
     136,364	   0,0250745	61,3	   0,0233772	57,7
     136,452	   0,0253408	60,3	   0,0232444	59,9
      136,54	   0,0263357	63,9	   0,0235333	63,6
     136,628	   0,0269624	61,7	   0,0249369	59,0
     136,716	   0,0272546	60,7	   0,0242915	61,3
     136,804	   0,0276755	64,2	   0,0252473	58,9
     136,891	   0,0289284	58,7	    0,026557	58,6
     136,979	    0,029237	58,1	   0,0268923	60,5
     137,067	   0,0300327	63,3	   0,0273427	61,7
     137,155	   0,0307764	61,8	   0,0277775	59,1
     137,243	   0,0319324	62,1	   0,0280444	60,5
     137,331	   0,0328472	58,9	   0,0286055	60,7
     137,419	   0,0332571	60,9	   0,0300637	58,7
     137,507	   0,0341657	62,4	   0,0304052	60,2
     137,595	   0,0355245	61,9	   0,0315233	62,4
     137,683	   0,0364094	60,1	   0,0329193	59,2
     137,771	   0,0373367	64,0	   0,0334672	60,5
     137,859	   0,0385066	62,2	   0,0342443	62,8
     137,947	   0,0398775	62,8	   0,0355187	59,9
     138,035	   0,0410653	63,8	   0,0361434	62,9
     138,123	   0,0428965	61,8	   0,0384403	57,1
     138,211	   0,0447298	60,4	    0,039509	61,8
     138,299	   0,0461774	61,8	   0,0417188	58,6
     138,387	   0,0478609	60,9	   0,0420882	64,3
     138,475	   0,0508246	61,7	   0,0445381	61,0
     138,563	   0,0529473	64,0	   0,0459737	64,6
     138,651	   0,0551939	65,9	   0,0486872	62,3
     138,739	    0,057447	65,3	   0,0494746	62,6
     138,827	   0,0602936	64,0	   0,0523795	63,6
     138,915	   0,0640535	67,3	   0,0563501	61,6
     139,003	   0,0672468	65,9	    0,056928	64,4
     139,091	   0,0706382	63,2	   0,0612997	65,2
     139,179	   0,0738794	64,9	   0,0648375	61,8
     139,267	   0,0782356	69,1	   0,0659238	63,8
     139,355	   0,0822051	69,9	   0,0694746	63,3
     139,443	   0,0862818	69,9	   0,0740677	62,9
     139,531	   0,0906794	70,0	    0,075566	66,1
     139,619	    0,095281	68,0	   0,0791593	68,1
     139,707	   0,0996416	71,8	   0,0832121	66,0
     139,795	    0,103664	71,9	     0,08645	67,2
     139,883	     0,10876	71,0	   0,0910108	66,0
     139,971	    0,112932	71,9	   0,0945267	66,8
     140,059	    0,117265	74,6	   0,0979202	66,6
     140,147	    0,121487	74,0	    0,102373	69,5
     140,235	    0,126598	74,0	    0,106657	69,8
     140,323	    0,130521	77,5	    0,110328	70,2
     140,411	    0,135014	74,3	    0,114455	72,0
     140,499	     0,13985	77,6	     0,11955	69,6
     140,587	    0,143826	74,2	    0,123798	72,8
     140,674	    0,148152	79,2	    0,127933	71,7
     140,762	    0,152559	75,9	    0,131922	72,4
      140,85	    0,156531	77,5	    0,137458	72,0
     140,938	    0,160503	80,0	    0,141703	75,7
     141,026	    0,164689	77,6	    0,145682	73,5
     141,114	    0,168383	80,6	    0,149181	74,8
     141,202	    0,172969	77,7	    0,152236	76,4
      141,29	    0,176183	79,0	    0,156394	74,7
     141,378	    0,180306	81,1	    0,161001	75,5
     141,466	    0,184541	80,3	    0,165157	77,0
     141,554	    0,188018	80,6	    0,168441	76,1
     141,642	     0,19143	82,8	    0,171691	75,9
      141,73	    0,195262	85,6	    0,176476	80,0
     141,818	    0,198812	83,3	      0,1801	79,7
     141,906	    0,202978	81,6	    0,182512	77,5
     141,994	    0,205994	82,4	    0,187024	78,1
     142,082	    0,209594	82,6	    0,190751	75,5
      142,17	    0,212958	84,3	    0,178152	162,2
     142,258	    0,216372	84,3	    0,151774	-152,5
     142,346	    0,219196	85,6	    0,125551	-146,7
     142,434	    0,222882	86,3	    0,108699	-142,9
     142,522	    0,226121	86,4	   0,0968381	-136,5
      142,61	    0,229519	86,8	   0,0878713	-133,5
     142,698	    0,231953	85,8	   0,0823669	-136,5
     142,786	    0,235599	84,7	   0,0760266	-133,6
     142,874	     0,23898	85,9	   0,0726401	-133,7
     142,962	      0,2422	85,8	   0,0688947	-132,6
      143,05	    0,245372	84,5	   0,0646006	-132,8
     143,138	    0,248638	85,7	   0,0624752	-132,5
     143,226	    0,251297	88,6	   0,0601554	-131,5
     143,314	     0,25481	89,8	   0,0569297	-129,1
     143,402	    0,257357	88,9	   0,0551271	-129,1
      143,49	     0,26047	86,4	   0,0534122	-133,2
     143,578	    0,264168	87,7	   0,0507999	-132,4
     143,666	    0,266128	89,4	   0,0503902	-131,3
     143,754	    0,269195	86,3	   0,0483395	-129,5
     143,842	    0,272802	88,3	   0,0463602	-131,2
      143,93	    0,274833	90,4	   0,0454169	-129,1
     144,018	    0,278156	85,1	   0,0437478	-129,1
     144,106	    0,281312	91,5	   0,0424958	-131,8
     144,194	    0,283982	90,1	   0,0417384	-128,1
     144,282	    0,287686	92,5	   0,0399723	-130,3
      144,37	    0,289079	91,4	    0,039863	-129,3
     144,457	    0,292783	93,3	   0,0380789	-130,0
     144,545	    0,294948	87,7	   0,0373819	-127,2
     144,633	    0,298791	89,6	    0,035632	-128,0
     144,721	    0,300395	87,4	   0,0360048	-125,2
     144,809	    0,303162	88,9	    0,035032	-125,0
     144,897	    0,306669	89,5	   0,0337715	-126,3
     144,985	     0,30745	91,3	   0,0339656	-127,6
     145,073	    0,310809	95,8	   0,0322286	-128,4
     145,161	    0,314223	91,9	   0,0315544	-129,3
     145,249	    0,315528	91,9	   0,0314319	-129,2
     145,337	    0,318226	92,4	   0,0307103	-128,2
     145,425	    0,322107	96,1	   0,0295608	-126,3
     145,513	    0,324576	88,3	   0,0292145	-128,2
     145,601	    0,325975	86,2	   0,0286504	-123,6
     145,689	    0,328029	94,1	   0,0283626	-127,5
     145,777	     0,33205	92,5	   0,0279489	-129,4
     145,865	    0,334215	98,5	    0,026489	-126,5
     145,953	    0,338434	93,5	   0,0254065	-130,1
     146,041	    0,341337	94,4	   0,0257111	-126,5
     146,129	    0,343871	95,4	   0,0252754	-125,3
     146,217	     0,34694	95,0	   0,0242186	-130,2
     146,305	    0,348853	92,8	   0,0242368	-126,0
     146,393	     0,35129	90,6	   0,0241564	-128,3
     146,481	    0,353929	94,5	   0,0233419	-126,3
     146,569	    0,356699	95,0	   0,0231055	-126,0
     146,657	    0,359315	96,5	   0,0226543	-129,4
     146,745	    0,362007	93,3	   0,0228361	-127,6
     146,833	    0,361433	99,8	   0,0227331	-125,1
     146,921	    0,362663	98,8	   0,0224047	-124,0
     147,009	     0,36519	93,7	   0,0212431	-127,3
     147,097	    0,367863	94,7	   0,0215992	-126,4
     147,185	    0,372375	92,2	    0,020813	-122,4
     147,273	    0,374365	95,4	   0,0207316	-128,4
     147,361	    0,375228	96,6	   0,0209964	-124,3
     147,449	    0,377744	96,3	     0,02015	-125,6
     147,537	    0,381183	97,3	   0,0198382	-128,3
     147,625	    0,382338	96,3	   0,0196352	-124,1
     147,713	    0,385028	94,1	   0,0198663	-129,3
     147,801	    0,388181	98,2	   0,0191394	-129,3
     147,889	    0,389323	98,7	   0,0196698	-127,7
     147,977	    0,392733	95,5	   0,0183723	-128,3
     148,065	    0,393753	97,4	   0,0187144	-127,5
     148,152	    0,397023	98,2	   0,0186028	-126,2
      148,24	    0,398914	99,2	   0,0184053	-125,5
     148,328	    0,401917	96,5	   0,0176323	-127,6
     148,416	    0,403258	99,8	    0,017478	-128,3
     148,504	    0,405654	100,9	   0,0174524	-126,5
     148,592	    0,407557	101,6	   0,0174984	-125,3
      148,68	    0,410349	98,1	   0,0167761	-125,9
     148,768	    0,412939	98,0	   0,0168596	-125,6
     148,856	    0,414638	97,1	   0,0174806	-123,8
     148,944	    0,416597	102,0	   0,0166459	-128,0
     149,032	    0,419588	98,0	   0,0162267	-126,5
      149,12	    0,421856	99,0	   0,0162331	-124,1
     149,208	    0,423782	98,0	   0,0162948	-128,7
     149,296	     0,42546	100,7	   0,0158383	-128,3
     149,384	    0,427967	98,4	   0,0153876	-126,4
     149,472	    0,430302	101,8	   0,0158895	-123,9
      149,56	     0,43236	103,0	   0,0157188	-128,1
     149,648	    0,434251	98,5	   0,0152613	-129,0
     149,736	    0,436731	100,2	   0,0152639	-127,6
     149,824	    0,439145	101,2	   0,0149025	-123,2
     149,912	    0,441131	101,3	   0,0148452	-126,6
         150	     0,44315	99,5	    0,014805	-129,6
     150,088	    0,445104	103,6	   0,0148824	-125,9
     150,176	    0,447389	100,8	   0,0146935	-124,9
     150,264	    0,449723	99,3	   0,0143187	-124,8
     150,352	    0,451485	99,7	   0,0141634	-125,1
      150,44	     0,45396	100,9	   0,0137857	-128,4
     150,528	     0,45634	102,6	   0,0139306	-125,7
     150,616	    0,458354	104,3	    0,013547	-125,8
     150,704	    0,460476	102,6	   0,0136628	-127,1
     150,792	    0,462837	98,5	   0,0136716	-124,5
      150,88	    0,464478	104,1	   0,0134374	-128,4
     150,968	    0,466598	100,3	   0,0132019	-125,7
     151,056	    0,468837	101,4	   0,0131601	-128,7
     151,144	    0,471068	101,4	   0,0131863	-124,1
     151,232	    0,472388	105,1	   0,0128314	-125,9
      151,32	    0,475211	102,3	   0,0128782	-129,1
     151,408	    0,477033	105,1	   0,0126836	-130,4
     151,496	    0,479717	101,7	   0,0127923	-124,3
     151,584	    0,481253	102,8	    0,012462	-123,6
     151,672	    0,483103	101,9	   0,0126891	-126,6
      151,76	    0,485647	102,1	   0,0123576	-126,2
     151,848	    0,487519	104,1	   0,0122416	-125,0
     151,935	    0,489865	101,6	   0,0121888	-127,8
     152,023	    0,491491	102,2	   0,0118434	-122,8
     152,111	    0,494066	103,9	   0,0117544	-128,1
     152,199	    0,495723	103,6	   0,0120569	-122,8
     152,287	    0,498051	103,0	   0,0116843	-126,8
     152,375	     0,49978	104,6	    0,011632	-127,4
     152,463	    0,501834	103,4	    0,011651	-127,5
     152,551	    0,504556	106,0	   0,0120922	-126,0
     152,639	    0,505908	103,9	    0,011213	-127,4
     152,727	     0,50762	106,8	   0,0110111	-126,8
     152,815	    0,510351	105,4	   0,0112853	-131,3
     152,903	    0,512188	107,8	   0,0114457	-127,1
     152,991	     0,51355	104,9	   0,0112466	-125,6
     153,079	    0,515894	102,9	   0,0109696	-126,7
     153,167	    0,519047	102,4	   0,0114983	-123,7
     153,255	    0,520734	103,8	   0,0114393	-123,0
     153,343	    0,522232	109,9	     0,01102	-126,9
     153,431	     0,52413	106,4	   0,0106912	-123,5
     153,519	    0,525487	104,7	   0,0106475	-124,6
     153,607	    0,527934	103,9	   0,0108181	-125,9
     153,695	     0,52934	105,4	   0,0105619	-124,0
     153,783	    0,531934	102,1	   0,0106779	-128,9
     153,871	    0,533659	107,9	  0,00998891	-129,2
     153,959	    0,535695	104,1	  0,00998336	-128,2
     154,047	    0,537827	104,2	   0,0105741	-128,0
     154,135	    0,539599	104,6	    0,010374	-123,6
     154,223	    0,541289	109,9	   0,0100809	-126,4
     154,311	    0,543584	106,9	  0,00960664	-126,2
     154,399	    0,546022	110,4	  0,00989657	-124,9
     154,487	    0,549211	111,0	  0,00999711	-126,8
     154,575	    0,550956	111,8	   0,0101297	-128,0
     154,663	    0,552281	107,3	   0,0103448	-123,9
     154,751	    0,553575	107,6	  0,00973376	-127,3
     154,839	    0,555525	113,2	  0,00946965	-123,3
     154,927	     0,55989	109,5	  0,00957798	-127,5
     155,015	    0,561085	109,3	  0,00993732	-125,1
     155,103	    0,560499	110,4	   0,0097626	-124,0
     155,191	    0,565011	115,4	  0,00944244	-124,7
     155,279	    0,566837	107,6	  0,00981397	-124,8
     155,367	    0,566372	110,4	   0,0092533	-124,3
     155,455	    0,571521	111,2	  0,00946043	-125,9
     155,543	    0,570989	108,8	  0,00958675	-124,0
      155,63	    0,573822	115,8	  0,00918492	-125,1
     155,718	    0,576252	108,4	  0,00988683	-123,1
     155,806	    0,577999	115,3	   0,0092012	-122,2
     155,894	    0,580943	106,3	  0,00969547	-122,1
     155,982	    0,581172	113,8	  0,00877723	-128,5
      156,07	    0,583385	108,5	  0,00941191	-122,7
     156,158	    0,586304	115,2	  0,00895101	-123,8
     156,246	    0,586098	115,6	  0,00896467	-127,0
     156,334	    0,591118	109,3	  0,00932165	-124,2
     156,422	    0,591765	115,9	  0,00879765	-124,2
      156,51	    0,592024	113,0	  0,00905647	-128,1
     156,598	    0,596161	111,4	  0,00893174	-126,8
     156,686	    0,598314	114,7	  0,00857202	-130,9
     156,774	    0,597883	113,6	  0,00872564	-128,4
     156,862	    0,599987	114,4	  0,00912166	-125,0
      156,95	    0,603267	116,0	  0,00898463	-126,9
     157,038	     0,60651	113,4	  0,00852051	-129,7
     157,126	    0,607854	114,4	  0,00837733	-124,7
     157,214	    0,608233	118,9	  0,00828817	-131,0
     157,302	    0,609821	114,0	  0,00844032	-126,5
      157,39	    0,612077	116,7	  0,00867868	-122,2
     157,478	    0,613875	112,6	  0,00876588	-123,7
     157,566	    0,616231	117,4	  0,00871035	-123,1
     157,654	    0,617726	117,6	  0,00878557	-125,5
     157,742	    0,620059	116,6	  0,00843522	-124,0
      157,83	    0,621555	117,0	  0,00851599	-123,1
     157,918	    0,623894	115,5	  0,00849701	-123,5
     158,006	    0,626052	119,3	   0,0084237	-127,1
     158,094	    0,626779	117,1	  0,00829789	-128,0
     158,182	    0,629996	118,0	   0,0080951	-125,2
      158,27	    0,631537	116,9	  0,00778729	-128,8
     158,358	    0,634244	119,2	  0,00781145	-130,9
     158,446	    0,636031	117,9	   0,0080427	-124,5
     158,534	      0,6371	118,6	  0,00823956	-125,6
     158,622	    0,639379	117,2	  0,00824348	-123,2
      158,71	    0,641576	119,8	  0,00776296	-129,0
     158,798	    0,643359	121,8	  0,00768326	-126,8
     158,886	    0,644774	122,7	   0,0080605	-126,9
     158,974	    0,647246	115,4	  0,00796091	-125,2
     159,062	    0,648998	121,5	   0,0077509	-127,0
      159,15	    0,650914	120,3	    0,007894	-126,4
     159,238	    0,653213	116,5	  0,00763454	-126,1
     159,326	    0,654275	119,9	  0,00789093	-123,7
     159,413	    0,656514	120,6	  0,00780608	-124,9
     159,501	    0,657806	125,0	  0,00772338	-121,8
     159,589	      0,6606	122,0	  0,00765311	-124,4
     159,677	    0,661593	124,9	   0,0074399	-125,1
     159,765	    0,664643	122,1	  0,00774088	-126,7
     159,853	    0,665231	123,9	  0,00759739	-128,3
     159,941	    0,668097	122,7	  0,00745411	-123,2
     160,029	    0,669609	123,6	  0,00762578	-122,2
     160,117	    0,671596	123,3	  0,00726913	-126,8
     160,205	    0,673069	123,4	  0,00743653	-125,2
     160,293	    0,674641	128,3	  0,00721135	-121,5
     160,381	    0,677295	124,4	  0,00697116	-128,6
     160,469	    0,678909	127,3	  0,00714551	-128,9
     160,557	    0,681088	125,7	  0,00752164	-126,3
     160,645	    0,682846	127,9	  0,00724074	-124,3
     160,733	    0,684031	129,3	  0,00692606	-128,9
     160,821	    0,686593	129,0	  0,00720203	-127,1
     160,909	    0,688468	128,7	   0,0070787	-123,6
     160,997	    0,690563	126,7	   0,0072439	-128,1
     161,085	    0,692465	126,1	  0,00721803	-126,3
     161,173	    0,693595	128,4	  0,00713646	-124,8
     161,261	    0,695725	128,2	   0,0071455	-123,1
     161,349	    0,697263	128,2	  0,00715774	-124,4
     161,437	    0,700045	125,3	  0,00701585	-125,3
     161,525	    0,701521	131,2	  0,00693547	-127,0
     161,613	    0,703595	129,3	  0,00699168	-122,1
     161,701	    0,705376	130,6	  0,00692397	-127,2
     161,789	    0,707169	130,7	  0,00691913	-127,9
     161,877	    0,709118	127,9	  0,00702712	-118,7
     161,965	    0,710676	135,1	  0,00695615	-125,9
     162,053	    0,712549	136,3	  0,00688126	-130,1
     162,141	    0,714185	136,9	  0,00687213	-124,1
     162,229	    0,715787	136,4	   0,0065081	-128,2
     162,317	    0,718345	131,8	  0,00698012	-128,1
     162,405	     0,71982	139,5	  0,00690406	-127,3
     162,493	    0,721339	138,8	  0,00671119	-128,6
     162,581	    0,723233	139,4	  0,00660474	-125,7
     162,669	    0,725418	138,6	  0,00653331	-128,9
     162,757	      0,7273	141,6	  0,00673929	-128,2
     162,845	    0,728522	142,7	  0,00656004	-126,3
     162,933	    0,730692	145,7	  0,00686252	-124,6
     163,021	      0,7314	150,0	  0,00661195	-124,4
     163,109	    0,733236	153,9	  0,00644601	-124,2
     163,196	    0,734399	163,8	  0,00669189	-124,3
     163,284	    0,732367	185,1	  0,00642353	-126,2
     163,372	  0,00634645	-123,3	  0,00666275	-126,4
      163,46	  0,00623585	-129,8	  0,00630922	-125,3
     163,548	   0,0062289	-122,7	  0,00654226	-127,9
     163,636	  0,00603426	-124,1	  0,00637639	-128,9
     163,724	  0,00637997	-126,2	  0,00659181	-128,1
     163,812	  0,00620966	-126,0	  0,00639434	-128,3
       163,9	  0,00604405	-124,6	  0,00625161	-126,6
     163,988	   0,0061299	-120,7	  0,00654463	-123,2
     164,076	  0,00610732	-123,8	  0,00633498	-125,8
     164,164	  0,00619789	-125,0	  0,00631563	-128,0
     164,252	  0,00609471	-125,9	  0,00642549	-128,1
      164,34	   0,0060184	-124,4	   0,0063249	-127,0
     164,428	  0,00601081	-129,6	  0,00614271	-127,1
     164,516	  0,00606057	-125,9	  0,00626483	-124,8
     164,604	  0,00600985	-123,8	  0,00632631	-126,2
     164,692	  0,00617454	-123,6	   0,0064088	-126,8
      164,78	  0,00605697	-124,8	  0,00611874	-131,7
     164,868	  0,00595738	-126,9	  0,00599313	-127,1
     164,956	  0,00587163	-128,9	   0,0060426	-127,6
     165,044	  0,00576173	-124,5	  0,00599354	-121,0
     165,132	  0,00586905	-125,6	  0,00619135	-125,1
      165,22	  0,00580013	-126,1	  0,00614022	-125,7
     165,308	  0,00582106	-126,0	  0,00612899	-123,4
     165,396	  0,00579085	-125,4	  0,00592309	-128,6
     165,484	  0,00588167	-126,9	  0,00605621	-126,6
     165,572	  0,00581511	-125,2	  0,00596363	-129,8
      165,66	   0,0058236	-124,0	  0,00595782	-131,6
     165,748	  0,00592446	-122,1	  0,00596907	-124,8
     165,836	  0,00588756	-127,3	  0,00608401	-128,1
     165,924	  0,00589275	-124,2	  0,00603667	-128,2
     166,012	  0,00601229	-126,1	  0,00600583	-118,9
       166,1	  0,00551105	-121,3	  0,00598156	-125,0
     166,188	  0,00589893	-134,4	  0,00602705	-133,6
     166,276	  0,00578406	-125,9	  0,00616888	-125,3
     166,364	  0,00563581	-128,0	  0,00594997	-128,8
     166,452	  0,00563358	-128,7	   0,0059735	-124,3
      166,54	  0,00579468	-124,6	  0,00573527	-125,5
     166,628	  0,00568813	-122,0	  0,00603404	-127,5
     166,716	  0,00566145	-124,8	  0,00578847	-121,0
     166,804	  0,00566284	-125,8	  0,00580619	-125,8
     166,891	  0,00553892	-126,3	  0,00584884	-123,5
     166,979	  0,00582339	-127,6	  0,00610971	-127,3
     167,067	  0,00541358	-124,7	  0,00591374	-126,1
     167,155	  0,00568762	-123,2	    0,005682	-121,8
     167,243	   0,0054996	-126,5	  0,00555309	-124,7
     167,331	   0,0056749	-124,5	  0,00561547	-126,0
     167,419	  0,00560623	-129,3	  0,00593014	-130,8
     167,507	  0,00573191	-125,7	  0,00580646	-130,3
     167,595	  0,00543423	-125,8	  0,00583662	-121,9
     167,683	  0,00563595	-124,6	  0,00594114	-129,2
     167,771	  0,00565717	-128,4	  0,00590189	-129,6
     167,859	  0,00568117	-126,4	    0,005492	-123,6
     167,947	  0,00549732	-128,0	  0,00591212	-129,3
     168,035	  0,00558283	-128,4	  0,00565658	-121,2
     168,123	   0,0052751	-125,5	  0,00578677	-128,3
     168,211	  0,00552915	-125,0	  0,00552765	-123,1
     168,299	  0,00558472	-122,9	  0,00561081	-128,9
     168,387	  0,00547831	-125,5	  0,00551782	-123,9
     168,475	  0,00547341	-124,6	  0,00566474	-121,3
     168,563	  0,00535577	-128,8	  0,00583352	-127,1
     168,651	  0,00573269	-127,9	  0,00551968	-128,8
     168,739	  0,00548307	-127,9	  0,00566685	-127,6
     168,827	  0,00530662	-126,5	  0,00550388	-124,0
     168,915	  0,00529332	-128,9	  0,00542641	-128,6
     169,003	  0,00551329	-130,0	  0,00572266	-130,9
     169,091	  0,00535513	-124,5	  0,00559077	-129,1
     169,179	  0,00515305	-123,5	  0,00550219	-124,1
     169,267	  0,00520773	-123,9	  0,00536344	-128,9
     169,355	   0,0056237	-131,1	  0,00577615	-130,0
     169,443	  0,00519792	-118,7	  0,00509975	-121,0
     169,531	  0,00529916	-125,2	  0,00587725	-133,7
     169,619	  0,00531697	-131,9	  0,00558151	-129,6
     169,707	   0,0053019	-127,5	   0,0050625	-123,3
     169,795	  0,00532558	-127,6	  0,00499566	-121,5
     169,883	  0,00491783	-124,4	  0,00555755	-129,1
     169,971	   0,0052262	-124,2	  0,00557524	-128,3
     170,059	  0,00510753	-123,7	   0,0055102	-131,6
     170,147	  0,00543164	-127,2	  0,00565884	-129,0
     170,235	  0,00520562	-124,8	  0,00531157	-124,2
     170,323	  0,00518201	-124,1	  0,00544898	-129,3
     170,411	  0,00476389	-123,7	  0,00545264	-129,3
     170,499	  0,00488199	-118,4	  0,00554565	-126,1
     170,587	  0,00535425	-125,4	  0,00541543	-118,3
     170,674	  0,00515679	-125,3	  0,00535253	-125,4
     170,762	  0,00516749	-127,8	  0,00543514	-124,9
      170,85	  0,00480603	-125,3	  0,00540372	-130,6
     170,938	  0,00506138	-126,3	  0,00544498	-126,1
     171,026	  0,00518427	-129,1	  0,00499499	-120,8
     171,114	  0,00504807	-127,4	  0,00513085	-125,3
     171,202	   0,0051952	-127,4	  0,00516927	-124,8
      171,29	  0,00499935	-123,6	  0,00493248	-120,1
     171,378	  0,00499803	-129,0	  0,00515498	-127,7
     171,466	  0,00495117	-122,9	  0,00550625	-129,4
     171,554	  0,00522435	-127,9	  0,00530957	-125,2
     171,642	  0,00496309	-123,0	  0,00527296	-133,6
      171,73	  0,00521855	-130,5	  0,00547262	-130,4
     171,818	  0,00503873	-122,7	   0,0051344	-129,0
     171,906	  0,00529666	-125,9	  0,00516505	-128,9
     171,994	  0,00509475	-126,3	  0,00508727	-123,2
     172,082	   0,0050932	-124,5	  0,00500716	-122,9
      172,17	  0,00488213	-126,7	  0,00508332	-122,6
     172,258	  0,00515251	-124,9	  0,00514927	-124,1
     172,346	   0,0051966	-122,1	  0,00490658	-126,6
     172,434	  0,00496393	-132,8	  0,00516017	-127,9
     172,522	  0,00537228	-127,5	  0,00499308	-127,4
      172,61	  0,00498726	-128,2	  0,00524294	-125,6
     172,698	  0,00500418	-128,2	   0,0048642	-125,0
     172,786	  0,00534435	-129,3	  0,00522835	-128,0
     172,874	  0,00520135	-134,2	  0,00492689	-121,7
     172,962	  0,00446185	-126,0	  0,00485963	-122,7
      173,05	  0,00476858	-127,7	  0,00541642	-132,5
     173,138	  0,00507992	-129,1	  0,00505197	-124,0
     173,226	  0,00492017	-129,6	  0,00486575	-126,0
     173,314	  0,00473195	-121,6	  0,00499666	-124,1
     173,402	  0,00503483	-131,3	  0,00497566	-127,7
      173,49	  0,00498663	-129,3	  0,00499121	-128,7
     173,578	  0,00479533	-121,0	  0,00499413	-127,2
     173,666	  0,00484883	-129,5	  0,00526637	-133,0
     173,754	  0,00468497	-124,3	  0,00483814	-131,8
     173,842	  0,00425594	-119,5	  0,00495871	-128,3
      173,93	  0,00482332	-127,4	  0,00509735	-126,6
     174,018	  0,00493745	-122,0	  0,00471933	-125,3
     174,106	  0,00468461	-120,7	  0,00478437	-126,4
     174,194	  0,00491474	-127,3	  0,00507918	-126,2
     174,282	  0,00469722	-128,1	  0,00454142	-120,6
      174,37	  0,00465019	-128,0	   0,0050367	-130,6
     174,457	  0,00475115	-130,7	  0,00495493	-129,5
     174,545	   0,0046616	-124,4	  0,00480923	-127,8
     174,633	  0,00493947	-131,4	  0,00491345	-128,9
     174,721	  0,00486751	-128,5	  0,00456159	-121,4
     174,809	  0,00457177	-122,0	  0,00501341	-124,7
     174,897	  0,00476393	-122,0	  0,00477725	-125,6
     174,985	  0,00413755	-117,6	  0,00491715	-126,3
     175,073	  0,00490896	-129,9	  0,00473735	-125,9
     175,161	  0,00464902	-123,9	  0,00490882	-121,2
     175,249	  0,00455365	-128,0	  0,00505583	-128,3
     175,337	  0,00479548	-124,9	   0,0047234	-126,6
     175,425	  0,00421912	-121,4	  0,00515364	-128,8
     175,513	  0,00484291	-129,9	   0,0049649	-123,8
     175,601	    0,004889	-123,4	   0,0049921	-127,3
     175,689	  0,00429643	-122,9	  0,00484636	-129,7
     175,777	   0,0052183	-131,4	  0,00505379	-128,0
     175,865	    0,004706	-129,9	  0,00524602	-128,8
     175,953	  0,00442141	-123,7	  0,00503813	-129,5
     176,041	  0,00470233	-131,8	  0,00442256	-125,7
     176,129	  0,00474052	-123,6	  0,00465927	-125,3
     176,217	  0,00464228	-120,4	  0,00476939	-124,9
     176,305	  0,00461912	-123,7	  0,00511282	-128,9
     176,393	  0,00448035	-124,0	  0,00482443	-120,7
     176,481	  0,00478519	-128,2	  0,00473878	-125,2
     176,569	  0,00414102	-125,1	  0,00494994	-127,8
     176,657	  0,00468114	-126,6	  0,00449067	-122,3
     176,745	  0,00460087	-128,2	  0,00499946	-131,9
     176,833	  0,00428717	-125,7	  0,00497508	-129,9
     176,921	  0,00442318	-122,9	  0,00468926	-125,6
     177,009	  0,00430972	-127,2	  0,00503671	-131,3
     177,097	  0,00471042	-125,7	  0,00459198	-128,1
     177,185	  0,00504643	-125,1	   0,0052402	-130,6
     177,273	  0,00469546	-126,9	  0,00437425	-118,3
     177,361	  0,00471341	-126,8	  0,00434207	-121,2
     177,449	  0,00430966	-121,7	  0,00448566	-126,3
     177,537	  0,00484363	-125,9	   0,0043432	-128,3
     177,625	  0,00486409	-129,5	  0,00487363	-130,4
     177,713	   0,0045965	-125,9	  0,00472483	-127,2
     177,801	  0,00479092	-133,0	  0,00485296	-129,7
     177,889	  0,00451805	-125,8	  0,00489171	-120,3
     177,977	  0,00483324	-123,8	  0,00479867	-128,7
     178,065	  0,00443667	-120,0	  0,00470053	-130,6
     178,152	  0,00475631	-132,3	  0,00473199	-128,3
      178,24	  0,00444992	-129,0	  0,00442122	-129,0
     178,328	  0,00470007	-130,4	  0,00468442	-127,3
     178,416	  0,00457057	-125,8	  0,00476879	-128,4
     178,504	  0,00472628	-126,5	   0,0047999	-124,3
     178,592	   0,0046135	-127,7	  0,00486086	-128,1
      178,68	  0,00453397	-123,3	  0,00420756	-126,2
     178,768	  0,00470694	-125,2	  0,00435555	-127,5
     178,856	  0,00440356	-124,5	  0,00438538	-133,2
     178,944	  0,00410028	-128,7	  0,00451043	-125,6
     179,032	  0,00415292	-126,2	  0,00447978	-128,4
      179,12	  0,00481889	-129,6	  0,00464784	-128,3
     179,208	  0,00446937	-119,3	  0,00404917	-123,7
     179,296	  0,00434028	-127,7	  0,00435283	-128,8
     179,384	   0,0048078	-124,4	  0,00476418	-127,4
     179,472	  0,00429742	-122,3	  0,00427947	-122,6
      179,56	  0,00440479	-125,0	  0,00399659	-122,8
     179,648	  0,00462029	-127,4	  0,00495043	-119,7
     179,736	  0,00423884	-127,2	  0,00475583	-127,8
     179,824	    0,004743	-124,6	  0,00444016	-127,4
     179,912	  0,00450604	-123,7	  0,00446452	-132,2
         180	  0,00406197	-123,5	  0,00439992	-123,9
     180,088	  0,00474925	-128,5	  0,00456256	-132,1
     180,176	  0,00431546	-129,6	  0,00482021	-125,3
     180,264	  0,00433739	-126,2	  0,00518041	-132,2
     180,352	  0,00427952	-131,4	  0,00433606	-130,7
      180,44	  0,00471558	-131,4	   0,0043736	-127,6
     180,528	  0,00434482	-127,6	  0,00432958	-127,6
     180,616	   0,0044093	-132,3	  0,00508719	-125,8
     180,704	  0,00401391	-124,5	   0,0044249	-127,9
     180,792	  0,00469387	-122,4	  0,00452667	-127,0
      180,88	  0,00477508	-126,5	  0,00480966	-131,8
     180,968	  0,00469935	-127,9	  0,00507261	-134,1
     181,056	   0,0045962	-127,0	  0,00448163	-126,1
     181,144	  0,00438502	-126,5	  0,00458626	-127,0
     181,232	  0,00423506	-129,8	  0,00455582	-127,8
      181,32	  0,00411108	-130,9	  0,00482239	-126,1
     181,408	  0,00426914	-123,7	  0,00413131	-122,5
     181,496	  0,00448606	-128,2	  0,00395222	-127,6
     181,584	  0,00448042	-122,4	  0,00450481	-122,2
     181,672	   0,0046726	-133,9	  0,00415638	-127,9
      181,76	  0,00419848	-131,8	  0,00512589	-125,8
     181,848	  0,00410186	-126,7	  0,00444987	-120,1
     181,935	    0,003871	-126,2	    0,005042	-125,1
     182,023	  0,00430523	-132,5	  0,00457021	-128,2
     182,111	  0,00469217	-126,6	  0,00446957	-128,3
     182,199	  0,00422971	-126,3	  0,00416874	-131,0
     182,287	  0,00422837	-128,9	  0,00435402	-122,9
     182,375	  0,00370501	-124,8	  0,00429678	-131,1
     182,463	  0,00398844	-123,5	  0,00410106	-125,6
     182,551	  0,00393361	-123,3	  0,00415192	-125,8
     182,639	  0,00421874	-129,4	  0,00439196	-132,3
     182,727	  0,00411707	-125,3	  0,00526692	-131,3
     182,815	  0,00451681	-124,1	  0,00484126	-126,9
     182,903	  0,00416469	-133,7	   0,0043913	-127,2
     182,991	    0,004524	-133,0	  0,00458214	-125,2
     183,079	  0,00461625	-127,8	  0,00435671	-125,9
     183,167	    0,004423	-134,5	  0,00451808	-126,7
     183,255	  0,00480293	-128,3	  0,00494799	-128,9
     183,343	  0,00433739	-125,6	   0,0040444	-125,4
     183,431	  0,00455906	-123,5	  0,00433282	-122,0
     183,519	  0,00432978	-123,9	  0,00464476	-118,5
     183,607	  0,00426022	-132,4	  0,00450213	-129,7
     183,695	  0,00456304	-121,9	  0,00380561	-127,6
     183,783	  0,00388625	-128,6	  0,00453355	-123,4
     183,871	  0,00438361	-125,0	  0,00451948	-128,7
     183,959	  0,00427526	-125,5	  0,00451482	-129,1
     184,047	  0,00398267	-122,5	  0,00445851	-130,1
     184,135	  0,00459563	-122,9	  0,00447476	-126,4
     184,223	  0,00433498	-129,7	  0,00430317	-126,0
     184,311	  0,00451114	-134,4	  0,00456301	-129,6
     184,399	    0,004324	-123,8	  0,00450021	-133,5
     184,487	  0,00399284	-123,8	  0,00441961	-120,8
     184,575	  0,00460628	-125,5	  0,00406611	-126,6
     184,663	   0,0044424	-131,1	  0,00448502	-123,9
     184,751	  0,00460815	-128,4	  0,00451762	-125,6
     184,839	  0,00414519	-124,5	  0,00429058	-121,7
     184,927	  0,00430057	-121,4	  0,00433544	-132,7
     185,015	  0,00433035	-122,9	  0,00429312	-121,8
     185,103	  0,00433196	-123,4	  0,00470108	-128,8
     185,191	  0,00469454	-126,8	  0,00459334	-123,8
     185,279	  0,00382973	-128,5	  0,00428956	-125,9
     185,367	  0,00422788	-129,4	  0,00416812	-130,1
     185,455	  0,00428294	-128,4	  0,00420578	-127,6
     185,543	  0,00409752	-126,5	  0,00448168	-131,3
      185,63	  0,00412797	-133,2	  0,00434508	-124,1
     185,718	  0,00420565	-133,6	  0,00455122	-127,7
     185,806	  0,00458645	-130,4	  0,00453815	-125,8
     185,894	  0,00450771	-126,8	  0,00426066	-125,6
     185,982	  0,00386244	-128,3	  0,00428586	-126,5
      186,07	  0,00409431	-129,7	  0,00414884	-126,9
     186,158	  0,00431501	-122,4	  0,00433537	-133,2
     186,246	  0,00394792	-127,0	  0,00434898	-129,8
     186,334	  0,00368599	-130,5	  0,00448275	-127,6
     186,422	  0,00412359	-121,4	  0,00456507	-126,8
      186,51	  0,00452743	-124,5	  0,00414197	-125,5
     186,598	  0,00399005	-121,4	  0,00415316	-128,9
     186,686	  0,00424484	-123,3	  0,00371615	-128,3
     186,774	  0,00392075	-128,6	    0,004148	-122,0
     186,862	  0,00446107	-125,0	  0,00451983	-129,5
      186,95	   0,0043122	-118,6	  0,00438855	-127,7
     187,038	  0,00417017	-124,4	  0,00452905	-130,4
     187,126	  0,00377382	-124,2	  0,00414244	-126,4
     187,214	  0,00429214	-132,0	  0,00421217	-127,8
     187,302	  0,00429089	-125,4	  0,00404654	-123,3
      187,39	  0,00432801	-128,2	  0,00455146	-128,1
     187,478	  0,00462299	-126,6	  0,00415617	-131,0
     187,566	    0,004567	-124,0	  0,00413901	-123,1
     187,654	  0,00433895	-121,1	  0,00446307	-132,1
     187,742	  0,00384217	-130,0	  0,00412619	-123,9
      187,83	      0,0042	-125,5	  0,00436408	-127,5
     187,918	  0,00433514	-118,3	  0,00395409	-126,9
     188,006	  0,00461989	-128,7	  0,00465715	-123,4
     188,094	  0,00394158	-129,7	  0,00383049	-137,1
     188,182	  0,00412042	-125,4	  0,00449601	-123,3
      188,27	  0,00409647	-132,9	  0,00451175	-129,2
     188,358	   0,0039162	-134,7	  0,00414486	-124,9
     188,446	  0,00413351	-118,2	  0,00419111	-124,0
     188,534	   0,0044529	-122,6	  0,00463132	-125,3
     188,622	  0,00436781	-133,0	  0,00376227	-123,9
      188,71	  0,00400171	-128,0	  0,00443956	-126,5
     188,798	  0,00451687	-122,1	  0,00407413	-128,0
     188,886	  0,00435561	-124,6	  0,00437836	-124,6
     188,974	  0,00413589	-125,7	  0,00401257	-128,8
     189,062	  0,00408901	-126,3	  0,00436682	-121,8
      189,15	  0,00422581	-121,4	   0,0041826	-129,7
     189,238	  0,00441864	-123,2	  0,00446151	-127,7
     189,326	  0,00437775	-121,5	  0,00448191	-127,4
     189,413	  0,00416534	-129,8	  0,00434538	-124,6
     189,501	  0,00430577	-125,4	   0,0036966	-126,5
     189,589	   0,0038661	-137,0	  0,00436699	-130,4
     189,677	  0,00411136	-120,7	  0,00422802	-122,9
     189,765	   0,0042386	-125,1	  0,00421412	-122,6
     189,853	  0,00422805	-125,3	  0,00409698	-127,3
     189,941	  0,00429524	-129,0	  0,00431746	-123,4
     190,029	  0,00405701	-129,5	   0,0039423	-126,1
     190,117	  0,00405242	-130,7	  0,00434578	-118,5
     190,205	  0,00449605	-125,6	  0,00431102	-127,8
     190,293	  0,00425015	-127,4	  0,00405438	-124,5
     190,381	  0,00427656	-125,8	  0,00388635	-124,3
     190,469	  0,00412866	-124,6	   0,0045405	-121,6
     190,557	  0,00391688	-127,1	  0,00452538	-127,9
     190,645	  0,00367952	-133,8	  0,00451579	-125,7
     190,733	  0,00439699	-131,5	  0,00416342	-128,7
     190,821	  0,00415726	-125,1	  0,00423956	-124,6
     190,909	   0,0041985	-131,8	  0,00413779	-120,7
     190,997	  0,00395439	-132,4	  0,00425898	-125,8
     191,085	  0,00431134	-129,5	  0,00409849	-130,6
     191,173	  0,00390041	-126,2	  0,00407409	-131,7
     191,261	  0,00398693	-135,0	  0,00405183	-130,6
     191,349	  0,00429105	-124,1	  0,00388349	-125,5
     191,437	  0,00435359	-124,6	   0,0043494	-123,9
     191,525	  0,00388229	-127,9	  0,00416878	-130,2
     191,613	  0,00429441	-132,3	  0,00382293	-133,3
     191,701	   0,0044654	-129,2	  0,00437136	-124,8
     191,789	   0,0039707	-125,1	  0,00447229	-123,6
     191,877	  0,00425297	-126,5	   0,0046196	-122,7
     191,965	  0,00445859	-124,7	  0,00411944	-128,9
     192,053	  0,00398137	-127,7	  0,00387603	-125,2
     192,141	  0,00418226	-120,2	   0,0041496	-126,6
     192,229	  0,00439551	-124,7	  0,00410298	-123,5
     192,317	  0,00385864	-131,3	  0,00412859	-129,6
     192,405	  0,00422643	-125,6	  0,00418649	-122,8
     192,493	  0,00447034	-127,8	  0,00444807	-126,0
     192,581	  0,00374691	-129,8	  0,00401407	-128,0
     192,669	  0,00429459	-125,3	   0,0043261	-130,9
     192,757	  0,00411769	-130,4	  0,00412365	-124,5
     192,845	  0,00454509	-120,0	  0,00427225	-129,5
     192,933	  0,00424964	-131,0	  0,00420671	-120,7
     193,021	  0,00415674	-125,0	  0,00410975	-128,4
     193,109	  0,00423469	-128,0	  0,00428483	-130,4
     193,196	   0,0042582	-128,3	   0,0038669	-122,3
     193,284	  0,00386913	-127,4	  0,00450671	-124,9
     193,372	   0,0043078	-121,3	  0,00409783	-124,5
      193,46	  0,00427591	-127,9	  0,00434548	-129,6
     193,548	  0,00440112	-128,1	  0,00426145	-122,3
     193,636	  0,00451222	-125,7	  0,00409989	-122,3
     193,724	  0,00395215	-123,3	  0,00418558	-120,8
     193,812	   0,0040644	-123,7	  0,00424891	-127,8
       193,9	   0,0042611	-124,8	  0,00456756	-120,9
     193,988	  0,00437413	-118,3	  0,00413294	-124,6
     194,076	  0,00431063	-124,2	  0,00429951	-122,6
     194,164	  0,00406268	-128,0	  0,00407472	-126,0
     194,252	  0,00410228	-128,8	  0,00424553	-124,6
      194,34	  0,00404303	-124,1	  0,00430926	-128,3
     194,428	   0,0038471	-135,0	  0,00449867	-120,6
     194,516	   0,0042539	-127,5	  0,00428114	-127,8
     194,604	    0,004513	-121,1	   0,0040076	-127,6
     194,692	   0,0045207	-127,0	  0,00428729	-127,3
      194,78	   0,0042526	-123,0	  0,00428008	-129,6
     194,868	   0,0040216	-129,8	  0,00398222	-131,4
     194,956	  0,00424159	-128,1	  0,00459559	-124,8
     195,044	  0,00433135	-121,8	  0,00446594	-123,5
     195,132	  0,00410068	-127,3	  0,00421477	-130,9
      195,22	  0,00415028	-122,5	  0,00419008	-120,2
     195,308	  0,00445307	-126,5	  0,00426147	-134,4
     195,396	  0,00411434	-123,5	   0,0041843	-125,5
     195,484	  0,00452869	-122,1	  0,00383455	-128,7
     195,572	   0,0041262	-127,9	  0,00460366	-121,4
      195,66	  0,00398925	-126,4	   0,0045894	-120,2
     195,748	  0,00420981	-119,2	  0,00410028	-125,5
     195,836	  0,00432559	-129,5	  0,00445281	-127,0
     195,924	  0,00419202	-125,3	   0,0040835	-126,0
     196,012	  0,00436107	-129,0	  0,00444784	-122,6
       196,1	  0,00379356	-130,7	  0,00409861	-129,6
     196,188	  0,00441166	-125,6	    0,004142	-128,4
     196,276	  0,00411419	-123,2	   0,0040762	-129,1
     196,364	  0,00433232	-127,1	  0,00446238	-125,6
     196,452	  0,00407152	-125,9	  0,00423815	-129,8
      196,54	  0,00439689	-121,8	  0,00406978	-125,9
     196,628	  0,00399054	-124,5	  0,00431957	-128,2
     196,716	   0,0046718	-124,8	  0,00409612	-123,9
     196,804	  0,00426783	-120,1	  0,00373828	-129,7
     196,891	  0,00409649	-131,5	  0,00448705	-119,2
     196,979	  0,00399089	-123,5	  0,00397405	-122,0
     197,067	  0,00415221	-129,0	  0,00422605	-127,0
     197,155	  0,00431123	-131,2	  0,00432693	-128,5
     197,243	  0,00426907	-124,0	  0,00427003	-123,7
     197,331	  0,00412349	-125,4	  0,00402586	-129,9
     197,419	  0,00430531	-124,6	  0,00405691	-128,0
     197,507	  0,00437331	-124,3	  0,00444539	-126,3
     197,595	     0,00432	-129,4	  0,00423569	-118,3
     197,683	  0,00442696	-123,4	  0,00437007	-121,1
     197,771	  0,00428039	-129,2	  0,00409277	-125,9
     197,859	  0,00444546	-117,1	  0,00421404	-129,0
     197,947	  0,00430844	-122,5	  0,00397081	-130,7
     198,035	  0,00400015	-129,7	  0,00416252	-131,8
     198,123	  0,00436046	-127,3	  0,00424857	-130,5
     198,211	  0,00430373	-123,3	  0,00419044	-128,1
     198,299	  0,00422056	-122,4	   0,0041941	-127,0
     198,387	  0,00417104	-122,4	  0,00452369	-128,4
     198,475	  0,00419106	-123,4	  0,00418603	-127,5
     198,563	  0,00403739	-129,2	  0,00405395	-129,3
     198,651	  0,00397619	-126,6	  0,00417836	-124,3
     198,739	   0,0040304	-127,2	  0,00408504	-124,7
     198,827	  0,00446527	-125,4	  0,00408529	-120,9
     198,915	  0,00438088	-123,6	  0,00429618	-121,7
     199,003	  0,00433582	-125,0	  0,00412835	-129,0
     199,091	  0,00424988	-124,0	  0,00406876	-124,5
     199,179	  0,00430789	-128,6	  0,00414613	-125,9
     199,267	  0,00447886	-124,4	  0,00448955	-130,1
     199,355	  0,00434871	-122,5	  0,00421087	-129,4
     199,443	  0,00416204	-127,6	  0,00396658	-130,1
     199,531	  0,00411501	-127,1	  0,00414086	-130,9
     199,619	  0,00435274	-122,9	  0,00443403	-125,5
     199,707	  0,00425771	-122,0	  0,00445102	-126,1
     199,795	  0,00436436	-122,1	  0,00415751	-129,1
     199,883	  0,00426811	-121,5	  0,00398704	-135,9
     199,971	  0,00412834	-121,9	  0,00431415	-129,4
     200,059	  0,00397022	-119,3	  0,00411089	-129,2
     200,147	  0,00436875	-133,6	  0,00429863	-125,6
     200,235	  0,00418685	-123,2	  0,00411994	-120,1
     200,323	  0,00438826	-122,0	  0,00426759	-122,6
     200,411	  0,00410194	-123,9	  0,00408208	-127,2
     200,499	  0,00425252	-123,2	  0,00427833	-131,7
     200,587	  0,00445314	-128,9	  0,00417658	-128,7
     200,674	   0,0042218	-128,8	  0,00411422	-127,0
     200,762	    0,004087	-122,7	  0,00437441	-122,7
      200,85	  0,00427424	-125,8	   0,0043886	-124,7
     200,938	  0,00443574	-123,9	  0,00410004	-128,8
     201,026	  0,00440003	-123,2	  0,00421242	-128,2
     201,114	  0,00425923	-125,1	  0,00436808	-126,3
     201,202	  0,00414282	-127,8	   0,0041941	-132,6
      201,29	  0,00428762	-122,2	  0,00430657	-131,7
     201,378	  0,00436261	-116,9	  0,00435324	-122,3
     201,466	  0,00431798	-124,4	  0,00412886	-121,2
     201,554	  0,00444814	-125,2	  0,00415796	-122,8
     201,642	  0,00439471	-130,9	  0,00412294	-127,9
      201,73	  0,00449708	-126,4	  0,00407221	-127,0
     201,818	  0,00444861	-125,7	  0,00434736	-125,1
     201,906	  0,00431553	-119,9	  0,00431219	-124,8
     201,994	  0,00423906	-133,7	  0,00421077	-129,0
     202,082	  0,00412635	-131,7	  0,00441187	-125,4
      202,17	  0,00431848	-131,2	   0,0045074	-126,0
     202,258	  0,00446098	-125,7	  0,00411409	-129,2
     202,346	  0,00447053	-122,8	  0,00432418	-125,1
     202,434	  0,00438901	-124,7	  0,00432301	-128,0
     202,522	  0,00447596	-127,5	  0,00469938	-119,9
      202,61	   0,0044147	-124,0	  0,00436914	-128,5
     202,698	   0,0042567	-129,7	  0,00453593	-125,3
     202,786	  0,00422573	-127,4	  0,00448222	-128,6
     202,874	  0,00447056	-129,2	  0,00416785	-118,9
     202,962	  0,00457314	-123,0	  0,00442045	-128,4
      203,05	  0,00422113	-123,7	  0,00437416	-125,1
     203,138	  0,00420147	-124,8	  0,00417388	-129,9
     203,226	  0,00434885	-124,3	  0,00449908	-122,4
     203,314	  0,00459724	-124,7	  0,00449535	-122,5
     203,402	  0,00456519	-128,1	  0,00438016	-130,8
      203,49	  0,00452792	-128,0	  0,00428942	-127,6
     203,578	  0,00443534	-120,8	  0,00422707	-119,7
     203,666	  0,00423411	-128,2	  0,00440789	-116,6
     203,754	  0,00438113	-127,8	  0,00437406	-132,0
     203,842	  0,00408851	-126,3	  0,00441678	-125,4
      203,93	   0,0045283	-124,3	  0,00447677	-123,5
     204,018	   0,0043612	-125,9	  0,00450544	-128,0
     204,106	  0,00438184	-126,7	  0,00451962	-118,5
     204,194	  0,00434566	-125,7	  0,00420021	-128,8
     204,282	  0,00428784	-124,5	  0,00441188	-128,8
      204,37	  0,00406636	-123,6	  0,00444308	-127,4
     204,457	  0,00428931	-119,1	  0,00419495	-128,5
     204,545	  0,00424667	-133,2	  0,00454824	-123,8
     204,633	  0,00438259	-129,5	  0,00442707	-127,6
     204,721	  0,00457525	-120,7	  0,00420894	-122,6
     204,809	  0,00419216	-124,4	  0,00444746	-130,9
     204,897	  0,00441693	-128,4	  0,00450823	-125,0
     204,985	  0,00450122	-122,7	  0,00464944	-136,7
     205,073	  0,00441438	-126,5	  0,00449023	-132,4
     205,161	  0,00454513	-124,4	  0,00431389	-127,8
     205,249	  0,00438838	-126,7	  0,00412935	-123,5
     205,337	  0,00456625	-126,8	  0,00453383	-126,7
     205,425	  0,00447324	-129,0	  0,00457699	-122,5
     205,513	  0,00428671	-121,0	  0,00448251	-121,3
     205,601	  0,00418252	-119,4	  0,00440132	-120,5
     205,689	  0,00449992	-128,7	  0,00450599	-124,9
     205,777	  0,00449678	-128,0	  0,00448576	-125,6
     205,865	  0,00431205	-126,7	  0,00417143	-130,4
     205,953	  0,00439846	-127,3	  0,00447384	-126,9
     206,041	  0,00460549	-125,4	  0,00434424	-121,8
     206,129	  0,00452733	-126,9	  0,00429125	-120,6
     206,217	  0,00472317	-124,2	  0,00455137	-120,3
     206,305	  0,00478834	-125,9	   0,0043446	-122,9
     206,393	  0,00476621	-126,7	   0,0047728	-131,1
     206,481	  0,00422746	-126,8	  0,00450823	-125,0
     206,569	  0,00451381	-122,0	   0,0045817	-123,7
     206,657	  0,00423182	-124,0	  0,00436512	-129,3
     206,745	  0,00453293	-122,2	  0,00440254	-125,4
     206,833	  0,00461833	-120,7	  0,00443628	-121,4
     206,921	  0,00458468	-120,0	  0,00432876	-124,7
     207,009	  0,00451986	-127,8	  0,00437338	-125,8
     207,097	  0,00491784	-128,8	  0,00450289	-126,1
     207,185	  0,00424037	-118,1	   0,0045098	-126,6
     207,273	  0,00454547	-123,0	  0,00444998	-125,3
     207,361	  0,00482762	-127,1	  0,00464186	-125,9
     207,449	  0,00469148	-128,3	  0,00454831	-124,2
     207,537	  0,00450309	-133,0	   0,0044269	-124,7
     207,625	  0,00407785	-117,5	  0,00457497	-124,9
     207,713	  0,00431889	-122,0	  0,00436153	-119,8
     207,801	  0,00480769	-129,8	  0,00482246	-126,9
     207,889	  0,00480444	-129,4	  0,00470422	-126,7
     207,977	  0,00441227	-126,3	  0,00452871	-131,2
     208,065	  0,00466841	-128,1	  0,00466101	-121,3
     208,152	  0,00469633	-126,8	  0,00475531	-123,6
      208,24	  0,00448886	-120,4	  0,00462775	-122,5
     208,328	  0,00461317	-127,1	  0,00470066	-129,3
     208,416	  0,00469073	-126,1	  0,00453157	-123,6
     208,504	  0,00427431	-126,1	  0,00451376	-128,7
     208,592	  0,00458796	-125,4	   0,0046814	-123,2
      208,68	  0,00464582	-124,9	  0,00446552	-128,2
     208,768	  0,00480082	-130,1	  0,00458283	-129,5
     208,856	  0,00498332	-127,7	  0,00451883	-123,8
     208,944	  0,00428194	-121,6	  0,00475381	-128,0
     209,032	  0,00452903	-121,2	  0,00465527	-124,1
      209,12	   0,0046396	-123,4	  0,00449414	-126,0
     209,208	  0,00462684	-130,1	  0,00480373	-128,9
     209,296	  0,00472043	-124,1	  0,00467168	-128,7
     209,384	  0,00471395	-124,4	  0,00472714	-127,4
     209,472	  0,00459703	-123,1	  0,00464034	-125,2
      209,56	  0,00448076	-121,1	  0,00453028	-122,8
     209,648	  0,00460963	-123,6	  0,00484523	-127,7
     209,736	  0,00461048	-124,4	  0,00483366	-121,3
     209,824	  0,00464817	-126,1	    0,004908	-123,8
     209,912	  0,00463054	-121,6	  0,00459408	-127,9
         210	  0,00467779	-123,5	  0,00501566	-125,4

