X-Data [Hz]	Laser (M - Filtered) [m/s]	Phase [Deg]	Laser (M - Filtered) [m/s]	Phase [Deg]	
	002: [07-10-24 13:13]		003: [07-10-24 13:16]	
          41	   0,0816454	77,4	   0,0968984	77,2
      41,002	   0,0857011	78,2	   0,0970457	77,2
     41,0039	   0,0885863	78,1	   0,0970978	77,1
     41,0059	     0,09129	78,2	   0,0973172	77,1
     41,0078	   0,0925491	77,5	   0,0974396	76,9
     41,0098	   0,0928136	77,9	   0,0976555	77,3
     41,0117	    0,093449	77,7	   0,0977613	77,1
     41,0137	   0,0937678	77,9	   0,0978366	77,3
     41,0156	   0,0948382	77,6	   0,0981382	77,2
     41,0176	   0,0949743	77,8	   0,0982028	77,2
     41,0196	   0,0949054	77,6	   0,0983479	77,1
     41,0215	   0,0950217	77,7	   0,0985353	77,3
     41,0235	   0,0955189	77,9	   0,0986257	77,3
     41,0254	   0,0954732	78,0	   0,0990388	77,2
     41,0274	   0,0954341	77,9	   0,0991893	77,2
     41,0293	   0,0955112	78,0	   0,0993731	77,5
     41,0313	   0,0960621	78,3	   0,0995221	77,3
     41,0332	   0,0964734	78,2	   0,0996747	77,6
     41,0352	   0,0963521	77,9	   0,0997761	77,3
     41,0371	   0,0968278	77,8	   0,0997128	77,7
     41,0391	   0,0968056	77,8	    0,100332	77,4
     41,0411	   0,0968703	78,0	    0,100284	77,8
      41,043	   0,0974895	77,9	    0,100656	77,4
      41,045	   0,0974954	78,1	    0,100692	77,7
     41,0469	   0,0971959	78,1	    0,100837	77,8
     41,0489	   0,0971606	78,2	    0,100967	78,1
     41,0508	   0,0971585	78,1	    0,101257	77,6
     41,0528	   0,0980842	78,5	    0,101449	77,9
     41,0547	   0,0983762	78,4	    0,101539	77,9
     41,0567	   0,0979577	78,2	    0,101819	77,7
     41,0587	   0,0982692	78,0	    0,101943	77,9
     41,0606	   0,0993683	78,3	    0,102096	78,1
     41,0626	   0,0991805	78,1	    0,102486	78,0
     41,0645	    0,098695	78,0	      0,1025	78,1
     41,0665	   0,0989442	78,0	    0,102653	78,2
     41,0684	   0,0994496	78,6	    0,102928	78,2
     41,0704	   0,0995882	78,4	    0,103145	78,2
     41,0723	    0,099831	78,2	    0,103654	78,0
     41,0743	    0,100183	78,2	    0,103848	78,1
     41,0762	     0,10034	78,7	    0,103616	78,4
     41,0782	    0,100177	78,3	    0,103478	78,1
     41,0802	    0,100284	78,3	    0,104803	77,9
     41,0821	    0,100939	78,4	    0,106383	77,8
     41,0841	    0,101159	78,7	    0,107342	79,1
      41,086	     0,10078	78,4	    0,105944	80,1
      41,088	    0,101046	78,5	    0,101143	81,1
     41,0899	     0,10173	78,6	   0,0999038	76,3
     41,0919	    0,101608	78,5	    0,110795	71,4
     41,0938	    0,101513	78,1	    0,141345	70,7
     41,0958	    0,101839	78,2	    0,165735	75,5
     41,0978	     0,10248	78,6	    0,199511	83,7
     41,0997	    0,102266	78,7	    0,223766	92,5
     41,1017	     0,10235	78,6	    0,235587	98,6
     41,1036	    0,102911	78,6	    0,249032	106,0
     41,1056	    0,102977	79,0	    0,257479	110,3
     41,1075	    0,102739	79,2	    0,265592	114,9
     41,1095	    0,102703	78,9	    0,270527	117,8
     41,1114	    0,102885	79,4	    0,274221	120,8
     41,1134	     0,10353	79,4	    0,278993	123,4
     41,1153	    0,103806	78,5	     0,28213	126,0
     41,1173	    0,104018	78,8	     0,28368	128,0
     41,1193	    0,104305	79,0	    0,284765	129,8
     41,1212	     0,10448	78,9	    0,287463	131,3
     41,1232	    0,104853	78,8	    0,288324	132,7
     41,1251	    0,105047	79,0	    0,288691	134,1
     41,1271	    0,105506	79,0	    0,289304	135,3
      41,129	    0,105579	79,4	     0,28991	135,9
      41,131	    0,105391	78,9	    0,289867	137,6
     41,1329	    0,105812	78,8	    0,289744	138,2
     41,1349	     0,10615	79,7	    0,290955	138,9
     41,1369	    0,106446	79,6	    0,290569	139,7
     41,1388	    0,106387	78,9	    0,291872	140,9
     41,1408	    0,106247	79,0	    0,290969	141,4
     41,1427	    0,106784	79,7	    0,291755	141,8
     41,1447	    0,107163	80,0	    0,291782	142,3
     41,1466	    0,107215	79,0	    0,291463	142,6
     41,1486	    0,107379	79,4	    0,292421	143,6
     41,1505	    0,107902	79,9	    0,292314	144,4
     41,1525	    0,107964	80,0	    0,291896	144,6
     41,1544	     0,10816	79,1	    0,291653	145,1
     41,1564	    0,108109	79,4	    0,291763	145,5
     41,1584	     0,10892	79,7	    0,292049	146,3
     41,1603	    0,108962	80,1	    0,292216	146,4
     41,1623	    0,109089	78,8	    0,291959	146,3
     41,1642	    0,109242	79,1	    0,292038	147,4
     41,1662	    0,109597	80,3	    0,292926	147,7
     41,1681	    0,109787	80,5	    0,291684	148,0
     41,1701	    0,109913	80,3	    0,291902	148,0
      41,172	     0,11062	79,2	    0,291816	148,6
      41,174	    0,111226	79,3	    0,291795	148,9
      41,176	     0,11066	80,3	    0,292123	149,4
     41,1779	    0,110847	79,9	    0,291771	149,5
     41,1799	     0,11133	79,3	    0,291304	150,1
     41,1818	     0,11138	80,0	    0,291283	150,2
     41,1838	    0,111501	80,4	    0,291861	150,7
     41,1857	    0,111976	80,2	    0,291155	150,6
     41,1877	    0,112739	79,3	    0,290208	151,2
     41,1896	    0,112262	79,8	    0,290018	151,3
     41,1916	    0,112612	80,8	    0,290713	151,8
     41,1936	    0,112804	80,7	    0,290435	151,8
     41,1955	    0,113327	79,4	    0,290846	152,1
     41,1975	    0,113743	79,8	    0,289618	152,4
     41,1994	    0,113482	80,7	    0,289753	152,5
     41,2014	    0,113808	80,7	    0,289821	152,8
     41,2033	    0,114407	80,0	    0,289517	153,1
     41,2053	    0,114619	80,5	    0,289857	153,2
     41,2072	    0,114473	80,9	    0,289952	153,6
     41,2092	    0,114881	80,7	    0,291103	154,0
     41,2111	    0,115174	80,3	    0,289894	154,2
     41,2131	    0,115748	80,3	    0,289795	154,6
     41,2151	    0,115807	81,1	    0,289257	154,5
      41,217	    0,116123	80,8	    0,289485	155,0
      41,219	    0,116231	81,2	    0,289456	155,3
     41,2209	    0,116155	80,7	    0,289558	155,7
     41,2229	    0,116803	80,9	    0,288989	155,6
     41,2248	    0,117052	81,2	    0,289471	156,1
     41,2268	    0,117595	80,7	    0,289016	156,2
     41,2287	    0,117798	80,4	    0,289011	156,4
     41,2307	    0,118136	81,5	    0,289072	156,6
     41,2327	    0,118434	81,3	     0,28934	156,8
     41,2346	    0,118801	81,3	    0,289692	157,0
     41,2366	    0,118835	81,2	    0,289717	157,8
     41,2385	    0,118894	81,1	    0,288579	157,7
     41,2405	    0,119454	81,4	    0,288702	157,7
     41,2424	    0,119942	81,5	    0,289897	158,4
     41,2444	    0,120065	81,6	    0,288816	157,8
     41,2463	      0,1202	81,5	    0,288598	158,1
     41,2483	    0,120754	81,9	    0,288647	158,5
     41,2502	    0,121023	81,9	    0,287964	158,6
     41,2522	    0,121426	82,0	    0,287672	158,6
     41,2542	    0,122009	81,9	    0,288106	159,1
     41,2561	    0,122184	82,1	    0,288989	160,0
     41,2581	     0,12245	82,1	    0,288423	160,1
       41,26	    0,122706	82,3	    0,287846	159,5
      41,262	    0,122953	81,8	    0,287851	159,7
     41,2639	    0,123344	82,1	    0,287323	160,1
     41,2659	    0,123815	82,0	    0,287198	160,4
     41,2678	    0,124065	82,1	     0,28652	160,3
     41,2698	    0,124853	82,4	    0,286658	160,5
     41,2718	    0,124854	82,3	     0,28677	160,9
     41,2737	    0,124911	82,7	    0,286587	161,0
     41,2757	    0,125934	82,2	    0,286032	161,5
     41,2776	    0,126186	82,8	    0,285835	161,0
     41,2796	     0,12629	82,6	    0,285597	161,6
     41,2815	    0,126922	83,0	    0,285586	161,8
     41,2835	    0,127523	82,5	      0,2858	161,8
     41,2854	     0,12789	82,5	    0,285565	161,7
     41,2874	    0,128326	83,0	    0,286098	162,4
     41,2893	    0,128144	83,0	    0,285764	162,2
     41,2913	    0,129014	83,0	    0,285796	162,9
     41,2933	    0,129542	83,0	    0,286013	162,8
     41,2952	    0,129728	83,6	    0,285505	162,6
     41,2972	    0,129742	83,4	    0,285845	162,9
     41,2991	    0,130508	83,4	    0,284571	162,9
     41,3011	    0,130693	83,2	    0,284965	163,5
      41,303	    0,131303	84,2	    0,284862	163,3
      41,305	    0,132118	84,1	     0,28483	163,8
     41,3069	    0,132318	84,2	    0,284936	163,7
     41,3089	    0,133095	83,9	    0,284371	164,5
     41,3109	    0,133928	84,3	    0,284281	164,1
     41,3128	    0,134271	84,4	    0,283099	164,3
     41,3148	    0,134531	84,4	    0,284343	164,3
     41,3167	     0,13487	84,6	    0,283461	164,2
     41,3187	    0,136223	84,5	    0,283549	164,9
     41,3206	    0,136469	84,8	    0,283542	164,9
     41,3226	    0,136513	84,8	    0,283356	164,9
     41,3245	    0,136667	85,0	    0,282697	165,1
     41,3265	    0,138222	84,8	    0,282189	165,6
     41,3284	    0,138787	84,9	    0,282154	165,1
     41,3304	    0,139262	85,0	    0,282193	165,6
     41,3324	    0,139736	85,2	    0,281286	165,2
     41,3343	     0,14013	85,4	    0,280393	165,8
     41,3363	     0,14123	85,5	    0,280628	166,0
     41,3382	    0,141904	85,6	    0,280947	166,1
     41,3402	    0,142443	85,7	    0,281309	166,2
     41,3421	    0,142983	86,0	    0,280681	166,3
     41,3441	    0,143837	85,8	      0,2801	166,5
      41,346	    0,144361	86,0	    0,280701	166,5
      41,348	    0,145384	86,1	    0,280358	166,6
       41,35	    0,146107	86,2	    0,280413	166,7
     41,3519	    0,146224	86,7	    0,279475	167,0
     41,3539	    0,148086	86,8	    0,279785	167,1
     41,3558	    0,148562	87,1	     0,28004	167,2
     41,3578	    0,148961	87,1	    0,279505	167,2
     41,3597	    0,149811	87,4	    0,280387	167,4
     41,3617	    0,151042	87,4	     0,27946	167,7
     41,3636	    0,151999	87,9	     0,27852	167,9
     41,3656	    0,152851	88,1	    0,279471	168,0
     41,3675	    0,153374	88,1	    0,278247	167,7
     41,3695	    0,154197	88,5	    0,278871	168,5
     41,3715	    0,155814	88,6	    0,279244	168,3
     41,3734	    0,156639	88,9	    0,278751	168,7
     41,3754	    0,157668	89,1	    0,278631	168,4
     41,3773	    0,158645	89,5	    0,277973	168,5
     41,3793	    0,160094	89,7	    0,279199	168,6
     41,3812	    0,161029	90,1	    0,279114	169,0
     41,3832	    0,162628	90,3	    0,278324	169,5
     41,3851	    0,163687	90,6	    0,278695	169,3
     41,3871	    0,164571	91,3	    0,278553	169,1
     41,3891	    0,166515	91,4	    0,278387	169,1
      41,391	    0,167546	91,6	    0,277375	169,9
      41,393	    0,169057	92,1	    0,277135	170,2
     41,3949	    0,171494	93,1	    0,276403	169,7
     41,3969	    0,172696	93,6	    0,277462	169,9
     41,3988	    0,174745	94,2	    0,275424	169,6
     41,4008	     0,17682	94,8	    0,275998	170,5
     41,4027	    0,178357	95,3	    0,275222	170,4
     41,4047	    0,181261	96,6	    0,275163	170,2
     41,4066	    0,183043	97,2	    0,276564	170,5
     41,4086	    0,186623	99,2	    0,274662	170,2
     41,4106	    0,189685	99,7	    0,275661	171,2
     41,4125	     0,19322	101,2	    0,275744	171,4
     41,4145	     0,19557	103,2	    0,275237	170,7
     41,4164	      0,1983	105,6	    0,275273	170,6
     41,4184	    0,201695	107,8	    0,276247	172,0
     41,4203	    0,205967	109,6	    0,276138	171,9
     41,4223	     0,21241	112,5	    0,274668	171,6
     41,4242	    0,218573	115,2	    0,275006	171,2
     41,4262	    0,223397	120,7	    0,274628	171,8
     41,4282	    0,234529	126,2	     0,27438	172,3
     41,4301	    0,242195	131,5	    0,273754	172,1
     41,4321	    0,243974	138,9	    0,273706	172,6
      41,434	    0,250078	145,0	    0,274434	171,9
      41,436	    0,252851	153,4	    0,273906	172,0
     41,4379	    0,256051	159,7	     0,27308	172,9
     41,4399	    0,258784	167,8	    0,273392	172,9
     41,4418	    0,262846	171,6	     0,27279	172,5
     41,4438	     0,25936	173,9	    0,273264	172,5
     41,4457	    0,257774	174,2	    0,274055	173,2
     41,4477	    0,256735	175,4	    0,273235	173,6
     41,4497	    0,256268	175,1	     0,27235	173,5
     41,4516	    0,253632	174,6	      0,2723	173,4
     41,4536	    0,254406	173,2	    0,272159	173,4
     41,4555	    0,254614	173,2	    0,272506	173,5
     41,4575	    0,253367	172,9	    0,271988	173,4
     41,4594	    0,252607	172,4	    0,272099	174,2
     41,4614	    0,254752	173,2	    0,269517	174,2
     41,4633	      0,2545	172,5	    0,271152	174,2
     41,4653	    0,253622	172,5	    0,270667	174,1
     41,4673	    0,253338	173,6	    0,271283	174,1
     41,4692	     0,25405	173,9	    0,271077	174,8
     41,4712	    0,253107	173,8	    0,270322	174,5
     41,4731	    0,253976	173,5	    0,269871	174,7
     41,4751	     0,25333	174,0	    0,269528	174,1
      41,477	    0,252923	174,0	    0,269701	174,3
      41,479	    0,253888	174,5	    0,270113	175,1
     41,4809	    0,252764	174,6	    0,269887	175,3
     41,4829	    0,251551	174,0	     0,26985	174,9
     41,4848	    0,252707	173,9	    0,268497	174,9
     41,4868	     0,25171	175,1	    0,268697	175,3
     41,4888	    0,253857	175,3	    0,269165	175,2
     41,4907	    0,254075	175,1	    0,268289	175,8
     41,4927	    0,252557	174,9	    0,268707	176,0
     41,4946	    0,253147	174,8	    0,268155	175,4
     41,4966	    0,251495	174,8	    0,267852	175,5
     41,4985	    0,251774	175,7	    0,268475	176,5
     41,5005	    0,250919	175,9	    0,268409	176,7
     41,5024	    0,249898	175,2	    0,267058	176,0
     41,5044	    0,250903	175,1	    0,268106	176,1
     41,5064	    0,249118	175,1	    0,266465	176,1
     41,5083	    0,250706	176,3	    0,266789	175,9
     41,5103	    0,252081	175,4	    0,266739	176,9
     41,5122	    0,251616	176,0	    0,266821	176,9
     41,5142	     0,25054	175,9	    0,265892	176,4
     41,5161	    0,251429	176,2	    0,265778	176,4
     41,5181	    0,251069	176,3	    0,265127	176,3
       41,52	    0,250848	176,6	     0,26593	177,2
      41,522	    0,250132	176,4	     0,26569	177,5
     41,5239	    0,248755	176,1	    0,264994	177,2
     41,5259	    0,249835	176,3	    0,265111	177,2
     41,5279	    0,250295	177,1	    0,263933	177,3
     41,5298	     0,25039	176,9	    0,264541	177,5
     41,5318	    0,251641	177,0	    0,264849	178,0
     41,5337	    0,250392	176,9	     0,26444	178,2
     41,5357	    0,249015	176,8	    0,264394	177,4
     41,5376	    0,249472	177,2	    0,264169	177,7
     41,5396	    0,250901	177,8	    0,264143	178,2
     41,5415	    0,250664	177,7	    0,263816	178,5
     41,5435	    0,248567	177,2	    0,263358	178,2
     41,5455	    0,247885	177,2	    0,262902	178,3
     41,5474	    0,249271	177,9	    0,263253	178,1
     41,5494	    0,249057	178,1	    0,262704	178,0
     41,5513	    0,250445	178,1	    0,263104	179,3
     41,5533	    0,248724	178,1	     0,26331	179,0
     41,5552	    0,247335	177,4	     0,26246	178,9
     41,5572	     0,24673	177,6	    0,261686	178,7
     41,5591	    0,248538	178,9	    0,262125	179,1
     41,5611	    0,248292	178,7	    0,261077	179,0
      41,563	    0,248058	178,6	    0,261566	179,1
      41,565	    0,249163	178,4	    0,262387	179,8
      41,567	     0,24741	179,0	    0,261412	179,4
     41,5689	    0,247717	179,0	    0,260799	179,2
     41,5709	    0,246805	178,8	    0,260913	179,4
     41,5728	    0,247582	179,5	    0,260006	179,7
     41,5748	    0,247049	178,3	    0,260416	179,7
     41,5767	    0,247235	178,8	    0,260769	179,9
     41,5787	    0,246789	179,5	    0,259814	180,1
     41,5806	    0,246308	179,6	    0,259525	179,8
     41,5826	    0,246424	180,1	    0,259875	179,9
     41,5846	    0,246097	179,7	    0,259333	180,9
     41,5865	    0,248013	179,8	    0,259013	180,7
     41,5885	     0,24445	179,3	    0,259135	180,5
     41,5904	    0,245549	179,5	    0,258191	180,7
     41,5924	    0,245451	180,5	    0,258488	180,2
     41,5943	     0,24623	180,5	    0,258376	180,3
     41,5963	    0,245681	179,8	     0,25815	181,0
     41,5982	     0,24596	179,9	    0,257431	181,1
     41,6002	    0,244183	180,5	    0,257363	181,2
     41,6021	    0,244169	180,7	    0,257405	180,7
     41,6041	    0,246492	181,1	    0,257439	180,8
     41,6061	    0,245669	180,8	    0,256712	180,7
      41,608	    0,245274	180,6	    0,256911	182,0
       41,61	    0,244708	180,6	    0,256663	182,1
     41,6119	    0,243514	180,6	    0,256563	181,5
     41,6139	    0,244279	181,3	    0,256661	181,9
     41,6158	    0,242977	181,4	    0,255759	181,4
     41,6178	    0,244043	181,2	    0,255757	181,4
     41,6197	    0,244471	181,0	    0,255557	182,3
     41,6217	    0,242246	180,7	    0,255058	182,4
     41,6237	    0,242954	181,1	     0,25568	182,4
     41,6256	    0,243736	182,2	    0,254646	181,8
     41,6276	    0,244436	182,2	    0,254181	182,7
     41,6295	    0,243697	181,5	    0,253966	182,7
     41,6315	    0,243557	181,3	    0,254493	182,8
     41,6334	    0,241726	181,1	    0,253598	183,0
     41,6354	    0,241414	182,1	    0,253702	182,3
     41,6373	    0,241996	182,1	    0,252896	182,3
     41,6393	    0,243513	182,5	    0,253509	182,6
     41,6413	    0,242072	182,3	    0,252938	182,7
     41,6432	     0,24085	181,9	    0,252404	183,4
     41,6452	    0,240011	182,0	    0,252733	183,2
     41,6471	    0,240488	182,9	     0,25229	182,9
     41,6491	    0,242484	182,8	    0,252182	182,9
      41,651	    0,241861	182,8	    0,252177	183,3
      41,653	    0,241864	182,7	    0,252241	183,9
     41,6549	     0,24046	182,4	    0,252033	183,6
     41,6569	    0,240556	182,3	    0,250942	183,8
     41,6588	    0,240021	183,7	    0,250634	183,1
     41,6608	    0,240805	183,5	    0,250475	183,5
     41,6628	    0,240318	183,5	    0,250576	184,0
     41,6647	      0,2409	183,5	    0,250518	183,9
     41,6667	    0,239835	182,9	    0,250024	184,6
     41,6686	    0,239798	183,2	    0,250155	184,7
     41,6706	    0,238955	183,8	    0,249867	184,0
     41,6725	     0,23956	183,9	    0,249889	184,3
     41,6745	    0,240504	184,0	    0,249593	184,2
     41,6764	    0,239947	184,0	    0,249414	184,4
     41,6784	    0,238965	183,6	    0,249056	184,9
     41,6804	     0,23761	183,2	    0,248813	184,7
     41,6823	    0,237783	183,4	    0,248553	185,1
     41,6843	    0,238986	184,5	    0,248281	184,4
     41,6862	     0,23801	184,8	    0,248417	184,8
     41,6882	    0,237897	184,4	    0,248187	184,9
     41,6901	    0,238535	184,3	    0,247692	185,1
     41,6921	    0,237198	184,0	    0,247295	185,5
      41,694	    0,236401	184,2	    0,246727	184,9
      41,696	    0,238309	185,1	    0,247472	185,3
     41,6979	    0,238205	185,2	    0,246945	185,1
     41,6999	    0,236496	185,1	    0,246796	185,2
     41,7019	    0,237085	184,7	     0,24598	185,4
     41,7038	    0,236384	184,7	     0,24574	185,8
     41,7058	    0,235498	184,5	    0,246222	185,7
     41,7077	    0,236257	184,8	    0,245253	185,8
     41,7097	    0,237116	185,6	    0,245804	185,6
     41,7116	     0,23737	185,2	     0,24548	185,8
     41,7136	    0,236464	185,5	    0,245201	185,9
     41,7155	    0,235537	185,1	    0,245123	186,4
     41,7175	    0,235574	185,1	    0,244512	186,8
     41,7195	    0,233712	185,1	    0,244075	186,1
     41,7214	    0,235489	186,1	    0,244044	186,1
     41,7234	    0,235282	186,1	    0,244152	186,2
     41,7253	    0,235448	185,9	    0,243564	186,2
     41,7273	    0,236428	185,9	    0,243178	187,0
     41,7292	    0,233526	185,6	    0,242843	187,0
     41,7312	    0,233148	185,4	    0,242748	186,6
     41,7331	    0,234276	186,5	    0,242373	186,7
     41,7351	    0,233843	186,5	    0,242268	186,5
      41,737	    0,234102	186,5	    0,241934	186,6
      41,739	    0,233787	186,5	    0,241551	187,5
      41,741	    0,233153	185,9	     0,24142	187,3
     41,7429	    0,233219	186,1	    0,241181	187,1
     41,7449	    0,233467	186,6	    0,240963	187,2
     41,7468	    0,233328	187,0	    0,241455	187,2
     41,7488	    0,233817	187,2	    0,241275	187,3
     41,7507	    0,233283	187,3	     0,24114	187,3
     41,7527	    0,232303	186,8	    0,240019	188,0
     41,7546	    0,231371	187,0	    0,239231	187,7
     41,7566	    0,231047	186,8	    0,239678	187,8
     41,7586	    0,232313	187,1	    0,239903	187,4
     41,7605	    0,232839	187,9	     0,23892	187,4
     41,7625	    0,231645	187,5	     0,23869	187,9
     41,7644	    0,230254	187,6	    0,238725	187,7
     41,7664	    0,230846	187,0	    0,238224	188,5
     41,7683	    0,231806	187,3	    0,237993	188,8
     41,7703	    0,230875	187,7	    0,238116	188,2
     41,7722	    0,230256	187,5	    0,237461	187,9
     41,7742	    0,230197	187,8	    0,238135	188,0
     41,7761	    0,229859	188,2	    0,237778	188,1
     41,7781	    0,230448	188,0	    0,236498	188,8
     41,7801	    0,228345	187,8	     0,23707	188,6
      41,782	    0,229245	187,8	    0,236614	188,9
      41,784	    0,229134	187,9	    0,236217	189,2
     41,7859	    0,228959	188,3	    0,236639	188,6
     41,7879	    0,229907	189,0	    0,236132	188,6
     41,7898	    0,229369	188,8	    0,236296	188,8
     41,7918	     0,22938	188,5	    0,235233	188,5
     41,7937	     0,22969	188,5	    0,235393	188,9
     41,7957	    0,227875	188,3	    0,234849	189,4
     41,7977	    0,227321	188,2	    0,234557	189,5
     41,7996	    0,227095	189,0	    0,233791	189,4
     41,8016	    0,227188	189,0	    0,233666	189,3
     41,8035	    0,227602	189,0	    0,233935	189,2
     41,8055	    0,227333	189,2	    0,234149	189,4
     41,8074	    0,226537	188,7	     0,23286	189,8
     41,8094	    0,227174	188,9	    0,233453	190,3
     41,8113	      0,2266	189,1	    0,232813	189,6
     41,8133	    0,227044	189,0	     0,23303	190,0
     41,8153	    0,225922	189,3	    0,233077	189,6
     41,8172	    0,226783	189,8	    0,232765	189,4
     41,8192	    0,226923	189,7	    0,232082	189,3
     41,8211	    0,226377	189,3	    0,232622	190,3
     41,8231	    0,225027	189,5	    0,231371	190,6
      41,825	    0,224506	189,2	    0,230878	190,7
      41,827	    0,225037	189,8	    0,229774	190,7
     41,8289	    0,225846	189,8	    0,231201	190,3
     41,8309	    0,224898	189,6	    0,230662	190,7
     41,8328	    0,224281	190,4	    0,230526	190,9
     41,8348	    0,224478	190,1	    0,229987	190,7
     41,8368	    0,223904	190,1	    0,228829	191,3
     41,8387	    0,223156	190,0	    0,228428	191,3
     41,8407	    0,223624	189,9	    0,228897	190,3
     41,8426	    0,223281	190,3	    0,228691	190,4
     41,8446	    0,223422	190,6	     0,22945	190,9
     41,8465	     0,22337	190,7	    0,228877	190,8
     41,8485	    0,222515	190,6	    0,228364	190,8
     41,8504	    0,222783	190,7	    0,227506	191,4
     41,8524	    0,222435	190,5	    0,227421	191,5
     41,8544	    0,222603	190,6	    0,226581	191,1
     41,8563	    0,222264	190,5	    0,227621	191,5
     41,8583	    0,221257	190,4	     0,22738	191,3
     41,8602	    0,221727	191,1	    0,227731	191,5
     41,8622	    0,221721	191,1	    0,227099	191,3
     41,8641	    0,220828	191,1	    0,226766	191,7
     41,8661	    0,220999	190,9	    0,226011	191,8
      41,868	    0,220476	190,9	    0,225406	192,3
       41,87	    0,219714	191,2	    0,225222	192,1
     41,8719	    0,220591	191,5	    0,224851	191,7
     41,8739	    0,220673	191,5	     0,22563	191,7
     41,8759	    0,220313	192,1	    0,224542	191,4
     41,8778	    0,219516	191,9	     0,22505	192,3
     41,8798	    0,220625	191,7	    0,224712	192,3
     41,8817	    0,217732	191,4	    0,223167	192,9
     41,8837	    0,218531	191,6	    0,223944	192,7
     41,8856	    0,218461	192,0	    0,223944	192,1
     41,8876	    0,218955	191,8	    0,223511	192,4
     41,8895	    0,219213	192,4	    0,223428	192,4
     41,8915	     0,21842	192,3	    0,222509	192,1
     41,8935	    0,218016	192,0	    0,223505	192,5
     41,8954	    0,218086	192,2	    0,221856	193,2
     41,8974	    0,217312	192,3	    0,222632	192,9
     41,8993	    0,217076	192,1	    0,221218	193,6
     41,9013	    0,217388	192,5	    0,221283	192,2
     41,9032	    0,217115	192,3	    0,220871	192,7
     41,9052	    0,216445	192,7	    0,221212	193,0
     41,9071	    0,216692	192,7	    0,221263	192,7
     41,9091	     0,21634	192,8	    0,221197	193,0
      41,911	    0,216253	192,9	    0,221405	193,4
      41,913	    0,216214	192,9	    0,220581	193,4
      41,915	    0,215697	192,8	    0,219332	193,9
     41,9169	     0,21477	192,8	    0,219503	193,8
     41,9189	    0,214406	193,0	    0,219276	193,1
     41,9208	    0,215791	193,4	    0,218921	193,4
     41,9228	    0,215203	193,4	    0,219606	194,0
     41,9247	    0,215395	193,6	    0,218706	193,5
     41,9267	    0,214827	193,5	    0,218068	194,3
     41,9286	    0,214161	193,4	    0,218042	194,2
     41,9306	    0,213727	193,5	    0,217324	194,0
     41,9326	    0,214101	193,4	    0,217372	194,3
     41,9345	    0,213673	193,3	    0,216915	194,5
     41,9365	    0,214384	194,5	    0,217135	193,6
     41,9384	    0,213687	194,3	    0,217517	194,2
     41,9404	    0,212845	194,2	    0,217715	194,3
     41,9423	    0,212804	194,4	     0,21652	194,5
     41,9443	    0,212442	193,9	    0,216497	194,6
     41,9462	    0,212561	194,2	    0,215478	194,4
     41,9482	    0,212225	194,2	    0,215249	194,5
     41,9501	    0,212004	194,0	    0,215401	194,2
     41,9521	    0,211732	194,1	    0,215331	194,4
     41,9541	    0,212137	194,7	    0,215297	194,5
      41,956	    0,211913	194,6	    0,215205	194,6
      41,958	    0,211593	194,8	    0,215627	194,8
     41,9599	    0,211274	194,9	    0,214592	195,0
     41,9619	     0,21061	194,5	    0,214258	195,4
     41,9638	    0,210239	194,6	    0,214452	195,3
     41,9658	    0,209768	194,4	    0,213672	195,5
     41,9677	    0,209479	194,5	    0,213642	195,5
     41,9697	    0,210652	195,5	    0,212909	194,6
     41,9717	    0,209636	195,5	    0,213263	195,0
     41,9736	    0,210834	195,6	    0,212892	195,2
     41,9756	    0,209975	195,7	    0,212932	195,0
     41,9775	    0,208827	195,6	    0,212777	196,1
     41,9795	    0,208525	195,4	     0,21221	195,8
     41,9814	    0,208853	195,0	    0,211997	195,7
     41,9834	    0,208043	195,0	    0,211606	196,0
     41,9853	     0,20826	195,4	    0,211241	196,1
     41,9873	    0,207507	195,3	    0,210928	195,2
     41,9892	    0,208105	196,3	    0,210974	195,6
     41,9912	    0,208466	196,1	    0,210562	195,5
     41,9932	     0,20753	195,7	    0,210656	195,9
     41,9951	    0,208047	195,9	     0,21091	196,2
     41,9971	    0,206352	195,7	    0,209646	196,4
      41,999	    0,207105	195,8	    0,209398	196,3
      42,001	    0,205571	195,7	     0,20983	196,5
     42,0029	    0,205311	195,5	    0,210009	196,3
     42,0049	    0,206207	196,4	    0,209833	196,8
     42,0068	    0,205756	196,0	    0,209205	196,0
     42,0088	    0,206418	196,7	    0,208295	196,2
     42,0108	    0,206484	197,0	    0,208832	196,4
     42,0127	    0,206274	196,6	    0,208348	196,5
     42,0147	    0,206315	196,6	     0,20795	196,8
     42,0166	    0,204633	196,1	    0,208708	197,0
     42,0186	     0,20466	196,2	    0,208067	197,3
     42,0205	    0,203814	196,6	    0,207205	196,9
     42,0225	    0,203457	196,3	    0,207653	197,0
     42,0244	    0,204594	197,3	    0,207304	197,4
     42,0264	    0,204096	197,1	    0,206644	196,6
     42,0283	    0,204339	197,1	    0,206635	196,9
     42,0303	    0,205057	197,7	    0,205903	197,0
     42,0323	    0,203742	197,2	    0,205505	197,3
     42,0342	    0,203935	197,2	    0,206181	197,9
     42,0362	    0,202382	196,8	    0,205772	197,8
     42,0381	    0,202248	197,1	     0,20546	197,8
     42,0401	    0,201404	196,7	      0,2052	197,7
      42,042	    0,201656	196,9	    0,204412	197,2
      42,044	    0,202605	198,0	    0,204128	197,3
     42,0459	    0,201931	197,6	    0,203925	197,3
     42,0479	    0,202685	198,0	    0,203815	197,5
     42,0499	    0,202091	198,3	    0,204034	197,8
     42,0518	    0,201359	197,4	     0,20358	197,7
     42,0538	    0,201467	197,7	    0,203386	197,8
     42,0557	    0,199272	197,8	    0,204337	198,5
     42,0577	    0,200042	197,7	    0,203079	198,6
     42,0596	    0,199469	197,7	    0,203786	198,9
     42,0616	    0,199378	197,7	    0,202575	198,0
     42,0635	    0,199787	198,1	    0,202215	198,3
     42,0655	    0,199338	198,2	    0,201822	198,0
     42,0674	    0,199815	198,8	    0,201603	198,1
     42,0694	    0,200079	198,2	    0,201296	197,8
     42,0714	    0,199453	198,3	    0,201599	198,6
     42,0733	    0,197915	198,2	    0,201078	198,4
     42,0753	    0,197957	198,1	    0,201607	198,9
     42,0772	    0,198722	198,1	    0,200568	198,8
     42,0792	    0,196875	198,2	    0,200822	199,2
     42,0811	    0,197558	198,5	     0,20094	199,4
     42,0831	    0,198639	199,4	    0,200125	199,2
      42,085	    0,196986	198,7	     0,20038	199,5
      42,087	    0,198071	199,5	    0,198609	198,5
      42,089	    0,197756	199,1	    0,199531	199,1
     42,0909	    0,198165	199,5	    0,199275	198,8
     42,0929	     0,19644	198,6	    0,198863	198,7
     42,0948	    0,196785	199,1	    0,198768	199,4
     42,0968	    0,195726	198,9	    0,198427	199,2
     42,0987	    0,195769	199,0	    0,198418	199,9
     42,1007	    0,194604	198,7	    0,199443	-159,9
     42,1026	    0,194012	198,7	    0,198142	-160,2
     42,1046	     0,19539	199,4	    0,198347	-159,7
     42,1065	    0,194973	199,5	    0,197356	-160,5
     42,1085	    0,196068	-159,8	    0,197579	-160,0
     42,1105	    0,195157	-159,9	    0,196691	-160,6
     42,1124	    0,194515	-160,6	    0,196378	-160,2
     42,1144	    0,194778	-160,3	    0,196109	-160,2
     42,1163	    0,193688	-160,4	    0,197317	-159,9
     42,1183	    0,193875	-160,4	    0,197532	-159,8
     42,1202	    0,192542	-160,6	     0,19719	-159,3
     42,1222	    0,192974	-159,8	    0,197053	-159,5
     42,1241	    0,193373	-159,9	     0,19538	-159,4
     42,1261	    0,192233	-160,3	    0,195377	-159,1
     42,1281	    0,193705	-158,8	     0,19473	-159,7
       42,13	    0,192736	-159,5	    0,194969	-159,4
      42,132	    0,193332	-159,0	    0,193591	-159,9
     42,1339	     0,19254	-159,1	    0,193428	-159,9
     42,1359	     0,19168	-159,6	    0,194379	-159,7
     42,1378	    0,191117	-159,5	    0,193308	-159,7
     42,1398	     0,19216	-159,3	     0,19432	-159,5
     42,1417	     0,19147	-159,9	    0,193175	-159,6
     42,1437	    0,190886	-159,7	     0,19406	-158,7
     42,1456	    0,189765	-159,7	    0,193085	-159,1
     42,1476	    0,190496	-159,2	    0,193072	-158,3
     42,1496	     0,19052	-159,4	       0,193	-158,2
     42,1515	    0,190526	-158,5	    0,192473	-158,4
     42,1535	    0,190145	-158,5	    0,191442	-159,4
     42,1554	    0,190498	-158,6	    0,191945	-158,8
     42,1574	    0,190404	-158,6	    0,191659	-158,7
     42,1593	     0,19087	-158,0	    0,191149	-159,2
     42,1613	    0,189985	-158,9	    0,190536	-159,1
     42,1632	    0,189973	-158,6	    0,191147	-158,8
     42,1652	    0,188786	-159,0	    0,190991	-158,9
     42,1672	    0,189083	-158,9	    0,191149	-158,3
     42,1691	    0,187512	-159,1	    0,190809	-158,1
     42,1711	     0,18722	-159,0	    0,191614	-157,6
      42,173	    0,186956	-159,0	    0,191222	-157,8
      42,175	    0,186553	-159,1	     0,19006	-157,8
     42,1769	    0,187893	-157,7	    0,189786	-157,6
     42,1789	    0,187531	-157,8	     0,18864	-158,6
     42,1808	     0,18713	-157,8	    0,188682	-158,2
     42,1828	    0,187143	-157,7	    0,188568	-158,4
     42,1847	    0,186544	-158,2	    0,187957	-158,4
     42,1867	    0,186448	-158,0	    0,188388	-157,9
     42,1887	    0,185957	-158,4	    0,187895	-157,9
     42,1906	      0,1865	-157,9	    0,188531	-157,6
     42,1926	    0,185028	-158,5	     0,18787	-157,9
     42,1945	    0,185335	-158,4	    0,187236	-157,5
     42,1965	    0,185102	-157,9	    0,188083	-157,3
     42,1984	    0,184201	-158,2	    0,187606	-156,4
     42,2004	    0,185699	-157,3	    0,188239	-156,7
     42,2023	    0,184933	-157,5	    0,187349	-156,6
     42,2043	    0,185707	-156,7	    0,187077	-156,4
     42,2063	    0,185208	-156,7	    0,186215	-157,1
     42,2082	    0,185551	-156,7	    0,186008	-157,0
     42,2102	    0,185298	-156,7	    0,185315	-157,6
     42,2121	    0,184977	-156,9	    0,184796	-157,6
     42,2141	    0,184526	-157,2	     0,18573	-157,1
      42,216	    0,184194	-156,7	    0,184764	-157,4
      42,218	    0,182429	-157,8	     0,18538	-156,9
     42,2199	    0,182656	-157,7	    0,184848	-157,2
     42,2219	    0,182467	-156,8	    0,185625	-156,3
     42,2239	    0,181999	-157,3	    0,185108	-156,8
     42,2258	     0,18135	-157,6	    0,185124	-155,6
     42,2278	     0,18205	-156,4	    0,184793	-156,0
     42,2297	    0,181425	-156,7	    0,184259	-156,0
     42,2317	     0,18211	-156,1	    0,184173	-155,5
     42,2336	    0,181799	-156,3	    0,182577	-156,6
     42,2356	    0,181717	-156,2	    0,183667	-155,7
     42,2375	    0,181877	-155,9	     0,18167	-157,0
     42,2395	    0,180471	-156,8	    0,181857	-156,6
     42,2414	      0,1813	-155,7	    0,181961	-156,8
     42,2434	    0,180012	-156,7	    0,182067	-156,5
     42,2454	    0,179392	-156,5	    0,182394	-156,0
     42,2473	    0,180165	-156,3	    0,181657	-156,3
     42,2493	    0,178041	-156,5	    0,182024	-156,0
     42,2512	     0,17873	-156,4	    0,181591	-156,2
     42,2532	    0,178807	-155,5	    0,182389	-155,1
     42,2551	    0,177446	-156,2	    0,181687	-155,5
     42,2571	    0,178539	-154,8	    0,181175	-154,9
      42,259	    0,177936	-155,2	    0,181169	-154,4
      42,261	    0,178798	-154,7	    0,180476	-155,4
      42,263	    0,178053	-154,9	    0,180814	-154,8
     42,2649	    0,177638	-155,7	    0,180865	-154,9
     42,2669	    0,178597	-155,0	    0,179761	-155,1
     42,2688	    0,177285	-155,9	    0,178534	-155,8
     42,2708	    0,178013	-155,1	    0,178704	-155,6
     42,2727	    0,177129	-155,8	    0,179322	-155,3
     42,2747	     0,17737	-155,3	    0,178462	-155,9
     42,2766	    0,175674	-156,2	    0,177904	-155,6
     42,2786	     0,17582	-156,2	    0,178786	-155,4
     42,2805	    0,175038	-155,3	    0,178134	-155,5
     42,2825	    0,175569	-155,5	    0,179537	-154,1
     42,2845	    0,175646	-154,6	    0,178019	-155,2
     42,2864	    0,175796	-155,2	     0,17894	-153,9
     42,2884	    0,175797	-154,8	     0,17871	-154,0
     42,2903	    0,175089	-154,3	    0,177677	-153,9
     42,2923	    0,171359	-154,7	    0,178201	-153,6
     42,2942	    0,172883	-154,3	    0,176819	-154,4
     42,2962	     0,17433	-154,6	    0,176847	-154,2
     42,2981	     0,17412	-154,6	    0,176636	-154,2
     42,3001	    0,174461	-153,8	    0,175225	-155,0
     42,3021	    0,174419	-155,0	    0,176043	-154,0
      42,304	    0,174557	-153,6	    0,174915	-154,8
      42,306	    0,173901	-154,2	    0,175255	-154,2
     42,3079	     0,17193	-154,4	    0,174866	-154,4
     42,3099	    0,172261	-155,3	    0,174471	-154,5
     42,3118	    0,172201	-155,3	    0,175351	-154,1
     42,3138	    0,171623	-154,0	    0,174898	-154,3
     42,3157	    0,171989	-154,3	     0,17564	-153,4
     42,3177	    0,171874	-153,8	    0,175102	-154,3
     42,3196	    0,171613	-153,9	    0,175751	-153,0
     42,3216	    0,171482	-153,6	    0,175094	-153,0
     42,3236	    0,171544	-153,8	    0,174869	-153,0
     42,3255	    0,171509	-153,6	     0,17463	-153,3
     42,3275	    0,171382	-153,2	     0,17333	-153,1
     42,3294	    0,171371	-153,2	    0,173897	-152,9
     42,3314	    0,171993	-153,1	    0,172812	-153,2
     42,3333	     0,17077	-153,1	    0,173137	-152,6
     42,3353	    0,169984	-152,8	    0,172178	-153,3
     42,3372	    0,170101	-153,2	    0,172439	-153,0
     42,3392	    0,170798	-153,3	    0,172117	-153,6
     42,3412	    0,170619	-152,8	    0,171301	-153,3
     42,3431	     0,16994	-153,3	    0,171642	-154,0
     42,3451	    0,169983	-153,1	    0,171624	-153,6
      42,347	    0,169352	-153,6	    0,171138	-153,4
      42,349	    0,169671	-152,8	    0,170671	-153,7
     42,3509	    0,168524	-153,4	    0,171622	-152,9
     42,3529	    0,168619	-153,4	    0,170882	-153,2
     42,3548	    0,168036	-152,8	    0,170961	-152,7
     42,3568	    0,167379	-153,3	    0,170403	-153,2
     42,3587	    0,167592	-152,8	    0,171339	-152,0
     42,3607	     0,16761	-152,8	    0,171021	-151,9
     42,3627	    0,167917	-152,1	    0,170737	-151,9
     42,3646	    0,167412	-152,3	    0,170771	-151,8
     42,3666	    0,168122	-151,8	    0,169741	-151,6
     42,3685	    0,167634	-151,9	     0,17033	-151,4
     42,3705	    0,167875	-152,4	    0,169035	-151,8
     42,3724	    0,167088	-152,2	    0,169053	-151,4
     42,3744	    0,167365	-151,8	    0,168095	-151,9
     42,3763	    0,166944	-152,2	    0,168527	-151,6
     42,3783	    0,165493	-153,2	    0,168147	-152,1
     42,3803	    0,166112	-152,4	    0,167334	-152,4
     42,3822	    0,165693	-152,7	     0,16681	-152,8
     42,3842	    0,165097	-152,4	    0,166735	-152,3
     42,3861	    0,164946	-152,6	    0,167196	-152,4
     42,3881	    0,164357	-152,7	    0,166551	-152,4
       42,39	    0,164187	-152,8	    0,166548	-151,7
      42,392	    0,163796	-152,4	    0,166697	-152,2
     42,3939	    0,163747	-152,4	    0,166771	-151,9
     42,3959	    0,163727	-151,4	    0,166215	-151,9
     42,3979	    0,163151	-151,9	    0,166113	-151,8
     42,3998	    0,163372	-152,1	    0,165929	-151,6
     42,4018	     0,16343	-151,4	    0,166118	-150,6
     42,4037	    0,163193	-151,2	    0,166009	-150,8
     42,4057	    0,163077	-151,1	    0,165763	-150,8
     42,4076	    0,162794	-151,3	    0,165905	-150,8
     42,4096	    0,163457	-150,9	    0,165195	-150,5
     42,4115	    0,163251	-150,5	    0,165518	-150,3
     42,4135	    0,163022	-150,9	    0,164769	-150,7
     42,4154	    0,162899	-150,5	    0,164324	-150,6
     42,4174	    0,163051	-150,6	    0,163675	-150,9
     42,4194	    0,162468	-150,6	    0,164343	-150,4
     42,4213	    0,161937	-151,0	     0,16441	-150,3
     42,4233	    0,161457	-150,9	    0,163305	-150,3
     42,4252	    0,161013	-151,1	    0,163592	-150,2
     42,4272	    0,161525	-150,4	    0,162207	-150,9
     42,4291	    0,160108	-151,7	    0,162693	-150,2
     42,4311	    0,160918	-151,0	    0,162247	-150,6
      42,433	    0,159678	-151,1	    0,161912	-150,7
      42,435	    0,159784	-151,5	    0,162288	-151,0
      42,437	    0,159117	-151,0	    0,161879	-151,0
     42,4389	    0,159515	-151,0	    0,161872	-150,5
     42,4409	    0,159521	-150,6	    0,161508	-150,7
     42,4428	    0,158982	-151,1	    0,161497	-150,6
     42,4448	    0,159083	-150,2	    0,161272	-150,5
     42,4467	    0,158069	-151,1	    0,161197	-150,3
     42,4487	    0,157982	-151,3	    0,161154	-150,0
     42,4506	    0,158022	-150,2	    0,160776	-150,4
     42,4526	    0,157823	-150,3	    0,160518	-150,1
     42,4545	    0,158168	-149,6	    0,160062	-150,3
     42,4565	    0,157649	-149,9	    0,160436	-149,6
     42,4585	    0,158287	-149,6	    0,160238	-149,7
     42,4604	    0,157194	-150,3	    0,160021	-149,1
     42,4624	    0,157522	-149,1	     0,15967	-149,3
     42,4643	    0,157018	-149,4	    0,159507	-149,2
     42,4663	    0,157765	-149,4	     0,15961	-149,2
     42,4682	    0,157001	-149,1	    0,158978	-149,5
     42,4702	    0,157188	-149,3	    0,159038	-148,9
     42,4721	    0,157037	-149,2	    0,158996	-148,9
     42,4741	    0,156476	-149,6	    0,158463	-148,9
     42,4761	    0,156926	-148,7	    0,157919	-148,8
      42,478	    0,155955	-149,7	    0,157518	-149,0
       42,48	    0,156008	-149,4	    0,157697	-148,7
     42,4819	    0,154991	-150,5	    0,156895	-149,2
     42,4839	    0,155571	-149,3	    0,157488	-148,5
     42,4858	    0,154929	-150,2	    0,156574	-149,0
     42,4878	    0,155131	-149,7	    0,156844	-148,7
     42,4897	     0,15449	-149,7	    0,155927	-149,1
     42,4917	    0,154389	-149,3	    0,155915	-148,7
     42,4936	    0,153498	-150,0	    0,155795	-149,2
     42,4956	     0,15379	-149,6	    0,155954	-148,8
     42,4976	    0,153007	-149,3	    0,155137	-149,3
     42,4995	    0,153571	-149,2	    0,155161	-148,7
     42,5015	    0,153066	-149,3	    0,155204	-148,9
     42,5034	    0,152857	-149,3	    0,155145	-148,6
     42,5054	    0,151096	-149,0	    0,154705	-148,9
     42,5073	    0,151305	-149,0	    0,154602	-148,7
     42,5093	    0,152312	-149,3	    0,154162	-148,6
     42,5112	    0,151972	-149,0	    0,154008	-149,0
     42,5132	    0,151869	-148,9	    0,153569	-149,0
     42,5152	    0,151608	-148,5	    0,153773	-148,6
     42,5171	     0,15144	-149,2	     0,15325	-148,7
     42,5191	    0,151476	-148,2	    0,153256	-148,8
      42,521	    0,150921	-148,9	    0,153108	-148,5
      42,523	    0,151133	-147,8	    0,153237	-148,0
     42,5249	     0,15153	-147,8	    0,153013	-148,2
     42,5269	    0,150773	-147,9	    0,152744	-147,7
     42,5288	    0,151066	-147,5	    0,152315	-148,3
     42,5308	    0,150291	-147,8	    0,152581	-147,4
     42,5327	    0,150713	-147,7	    0,152024	-147,9
     42,5347	    0,149607	-147,8	    0,152196	-147,2
     42,5367	    0,150133	-147,3	    0,151904	-147,3
     42,5386	    0,149413	-147,4	    0,151803	-147,3
     42,5406	    0,149609	-147,4	    0,151339	-147,5
     42,5425	    0,148932	-147,7	    0,151085	-147,2
     42,5445	    0,148981	-147,4	    0,151119	-146,9
     42,5464	    0,149174	-147,2	    0,150652	-147,4
     42,5484	    0,148891	-147,4	    0,150614	-147,0
     42,5503	    0,148948	-147,1	    0,150347	-147,3
     42,5523	    0,148548	-146,9	     0,15028	-146,6
     42,5543	    0,148121	-147,3	    0,150056	-147,0
     42,5562	    0,147965	-147,1	    0,149719	-146,9
     42,5582	    0,147655	-146,9	     0,14972	-146,9
     42,5601	    0,148134	-146,6	    0,149427	-146,6
     42,5621	     0,14779	-146,7	    0,149323	-146,4
      42,564	    0,147392	-147,1	    0,149049	-146,8
      42,566	    0,147461	-146,8	    0,148962	-146,6
     42,5679	    0,147171	-146,5	    0,148375	-146,5
     42,5699	    0,146608	-146,4	    0,148278	-146,5
     42,5718	    0,146483	-146,5	    0,147911	-146,8
     42,5738	    0,146358	-146,8	    0,147736	-146,7
     42,5758	    0,146122	-146,8	    0,147314	-146,6
     42,5777	    0,146098	-146,5	    0,147372	-146,2
     42,5797	    0,145552	-147,2	    0,146999	-146,6
     42,5816	    0,145305	-147,0	     0,14714	-146,5
     42,5836	      0,1448	-147,1	    0,146587	-146,1
     42,5855	    0,145107	-146,2	    0,146763	-146,0
     42,5875	    0,144848	-146,3	    0,146276	-146,4
     42,5894	    0,144379	-146,7	    0,146187	-146,2
     42,5914	    0,144411	-146,7	    0,146026	-146,2
     42,5934	    0,143762	-147,6	    0,145677	-146,0
     42,5953	    0,144065	-146,5	    0,145657	-145,7
     42,5973	    0,143582	-146,7	    0,145361	-146,1
     42,5992	    0,143386	-146,3	    0,145108	-145,9
     42,6012	    0,142918	-146,0	     0,14471	-146,1
     42,6031	    0,143017	-146,3	    0,144697	-145,7
     42,6051	    0,142492	-146,3	    0,144518	-146,0
      42,607	    0,142508	-146,4	     0,14441	-145,9
      42,609	    0,142625	-145,7	    0,143677	-145,6
     42,6109	    0,142295	-146,2	    0,143871	-145,6
     42,6129	    0,142235	-146,3	    0,143552	-146,0
     42,6149	    0,141915	-146,1	    0,143387	-145,7
     42,6168	    0,141827	-145,9	    0,143193	-145,5
     42,6188	    0,141419	-146,3	    0,142856	-145,5
     42,6207	    0,141381	-146,3	    0,142735	-145,8
     42,6227	    0,141099	-146,0	     0,14265	-145,5
     42,6246	    0,141031	-145,8	    0,142239	-145,7
     42,6266	    0,140642	-146,1	     0,14223	-145,4
     42,6285	    0,140678	-146,0	    0,141837	-145,8
     42,6305	    0,140005	-146,1	     0,14182	-145,5
     42,6325	    0,140191	-145,8	    0,141752	-145,3
     42,6344	    0,139927	-145,6	     0,14136	-145,2
     42,6364	    0,139773	-145,7	    0,141463	-144,9
     42,6383	    0,139244	-145,7	    0,141106	-145,2
     42,6403	    0,139096	-145,8	    0,140619	-145,4
     42,6422	    0,138927	-145,8	    0,140576	-144,9
     42,6442	     0,13906	-145,5	    0,139986	-145,7
     42,6461	    0,138315	-145,9	    0,139878	-145,3
     42,6481	    0,138401	-145,3	    0,139832	-145,2
       42,65	    0,138484	-145,0	    0,139772	-144,7
      42,652	    0,138155	-145,6	    0,139397	-145,2
      42,654	    0,137755	-145,3	    0,139535	-144,9
     42,6559	    0,137884	-145,3	    0,139502	-144,7
     42,6579	    0,137468	-144,9	    0,139015	-144,6
     42,6598	    0,137272	-145,3	    0,138921	-144,3
     42,6618	    0,137251	-145,0	    0,138582	-144,8
     42,6637	    0,136916	-145,1	    0,138479	-144,5
     42,6657	    0,136498	-144,9	     0,13825	-144,4
     42,6676	    0,136124	-144,9	    0,138045	-144,3
     42,6696	     0,13612	-145,1	    0,137656	-144,7
     42,6716	    0,136182	-145,0	    0,137779	-144,3
     42,6735	    0,136065	-145,1	    0,137521	-144,4
     42,6755	    0,135887	-145,0	    0,137401	-144,2
     42,6774	    0,136139	-144,6	    0,136986	-144,4
     42,6794	    0,135756	-144,6	     0,13679	-144,2
     42,6813	    0,135657	-144,4	    0,136439	-144,5
     42,6833	    0,135276	-144,5	    0,136533	-144,0
     42,6852	    0,134977	-144,6	    0,136186	-144,2
     42,6872	    0,134976	-144,4	    0,136085	-144,1
     42,6891	    0,134817	-144,2	      0,1357	-144,6
     42,6911	    0,134557	-144,3	    0,135782	-143,9
     42,6931	    0,134425	-143,9	     0,13561	-143,7
      42,695	    0,134269	-144,4	    0,135158	-144,1
      42,697	    0,134121	-144,0	    0,135103	-143,7
     42,6989	    0,133886	-144,1	    0,134908	-143,8
     42,7009	    0,133776	-143,7	    0,134938	-143,6
     42,7028	      0,1334	-143,9	    0,134501	-143,4
     42,7048	     0,13338	-144,1	    0,134495	-143,4
     42,7067	    0,133096	-144,1	    0,134306	-143,5
     42,7087	    0,132895	-143,9	    0,133857	-143,5
     42,7107	    0,132388	-144,2	    0,133736	-143,2
     42,7126	    0,132401	-143,8	    0,133575	-143,3
     42,7146	    0,132184	-143,5	    0,133584	-143,2
     42,7165	    0,132242	-143,4	    0,133252	-143,2
     42,7185	    0,131925	-143,8	    0,133078	-143,3
     42,7204	    0,131727	-143,6	     0,13298	-143,0
     42,7224	    0,131339	-143,5	    0,132635	-143,2
     42,7243	    0,131298	-143,7	    0,132156	-143,2
     42,7263	    0,130766	-143,3	    0,132364	-143,1
     42,7282	    0,131126	-143,2	    0,132203	-143,3
     42,7302	    0,130946	-143,4	    0,131954	-143,1
     42,7322	     0,13091	-143,0	    0,131623	-142,9
     42,7341	    0,130511	-143,2	    0,131559	-143,0
     42,7361	    0,130329	-143,0	    0,131371	-142,6
      42,738	    0,130045	-143,5	    0,131212	-142,6
       42,74	    0,129895	-143,1	    0,131059	-142,7
     42,7419	    0,129865	-142,7	    0,130756	-142,7
     42,7439	    0,129701	-142,6	    0,130634	-142,6
     42,7458	    0,129591	-142,4	    0,130377	-142,9
     42,7478	    0,129336	-142,9	    0,130026	-142,7
     42,7498	    0,129156	-142,7	    0,129912	-142,8
     42,7517	    0,128824	-142,7	    0,129896	-142,5
     42,7537	    0,128687	-142,6	     0,12955	-143,0
     42,7556	    0,128578	-142,5	    0,129306	-142,8
     42,7576	    0,128303	-142,4	    0,129156	-142,7
     42,7595	    0,128212	-142,2	     0,12905	-142,7
     42,7615	    0,127906	-142,3	    0,128755	-143,0
     42,7634	    0,127738	-142,2	    0,128455	-142,3
     42,7654	    0,127562	-142,2	    0,128256	-142,5
     42,7673	    0,127438	-142,0	    0,128249	-142,4
     42,7693	    0,127198	-142,3	    0,127967	-143,0
     42,7713	    0,127041	-141,9	    0,127628	-142,8
     42,7732	    0,126733	-142,0	    0,127577	-142,4
     42,7752	    0,126686	-142,2	    0,127615	-142,1
     42,7771	    0,126527	-142,3	    0,127383	-142,6
     42,7791	    0,126431	-141,9	      0,1273	-142,3
      42,781	    0,126121	-142,0	    0,126904	-142,5
      42,783	    0,125976	-142,0	    0,126701	-142,0
     42,7849	    0,125687	-142,2	    0,126477	-142,5
     42,7869	    0,125528	-141,9	    0,126426	-142,0
     42,7889	    0,125461	-142,1	    0,126095	-142,4
     42,7908	    0,125064	-141,8	    0,126088	-142,0
     42,7928	    0,124822	-141,5	    0,125744	-142,2
     42,7947	    0,124721	-141,9	    0,125617	-141,8
     42,7967	    0,124561	-142,1	    0,125578	-141,5
     42,7986	    0,124499	-141,7	    0,125356	-141,9
     42,8006	    0,124247	-141,6	    0,125167	-141,7
     42,8025	    0,124009	-141,8	     0,12489	-141,3
     42,8045	    0,124004	-141,8	    0,124651	-141,7
     42,8064	    0,123733	-141,3	    0,124589	-141,5
     42,8084	    0,123666	-141,5	    0,124328	-141,6
     42,8104	    0,123512	-141,3	    0,124207	-141,2
     42,8123	    0,123296	-141,2	    0,123917	-140,8
     42,8143	    0,123008	-141,1	    0,123786	-141,3
     42,8162	    0,122895	-140,8	    0,123682	-141,2
     42,8182	    0,122711	-140,9	    0,123511	-141,0
     42,8201	    0,122545	-140,8	     0,12339	-141,1
     42,8221	     0,12233	-141,0	    0,123077	-141,1
      42,824	    0,122318	-141,1	    0,122829	-140,8
      42,826	    0,122036	-140,7	    0,122681	-140,9
      42,828	    0,121849	-140,8	    0,122586	-141,1
     42,8299	    0,121691	-140,8	     0,12237	-140,8
     42,8319	    0,121518	-140,9	    0,122147	-140,6
     42,8338	    0,121331	-141,0	    0,121998	-140,8
     42,8358	    0,121233	-140,8	     0,12178	-141,0
     42,8377	    0,121036	-140,6	    0,121622	-140,9
     42,8397	    0,120814	-140,7	    0,121467	-140,7
     42,8416	    0,120552	-140,8	    0,121179	-140,7
     42,8436	    0,120371	-140,7	    0,120993	-140,9
     42,8456	    0,120051	-141,0	    0,120927	-141,0
     42,8475	    0,119908	-140,6	    0,120832	-141,0
     42,8495	    0,119764	-140,6	      0,1205	-140,7
     42,8514	    0,119565	-140,9	    0,120281	-140,8
     42,8534	    0,119209	-141,3	    0,120199	-140,8
     42,8553	    0,119218	-140,6	    0,119967	-140,7
     42,8573	    0,119209	-140,6	    0,119767	-140,6
     42,8592	    0,118957	-140,6	    0,119588	-140,5
     42,8612	    0,118732	-140,7	    0,119407	-140,2
     42,8631	    0,118609	-140,7	    0,119211	-140,4
     42,8651	    0,118394	-140,4	    0,119008	-140,5
     42,8671	    0,118167	-140,4	    0,118794	-140,3
      42,869	    0,118139	-140,2	    0,118613	-140,1
      42,871	    0,117979	-140,6	    0,118447	-140,2
     42,8729	    0,117878	-140,3	    0,118177	-140,2
     42,8749	    0,117685	-140,0	    0,118031	-140,1
     42,8768	    0,117414	-139,9	    0,117883	-140,1
     42,8788	    0,117276	-139,7	    0,117811	-140,1
     42,8807	     0,11715	-140,2	    0,117584	-140,0
     42,8827	    0,116988	-140,0	    0,117342	-140,0
     42,8847	     0,11674	-139,8	    0,117122	-140,0
     42,8866	    0,116569	-139,9	    0,116942	-140,2
     42,8886	    0,116291	-139,8	    0,116856	-139,8
     42,8905	    0,116214	-139,8	    0,116681	-139,9
     42,8925	    0,115995	-139,8	    0,116493	-140,0
     42,8944	    0,115672	-139,9	    0,116323	-140,2
     42,8964	    0,115613	-139,5	    0,116073	-140,1
     42,8983	    0,115512	-139,6	    0,115945	-139,9
     42,9003	    0,115293	-139,7	    0,115767	-139,8
     42,9022	    0,115204	-139,8	    0,115516	-139,7
     42,9042	     0,11503	-140,0	    0,115401	-139,9
     42,9062	    0,114806	-139,7	    0,115243	-139,8
     42,9081	    0,114637	-139,6	    0,115092	-139,7
     42,9101	    0,114457	-139,7	    0,114872	-139,6
      42,912	     0,11431	-139,8	    0,114618	-139,8
      42,914	    0,114126	-139,5	    0,114438	-139,5
     42,9159	    0,113927	-139,4	    0,114266	-139,6
     42,9179	    0,113691	-139,4	    0,114144	-139,3
     42,9198	     0,11355	-139,1	     0,11404	-139,2
     42,9218	    0,113476	-139,6	    0,113909	-139,2
     42,9238	    0,113418	-139,2	    0,113619	-139,4
     42,9257	    0,113167	-139,1	    0,113476	-139,4
     42,9277	    0,112907	-139,0	    0,113243	-139,1
     42,9296	    0,112747	-139,0	    0,113108	-139,2
     42,9316	    0,112642	-139,1	     0,11299	-139,2
     42,9335	    0,112527	-139,1	    0,112774	-139,3
     42,9355	    0,112252	-139,0	    0,112622	-139,4
     42,9374	    0,112013	-138,7	    0,112273	-139,2
     42,9394	    0,111878	-138,9	     0,11225	-139,3
     42,9413	    0,111867	-139,2	    0,112084	-139,2
     42,9433	    0,111742	-139,2	    0,111953	-139,0
     42,9453	    0,111513	-139,0	    0,111656	-139,4
     42,9472	    0,111317	-138,9	    0,111494	-139,0
     42,9492	    0,111051	-138,9	    0,111368	-139,1
     42,9511	    0,110982	-138,9	    0,111201	-139,0
     42,9531	    0,110793	-138,8	    0,110876	-139,0
      42,955	      0,1106	-138,9	    0,110826	-138,6
      42,957	    0,110559	-138,7	    0,110631	-138,9
     42,9589	    0,110311	-138,6	     0,11053	-138,8
     42,9609	    0,110133	-138,5	    0,110243	-138,6
     42,9629	    0,109956	-138,5	    0,110135	-138,4
     42,9648	    0,109804	-138,4	    0,109916	-138,6
     42,9668	     0,10964	-138,5	    0,109811	-138,6
     42,9687	    0,109474	-138,5	    0,109646	-138,6
     42,9707	    0,109342	-138,1	    0,109495	-138,9
     42,9726	    0,109251	-138,4	    0,109278	-138,5
     42,9746	    0,108972	-138,4	    0,108942	-139,0
     42,9765	    0,108769	-138,5	    0,108928	-138,6
     42,9785	    0,108574	-138,3	    0,108766	-139,0
     42,9804	    0,108411	-138,5	    0,108482	-138,7
     42,9824	    0,108271	-138,5	     0,10832	-138,5
     42,9844	    0,108116	-138,3	    0,107886	-138,5
     42,9863	    0,107976	-138,6	    0,108007	-138,3
     42,9883	    0,107926	-138,4	    0,107769	-138,7
     42,9902	    0,107794	-138,2	    0,107661	-138,4
     42,9922	    0,107526	-138,1	    0,107602	-138,3
     42,9941	    0,107301	-138,0	    0,107331	-138,2
     42,9961	    0,107204	-138,0	    0,106948	-138,1
      42,998	    0,107111	-137,9	    0,106824	-137,8
          43	     0,10707	-138,1	    0,106912	-137,9

