X-Data [Hz]	Laser (M - Filtered) [m/s]	Phase [Deg]	Laser (M - Filtered) [m/s]	Phase [Deg]	
	003: [06-27-24 09:44]		004: [06-27-24 09:47]	
         150	   0,0147019	55,1	   0,0143377	56,6
     150,029	   0,0147141	57,9	   0,0143651	57,4
     150,059	   0,0150292	56,3	   0,0143345	56,3
     150,088	   0,0150933	55,3	   0,0140195	59,2
     150,117	   0,0152112	58,2	    0,014427	56,6
     150,147	    0,015362	54,3	    0,014562	57,0
     150,176	   0,0153372	54,8	    0,014186	56,4
     150,205	   0,0152882	56,1	    0,014261	59,5
     150,235	   0,0153931	58,6	   0,0146903	55,1
     150,264	    0,015381	58,6	   0,0147322	56,5
     150,293	   0,0155449	54,3	   0,0147161	56,9
     150,323	   0,0151378	57,5	   0,0146761	56,5
     150,352	   0,0158937	56,1	   0,0147113	56,5
     150,381	   0,0155769	58,0	   0,0148747	58,5
     150,411	   0,0156931	57,2	    0,015053	56,6
      150,44	   0,0155877	58,7	   0,0149311	57,0
     150,469	   0,0154934	58,5	   0,0149752	57,8
     150,499	   0,0159859	57,0	   0,0153888	55,2
     150,528	    0,015732	57,2	   0,0149891	55,2
     150,557	   0,0161556	56,2	   0,0150362	56,3
     150,587	   0,0162895	58,0	   0,0152165	59,7
     150,616	   0,0161431	57,0	    0,015118	56,5
     150,645	   0,0164412	56,9	   0,0150216	59,8
     150,674	   0,0162756	52,1	     0,01539	56,3
     150,704	   0,0163106	57,3	   0,0155043	56,2
     150,733	   0,0159445	58,4	   0,0157126	58,9
     150,762	   0,0165322	56,8	   0,0156685	57,0
     150,792	   0,0161014	56,8	   0,0158699	58,3
     150,821	   0,0167444	58,3	    0,015738	55,8
      150,85	   0,0167391	57,3	   0,0154608	57,1
      150,88	   0,0171222	57,7	    0,015471	57,8
     150,909	   0,0166491	57,1	   0,0153814	58,7
     150,938	   0,0167411	57,1	   0,0158744	58,6
     150,968	   0,0165586	56,9	   0,0164064	57,6
     150,997	   0,0172782	59,7	   0,0162025	58,5
     151,026	   0,0170308	58,3	     0,01628	57,6
     151,056	   0,0178158	57,1	   0,0161215	55,9
     151,085	   0,0173277	57,7	   0,0160994	58,5
     151,114	   0,0173314	56,5	   0,0161154	56,3
     151,144	   0,0167356	55,7	   0,0165028	55,8
     151,173	   0,0175987	55,3	    0,016478	58,2
     151,202	   0,0176832	57,6	   0,0165378	56,9
     151,232	   0,0179895	54,5	   0,0162369	58,0
     151,261	   0,0172526	56,8	   0,0167607	56,1
      151,29	   0,0175425	58,6	   0,0168616	56,2
      151,32	   0,0176393	57,6	   0,0169746	56,6
     151,349	   0,0180165	59,2	   0,0169325	58,5
     151,378	   0,0177425	58,1	   0,0168235	56,3
     151,408	   0,0179352	58,5	   0,0166394	56,1
     151,437	   0,0181869	55,2	   0,0171937	56,0
     151,466	   0,0184763	56,3	   0,0169699	56,5
     151,496	   0,0182832	58,6	   0,0171508	54,8
     151,525	   0,0182071	56,5	   0,0167763	56,6
     151,554	    0,018428	56,5	   0,0174642	55,4
     151,584	   0,0184001	57,9	   0,0173024	56,3
     151,613	    0,018733	54,2	   0,0176478	57,0
     151,642	   0,0182633	56,0	   0,0172242	55,7
     151,672	   0,0190276	57,1	   0,0178529	57,8
     151,701	   0,0187796	55,5	   0,0179541	57,5
      151,73	    0,018934	53,7	   0,0175798	55,9
      151,76	   0,0187274	58,0	   0,0180258	55,0
     151,789	   0,0195082	56,2	    0,018005	58,3
     151,818	   0,0189331	57,4	   0,0182986	56,9
     151,848	   0,0190768	57,8	    0,017547	57,9
     151,877	   0,0195696	58,8	   0,0182327	55,8
     151,906	   0,0192126	54,5	   0,0185857	56,6
     151,935	   0,0191705	56,7	   0,0183258	58,4
     151,965	   0,0199149	58,6	   0,0185432	57,7
     151,994	   0,0198297	54,3	   0,0185261	56,6
     152,023	   0,0193434	57,8	   0,0184007	56,4
     152,053	    0,020518	57,6	   0,0187107	56,6
     152,082	   0,0199838	55,8	   0,0187124	56,8
     152,111	   0,0194639	57,9	   0,0184707	56,1
     152,141	   0,0204886	57,5	    0,018988	55,3
      152,17	   0,0203863	55,6	    0,019435	57,5
     152,199	   0,0206213	55,9	   0,0188704	57,4
     152,229	    0,020418	57,4	   0,0191028	56,5
     152,258	   0,0201924	57,3	    0,019437	56,5
     152,287	   0,0206663	56,1	   0,0194141	55,8
     152,317	   0,0206349	57,0	   0,0197709	56,6
     152,346	   0,0209583	58,0	   0,0193935	56,7
     152,375	   0,0213187	54,1	   0,0197398	56,7
     152,405	   0,0208631	58,5	   0,0197285	58,1
     152,434	   0,0214911	59,3	   0,0194817	59,3
     152,463	   0,0212675	56,0	   0,0202708	57,3
     152,493	   0,0217451	58,0	   0,0199419	55,6
     152,522	   0,0210946	57,1	   0,0205406	56,9
     152,551	   0,0214142	59,1	   0,0201742	57,0
     152,581	   0,0220097	54,6	   0,0201953	56,7
      152,61	   0,0216025	56,9	   0,0206847	56,5
     152,639	   0,0221441	57,2	   0,0200544	57,5
     152,669	   0,0219571	56,9	   0,0203399	55,2
     152,698	   0,0224932	57,4	   0,0204971	54,5
     152,727	   0,0216316	59,3	   0,0212683	54,7
     152,757	   0,0226237	57,3	   0,0211571	57,8
     152,786	   0,0218415	58,0	   0,0205606	58,1
     152,815	   0,0229335	59,0	   0,0214416	58,3
     152,845	   0,0226806	58,1	   0,0215261	57,7
     152,874	   0,0234361	54,9	   0,0214902	57,7
     152,903	   0,0230947	57,1	   0,0211583	58,8
     152,933	   0,0237013	56,3	   0,0214204	58,0
     152,962	   0,0228189	57,8	   0,0216361	55,7
     152,991	   0,0235067	57,5	   0,0215697	57,2
     153,021	   0,0230583	60,1	   0,0217576	58,0
      153,05	   0,0242639	58,8	   0,0219034	56,6
     153,079	   0,0233573	56,7	   0,0219283	57,4
     153,109	   0,0236012	58,7	   0,0223242	56,4
     153,138	   0,0236785	59,5	   0,0222728	57,5
     153,167	   0,0242325	58,3	   0,0220298	57,4
     153,196	   0,0240207	57,4	   0,0225821	56,4
     153,226	   0,0239791	56,3	   0,0220859	57,6
     153,255	   0,0248706	57,5	   0,0232713	56,5
     153,284	   0,0245891	58,8	   0,0225582	56,1
     153,314	   0,0251183	56,2	   0,0235894	55,4
     153,343	   0,0247976	58,1	   0,0228374	56,4
     153,372	   0,0252455	57,3	   0,0231956	58,9
     153,402	   0,0251932	58,4	   0,0233621	54,5
     153,431	    0,025795	56,2	   0,0233965	53,8
      153,46	   0,0265326	56,6	    0,023791	56,8
      153,49	   0,0257977	59,6	   0,0230701	56,4
     153,519	   0,0267371	54,8	    0,024054	57,5
     153,548	   0,0258812	56,7	   0,0241368	57,8
     153,578	   0,0261578	56,2	   0,0237298	59,6
     153,607	   0,0265957	56,0	   0,0243436	55,1
     153,636	   0,0262387	58,8	   0,0240798	58,3
     153,666	   0,0262245	57,0	   0,0245988	54,1
     153,695	   0,0274269	59,4	   0,0250179	58,6
     153,724	   0,0268832	58,2	   0,0246539	58,9
     153,754	   0,0274817	56,7	   0,0255717	56,3
     153,783	   0,0278449	57,7	   0,0251657	59,2
     153,812	   0,0277326	55,8	   0,0246596	58,2
     153,842	   0,0285127	56,8	   0,0253858	56,0
     153,871	   0,0287825	55,3	    0,025502	57,0
       153,9	    0,028358	56,8	   0,0249838	59,7
      153,93	   0,0286971	55,7	   0,0260235	58,3
     153,959	     0,02887	55,6	    0,026006	58,8
     153,988	   0,0285139	59,9	    0,025736	59,4
     154,018	   0,0289916	56,2	   0,0266582	58,0
     154,047	    0,029493	55,5	   0,0266429	57,6
     154,076	   0,0294318	59,7	   0,0262392	56,3
     154,106	   0,0291629	57,9	   0,0266594	57,5
     154,135	   0,0299226	57,3	   0,0270641	56,5
     154,164	   0,0298273	58,5	   0,0267499	57,1
     154,194	   0,0296694	56,9	   0,0266158	60,3
     154,223	   0,0300967	57,6	   0,0274022	57,3
     154,252	   0,0303553	59,1	   0,0277326	55,3
     154,282	   0,0303094	58,9	   0,0270535	60,6
     154,311	   0,0299429	59,9	   0,0272556	58,1
      154,34	   0,0306276	57,8	   0,0281009	57,7
      154,37	   0,0315699	57,4	   0,0280947	57,6
     154,399	   0,0319321	57,7	   0,0281805	58,0
     154,428	   0,0312474	59,2	   0,0280481	58,3
     154,457	   0,0315836	58,4	    0,028596	58,7
     154,487	   0,0328778	57,9	   0,0290156	57,7
     154,516	   0,0326304	57,8	   0,0288583	57,0
     154,545	   0,0324157	58,4	   0,0292921	58,2
     154,575	   0,0319027	57,1	    0,029866	58,4
     154,604	   0,0333197	56,8	   0,0302942	55,2
     154,633	   0,0336469	56,4	   0,0301284	56,9
     154,663	   0,0337322	58,7	   0,0297314	57,3
     154,692	   0,0336366	59,3	   0,0296391	57,4
     154,721	   0,0335612	58,6	   0,0306504	58,8
     154,751	   0,0342036	56,8	   0,0313261	57,2
      154,78	   0,0351324	56,7	   0,0314288	57,4
     154,809	   0,0359322	56,1	   0,0313019	56,6
     154,839	   0,0353424	59,2	   0,0312685	60,6
     154,868	    0,035235	57,8	   0,0314549	59,1
     154,897	   0,0359908	58,0	   0,0324399	58,6
     154,927	   0,0369307	56,7	   0,0330278	58,0
     154,956	   0,0372057	55,4	   0,0331122	56,1
     154,985	   0,0373002	58,4	   0,0332379	54,0
     155,015	   0,0372385	56,5	   0,0326423	56,2
     155,044	   0,0368753	60,2	   0,0328252	55,0
     155,073	   0,0371396	58,7	   0,0332521	58,6
     155,103	    0,037889	58,4	   0,0343318	58,3
     155,132	   0,0381004	59,8	   0,0350138	60,2
     155,161	   0,0384853	60,9	   0,0349156	58,8
     155,191	   0,0398352	57,7	   0,0350031	57,5
      155,22	   0,0402034	57,4	   0,0354746	56,2
     155,249	   0,0398381	57,0	   0,0358684	56,6
     155,279	     0,04042	59,9	   0,0354868	56,5
     155,308	   0,0405397	59,4	   0,0353849	58,0
     155,337	   0,0406898	58,4	     0,03575	57,9
     155,367	   0,0415595	57,7	   0,0366871	58,3
     155,396	   0,0411572	57,3	   0,0368039	56,7
     155,425	   0,0418923	61,0	   0,0364693	59,6
     155,455	   0,0422934	59,7	   0,0374896	58,2
     155,484	   0,0428165	57,9	   0,0382769	58,2
     155,513	    0,043197	59,8	   0,0382767	56,8
     155,543	   0,0434612	58,9	   0,0392605	59,2
     155,572	   0,0441869	58,3	   0,0391444	58,3
     155,601	   0,0444332	60,3	   0,0394667	57,0
      155,63	   0,0449247	61,4	   0,0402789	57,3
      155,66	   0,0455593	56,5	   0,0401509	56,7
     155,689	   0,0466411	56,3	   0,0406994	56,1
     155,718	   0,0464962	58,4	   0,0408342	56,8
     155,748	    0,047186	57,4	     0,04148	57,9
     155,777	   0,0473261	60,6	   0,0421857	58,6
     155,806	   0,0480043	58,4	   0,0422619	56,9
     155,836	   0,0484285	59,9	   0,0429654	57,7
     155,865	   0,0485868	58,0	   0,0427972	56,2
     155,894	   0,0499379	59,4	   0,0436065	57,8
     155,924	   0,0499197	58,4	   0,0437816	57,1
     155,953	   0,0507566	59,5	   0,0438615	56,2
     155,982	   0,0511097	61,8	   0,0445987	58,8
     156,012	   0,0513704	59,5	   0,0454831	59,0
     156,041	   0,0523073	62,8	   0,0458196	58,5
      156,07	   0,0527402	61,9	   0,0466249	57,5
       156,1	   0,0533351	61,5	   0,0470485	60,1
     156,129	   0,0540714	60,0	   0,0469161	58,4
     156,158	   0,0548034	61,6	     0,04832	60,1
     156,188	   0,0555627	61,3	   0,0479448	57,8
     156,217	   0,0562217	60,0	   0,0484397	60,2
     156,246	   0,0563796	60,5	   0,0490895	58,1
     156,276	   0,0578157	58,4	   0,0490105	61,1
     156,305	   0,0581833	57,6	   0,0504938	61,2
     156,334	   0,0585038	57,3	   0,0505549	60,6
     156,364	   0,0582208	60,7	   0,0514369	60,3
     156,393	   0,0602284	59,3	   0,0523013	59,0
     156,422	   0,0607942	61,2	   0,0533514	58,1
     156,452	   0,0624523	61,0	   0,0528405	61,7
     156,481	   0,0626834	58,9	   0,0538252	59,8
      156,51	   0,0635506	60,9	   0,0539706	59,3
      156,54	   0,0641398	60,2	   0,0548611	57,2
     156,569	   0,0650831	61,5	   0,0559071	59,4
     156,598	   0,0654427	63,6	   0,0574545	56,3
     156,628	   0,0665191	61,0	   0,0572028	60,1
     156,657	   0,0676975	59,5	   0,0586583	60,4
     156,686	   0,0688613	61,3	   0,0579592	61,5
     156,716	   0,0700226	58,2	   0,0594315	61,0
     156,745	   0,0705998	62,6	   0,0603538	61,1
     156,774	   0,0715465	64,0	   0,0610678	58,2
     156,804	   0,0726068	63,8	    0,062072	60,6
     156,833	   0,0737255	61,7	   0,0632244	62,8
     156,862	   0,0754974	62,5	   0,0635597	60,9
     156,891	    0,075458	60,8	   0,0639451	58,1
     156,921	   0,0763569	61,2	   0,0656186	59,5
      156,95	   0,0776366	65,4	   0,0662653	59,5
     156,979	   0,0788433	62,8	   0,0672712	59,3
     157,009	    0,080371	58,9	   0,0676711	60,1
     157,038	   0,0815987	61,7	     0,06924	60,0
     157,067	   0,0823779	62,2	   0,0703307	60,6
     157,097	   0,0841109	61,9	   0,0710601	62,9
     157,126	    0,085498	61,8	   0,0718018	64,1
     157,155	   0,0865084	60,9	   0,0727213	60,1
     157,185	   0,0873866	64,2	   0,0739435	62,2
     157,214	    0,088432	66,6	   0,0748101	60,6
     157,243	   0,0906975	63,8	   0,0762228	64,2
     157,273	   0,0912722	63,9	   0,0772559	61,9
     157,302	   0,0935977	65,7	   0,0792783	62,0
     157,331	   0,0948406	65,1	   0,0796053	61,4
     157,361	   0,0966222	65,2	   0,0813932	61,6
      157,39	   0,0976967	66,6	   0,0821786	61,4
     157,419	   0,0997271	62,7	   0,0825224	59,9
     157,449	    0,100216	62,2	   0,0860497	63,1
     157,478	    0,102262	63,2	   0,0865594	62,7
     157,507	    0,103184	64,3	   0,0870471	61,8
     157,537	    0,105842	66,2	   0,0894803	62,6
     157,566	    0,107511	64,3	   0,0895784	63,2
     157,595	     0,10774	64,8	   0,0911981	64,9
     157,625	    0,110318	63,5	   0,0939363	62,6
     157,654	    0,111277	66,3	   0,0944336	63,3
     157,683	    0,113304	67,0	   0,0965843	63,5
     157,713	    0,116423	65,9	   0,0982035	61,8
     157,742	    0,116256	65,7	   0,0993008	64,6
     157,771	    0,118482	68,2	    0,101051	64,2
     157,801	    0,120441	63,7	    0,101703	63,1
      157,83	     0,12181	66,3	    0,103859	64,9
     157,859	    0,123107	68,6	     0,10601	62,7
     157,889	    0,125818	66,3	    0,107992	63,6
     157,918	    0,127348	67,1	    0,109559	65,5
     157,947	    0,129042	68,3	    0,111053	66,2
     157,977	     0,13108	65,8	    0,112541	64,2
     158,006	    0,132194	68,0	    0,114983	64,7
     158,035	    0,134547	66,2	    0,116413	63,1
     158,065	    0,136352	66,5	    0,118022	65,1
     158,094	    0,138285	65,6	    0,120421	64,6
     158,123	    0,138674	67,4	    0,122037	65,3
     158,152	    0,142403	66,0	    0,123868	65,4
     158,182	     0,14307	67,5	    0,125593	63,5
     158,211	    0,145868	68,5	    0,127317	67,4
      158,24	    0,147531	68,1	    0,128893	64,8
      158,27	    0,149022	68,3	    0,130901	65,0
     158,299	    0,150908	66,7	    0,133076	65,2
     158,328	    0,154151	69,8	    0,134764	66,1
     158,358	    0,155078	69,2	    0,135915	66,7
     158,387	    0,156953	70,0	     0,13867	68,1
     158,416	    0,158303	71,4	    0,139653	68,1
     158,446	     0,15928	69,5	    0,141587	64,6
     158,475	    0,161595	67,6	    0,144379	69,2
     158,504	    0,163594	70,2	    0,146214	66,4
     158,534	    0,165933	67,4	    0,146836	69,3
     158,563	    0,166952	73,9	    0,150071	67,6
     158,592	    0,168469	71,6	    0,151638	67,6
     158,622	    0,169864	71,8	    0,153202	66,8
     158,651	    0,172939	70,4	    0,154366	70,5
      158,68	    0,174458	71,7	    0,157964	65,8
      158,71	    0,176809	70,4	    0,158975	67,2
     158,739	    0,177898	71,4	    0,161596	65,0
     158,768	    0,179473	71,5	    0,162255	68,9
     158,798	    0,180858	74,0	    0,165014	69,4
     158,827	    0,184048	71,7	    0,165424	68,6
     158,856	    0,185424	72,1	      0,1685	67,0
     158,886	    0,186494	72,7	    0,169898	68,7
     158,915	    0,188886	70,3	    0,172077	71,3
     158,944	    0,189686	75,8	    0,173356	72,1
     158,974	    0,192214	73,3	    0,175093	69,0
     159,003	    0,193693	74,0	    0,177884	67,0
     159,032	    0,194946	73,4	    0,178958	72,2
     159,062	    0,198093	72,6	    0,181013	70,9
     159,091	    0,198456	73,9	    0,182539	72,7
      159,12	      0,2009	74,6	    0,184924	72,5
      159,15	    0,202185	73,9	    0,185961	68,5
     159,179	    0,204656	72,4	     0,18763	72,0
     159,208	    0,205415	74,2	    0,190392	68,9
     159,238	    0,207876	72,9	    0,191694	71,4
     159,267	    0,209453	71,1	    0,194209	73,7
     159,296	    0,210624	73,9	    0,194578	70,1
     159,326	    0,211849	73,0	    0,196807	72,4
     159,355	    0,213984	75,0	    0,198179	72,0
     159,384	    0,215997	74,7	    0,200304	72,0
     159,413	    0,217521	75,0	    0,201659	73,4
     159,443	      0,2194	72,9	    0,203968	71,1
     159,472	    0,220459	76,3	    0,204929	73,5
     159,501	    0,222818	73,0	    0,206982	74,2
     159,531	    0,224528	74,0	    0,208977	70,9
      159,56	    0,224673	76,8	    0,210031	74,4
     159,589	    0,227837	74,4	    0,211889	74,5
     159,619	    0,228465	75,5	     0,21451	70,8
     159,648	    0,231089	74,7	    0,215848	74,9
     159,677	     0,23075	73,3	    0,216943	75,2
     159,707	    0,233862	75,9	    0,218939	71,1
     159,736	    0,234799	76,2	    0,220233	75,4
     159,765	     0,23606	77,1	     0,22169	73,3
     159,795	    0,237698	78,0	    0,224302	71,4
     159,824	    0,240154	74,8	    0,224172	76,4
     159,853	    0,240623	79,7	    0,226181	75,6
     159,883	    0,242912	77,1	    0,228433	73,7
     159,912	    0,243829	76,5	    0,229349	73,9
     159,941	    0,245906	76,9	     0,23213	77,4
     159,971	    0,247155	78,8	    0,231726	77,1
         160	    0,248909	78,4	    0,236065	76,3
     160,029	    0,250222	77,0	    0,233196	74,7
     160,059	    0,252289	78,3	    0,240621	82,0
     160,088	    0,253919	77,9	    0,213565	139,5
     160,117	    0,254707	78,1	    0,188488	190,8
     160,147	    0,256251	76,9	    0,177694	-151,9
     160,176	     0,25774	78,1	    0,169789	-144,4
     160,205	    0,259175	78,4	    0,161302	-145,1
     160,235	    0,259767	81,2	    0,153348	-144,8
     160,264	    0,262106	78,3	    0,146349	-143,9
     160,293	    0,263721	78,2	    0,139493	-140,3
     160,323	    0,264941	77,2	    0,133689	-140,5
     160,352	    0,266504	80,1	    0,128528	-140,3
     160,381	    0,267473	77,5	     0,12318	-139,0
     160,411	    0,268508	81,4	    0,118296	-138,0
      160,44	    0,270587	78,6	    0,114034	-136,8
     160,469	    0,271714	77,3	    0,110146	-133,0
     160,499	    0,273283	78,4	    0,106025	-135,3
     160,528	    0,274529	78,2	    0,102222	-138,0
     160,557	     0,27583	82,0	    0,099244	-134,4
     160,587	    0,277676	80,6	   0,0955562	-134,9
     160,616	    0,278057	82,4	   0,0935559	-134,8
     160,645	    0,278989	80,9	   0,0923229	-133,5
     160,674	    0,281239	81,4	    0,091159	-133,0
     160,704	    0,282233	80,5	   0,0888816	-132,3
     160,733	    0,284034	79,3	    0,086695	-134,1
     160,762	    0,284849	79,9	   0,0837259	-135,4
     160,792	    0,286434	81,8	   0,0815695	-133,6
     160,821	    0,287983	78,6	   0,0797023	-131,1
      160,85	     0,28938	81,7	   0,0787309	-132,0
      160,88	    0,290491	82,1	   0,0783635	-131,0
     160,909	    0,291838	82,9	    0,077057	-132,1
     160,938	    0,292808	81,3	   0,0759121	-130,6
     160,968	    0,293763	81,7	   0,0748659	-129,2
     160,997	    0,296163	79,5	    0,073464	-134,7
     161,026	    0,296978	78,9	   0,0726053	-134,1
     161,056	    0,299318	79,3	   0,0710481	-131,5
     161,085	    0,300321	81,6	    0,069625	-133,6
     161,114	     0,30015	81,6	   0,0693615	-132,6
     161,144	    0,302589	82,0	    0,067433	-133,2
     161,173	    0,303125	83,1	   0,0668478	-133,8
     161,202	    0,304727	80,9	    0,066191	-131,1
     161,232	    0,305495	82,8	   0,0645321	-132,7
     161,261	    0,306953	80,5	   0,0633172	-128,3
      161,29	    0,308438	85,0	    0,063244	-129,2
      161,32	    0,309338	82,5	    0,062821	-127,9
     161,349	    0,310167	85,1	   0,0610797	-129,0
     161,378	    0,312058	86,0	   0,0616304	-130,6
     161,408	    0,312981	83,5	   0,0609086	-128,1
     161,437	    0,313978	83,1	   0,0580514	-129,8
     161,466	     0,31596	83,1	   0,0587807	-128,3
     161,496	    0,316275	82,3	   0,0587385	-126,2
     161,525	    0,318435	84,5	    0,056385	-130,7
     161,554	    0,318901	84,1	   0,0563085	-126,8
     161,584	    0,320745	84,8	   0,0573742	-129,4
     161,613	    0,321976	83,6	   0,0553354	-129,9
     161,642	    0,322863	85,1	   0,0542477	-130,4
     161,672	    0,324789	83,0	   0,0541974	-133,1
     161,701	    0,325748	82,3	   0,0533643	-128,5
      161,73	    0,326622	84,1	   0,0536539	-130,9
      161,76	    0,328005	83,2	   0,0525814	-131,6
     161,789	    0,328879	85,5	   0,0516397	-130,8
     161,818	    0,330748	83,3	   0,0515859	-130,1
     161,848	    0,330883	85,0	   0,0497304	-133,2
     161,877	    0,333086	84,0	   0,0499936	-130,9
     161,906	    0,333287	86,7	   0,0496374	-132,4
     161,935	    0,335225	87,1	   0,0487552	-131,7
     161,965	    0,336819	85,6	    0,049579	-130,3
     161,994	     0,33666	85,7	   0,0476552	-130,1
     162,023	    0,338063	82,9	   0,0482103	-125,5
     162,053	    0,339946	81,8	   0,0468859	-131,5
     162,082	    0,340614	86,0	   0,0469305	-127,0
     162,111	    0,342162	86,4	   0,0464453	-129,9
     162,141	     0,34274	86,3	   0,0462825	-130,5
      162,17	    0,344139	86,3	   0,0454247	-132,2
     162,199	    0,344979	85,6	   0,0457385	-132,2
     162,229	    0,346243	87,6	   0,0445463	-127,4
     162,258	    0,347512	85,6	   0,0444358	-126,2
     162,287	    0,349098	85,8	    0,044297	-125,4
     162,317	      0,3499	88,8	   0,0431682	-129,0
     162,346	    0,350823	87,0	   0,0438864	-130,5
     162,375	    0,352749	85,0	   0,0433254	-132,4
     162,405	    0,352891	86,0	   0,0423794	-128,8
     162,434	    0,354445	84,8	   0,0431799	-127,5
     162,463	    0,355442	84,7	   0,0420649	-127,9
     162,493	    0,356798	85,0	   0,0421549	-128,0
     162,522	    0,357751	85,8	   0,0418102	-128,7
     162,551	    0,358697	86,4	   0,0411081	-128,8
     162,581	     0,36038	86,5	   0,0407964	-129,3
      162,61	    0,360813	85,3	   0,0407259	-131,4
     162,639	    0,362784	87,0	   0,0401211	-131,5
     162,669	    0,362787	89,6	    0,039525	-128,6
     162,698	     0,36486	88,8	   0,0393677	-128,0
     162,727	    0,365443	86,0	   0,0390001	-127,1
     162,757	    0,366791	87,7	   0,0390957	-128,1
     162,786	     0,36762	87,7	   0,0382694	-129,0
     162,815	    0,368773	87,0	   0,0377836	-129,7
     162,845	    0,369836	85,8	   0,0379017	-129,3
     162,874	    0,371561	87,1	   0,0382683	-128,1
     162,903	    0,372249	87,8	   0,0378804	-129,1
     162,933	    0,373614	87,8	   0,0377332	-128,6
     162,962	    0,374153	90,5	   0,0372752	-127,4
     162,991	    0,375444	88,7	   0,0367161	-126,8
     163,021	    0,376331	90,3	   0,0363309	-127,9
      163,05	    0,377314	87,0	   0,0361936	-127,9
     163,079	    0,378792	88,4	   0,0361418	-126,5
     163,109	    0,379275	87,3	   0,0356149	-128,8
     163,138	    0,381317	89,1	    0,035503	-129,1
     163,167	    0,381866	86,9	   0,0356879	-128,6
     163,196	    0,382988	85,4	   0,0350093	-127,0
     163,226	    0,383531	89,1	   0,0349384	-129,7
     163,255	    0,385635	86,9	   0,0346345	-125,9
     163,284	    0,385922	89,8	   0,0343844	-128,5
     163,314	    0,386922	89,0	   0,0342143	-129,2
     163,343	    0,388002	88,6	   0,0335504	-127,4
     163,372	    0,389656	92,7	   0,0342498	-125,0
     163,402	    0,390156	90,7	    0,033114	-129,3
     163,431	    0,391346	89,8	   0,0334478	-126,5
      163,46	    0,392661	92,8	   0,0330088	-126,2
      163,49	    0,393905	88,6	   0,0331812	-128,7
     163,519	    0,394721	86,3	   0,0332517	-127,4
     163,548	    0,395512	90,2	    0,031803	-128,5
     163,578	    0,396417	89,5	   0,0320873	-128,8
     163,607	    0,398089	90,6	   0,0326539	-127,4
     163,636	     0,39845	92,2	   0,0315977	-131,2
     163,666	    0,399606	90,0	   0,0315788	-126,7
     163,695	    0,401362	89,3	   0,0315204	-128,8
     163,724	    0,401853	88,0	   0,0312445	-128,7
     163,754	    0,402544	90,6	   0,0312464	-126,0
     163,783	    0,404002	91,0	   0,0310586	-129,5
     163,812	    0,405208	88,8	   0,0304809	-125,7
     163,842	    0,406066	90,9	    0,030409	-128,3
     163,871	    0,406842	91,0	   0,0304395	-127,8
       163,9	    0,408009	91,7	   0,0305795	-126,1
      163,93	    0,409631	88,6	   0,0301567	-129,5
     163,959	    0,409992	92,2	     0,02964	-128,7
     163,988	    0,410755	91,0	   0,0298574	-128,3
     164,018	    0,411638	89,7	    0,029724	-125,1
     164,047	    0,412756	92,1	    0,029229	-130,0
     164,076	    0,414258	90,5	   0,0293296	-127,4
     164,106	    0,415484	88,7	   0,0294454	-129,6
     164,135	    0,416292	90,8	   0,0293078	-127,6
     164,164	    0,416799	91,7	   0,0288431	-122,9
     164,194	    0,417839	90,0	   0,0283522	-129,2
     164,223	    0,418767	90,8	   0,0284228	-125,5
     164,252	    0,419926	92,2	   0,0283355	-126,6
     164,282	     0,42147	93,6	   0,0284824	-126,2
     164,311	    0,422413	92,5	   0,0275907	-129,8
      164,34	    0,422916	94,7	   0,0275187	-129,6
      164,37	    0,424568	92,2	     0,02749	-125,7
     164,399	    0,424976	91,4	   0,0278015	-129,5
     164,428	    0,426824	89,5	   0,0275165	-127,1
     164,457	    0,426981	92,3	   0,0272205	-130,5
     164,487	    0,428426	91,8	    0,026933	-125,3
     164,516	    0,428793	92,9	   0,0269168	-125,9
     164,545	    0,430479	92,7	   0,0273581	-126,3
     164,575	    0,431865	92,4	   0,0273592	-128,7
     164,604	    0,431965	93,3	   0,0270866	-126,7
     164,633	     0,43312	92,7	   0,0260849	-129,6
     164,663	    0,433901	92,3	   0,0262055	-127,2
     164,692	    0,435474	93,7	   0,0260253	-127,9
     164,721	    0,436191	93,2	   0,0260593	-126,9
     164,751	    0,436737	94,2	   0,0259381	-127,3
      164,78	    0,437594	92,8	   0,0252465	-128,7
     164,809	    0,439212	95,5	   0,0251318	-124,9
     164,839	    0,440296	91,7	   0,0251726	-127,4
     164,868	    0,441023	93,1	   0,0255446	-127,9
     164,897	    0,441549	94,5	   0,0253803	-127,2
     164,927	    0,443893	91,6	   0,0255498	-128,3
     164,956	     0,44356	94,4	   0,0252409	-129,6
     164,985	    0,445449	96,9	   0,0250496	-129,4
     165,015	    0,445413	94,3	   0,0251895	-127,5
     165,044	    0,446952	94,6	   0,0254825	-126,5
     165,073	    0,448043	92,6	   0,0248524	-129,3
     165,103	    0,448438	95,0	   0,0246876	-129,4
     165,132	    0,448862	96,3	   0,0242999	-126,7
     165,161	    0,450941	93,8	   0,0241765	-128,1
     165,191	    0,452061	91,6	   0,0241936	-126,5
      165,22	    0,452243	96,3	   0,0241492	-127,3
     165,249	    0,453603	94,3	   0,0238978	-126,1
     165,279	    0,454781	93,7	    0,023884	-125,6
     165,308	    0,455691	93,7	   0,0235987	-129,4
     165,337	     0,45653	94,9	   0,0238243	-130,4
     165,367	    0,457048	94,9	    0,023767	-128,3
     165,396	    0,458434	97,6	    0,024037	-127,6
     165,425	    0,458997	97,3	    0,023359	-127,5
     165,455	    0,459745	97,7	   0,0232613	-125,9
     165,484	    0,460642	96,5	   0,0229311	-125,6
     165,513	     0,46178	95,9	   0,0227417	-126,7
     165,543	    0,463352	96,2	    0,023215	-130,3
     165,572	    0,464467	95,4	   0,0230086	-127,4
     165,601	    0,465207	95,7	   0,0231943	-127,6
      165,63	    0,465574	98,1	   0,0230161	-128,2
      165,66	    0,466485	95,3	    0,022803	-126,8
     165,689	    0,467812	95,0	   0,0230426	-128,3
     165,718	    0,468324	100,1	   0,0234495	-125,7
     165,748	    0,469372	96,7	   0,0229501	-129,8
     165,777	    0,470261	96,8	   0,0224236	-128,4
     165,806	    0,471772	99,0	   0,0220634	-128,4
     165,836	    0,472677	95,3	   0,0222792	-126,0
     165,865	    0,473067	98,9	   0,0223449	-126,8
     165,894	    0,474212	98,5	    0,022447	-129,6
     165,924	    0,474695	95,8	   0,0225205	-126,3
     165,953	    0,475405	95,8	   0,0222455	-125,8
     165,982	    0,476229	96,5	   0,0218448	-128,4
     166,012	    0,477354	99,4	   0,0223035	-127,7
     166,041	    0,478629	98,5	   0,0218846	-130,8
      166,07	    0,479053	100,5	   0,0214253	-133,0
       166,1	    0,480315	96,5	    0,021718	-128,6
     166,129	     0,48158	96,2	   0,0214466	-124,1
     166,158	     0,48174	97,5	   0,0217081	-126,0
     166,188	    0,482398	97,2	   0,0209943	-129,0
     166,217	    0,483809	96,4	   0,0212949	-128,1
     166,246	    0,485166	97,0	   0,0210548	-126,8
     166,276	    0,485262	95,3	   0,0208873	-125,3
     166,305	    0,486465	98,7	   0,0213442	-123,1
     166,334	    0,487074	99,6	     0,02128	-125,4
     166,364	    0,488229	98,5	    0,021332	-128,0
     166,393	    0,489248	100,8	   0,0211816	-125,5
     166,422	    0,490361	101,0	   0,0213646	-131,1
     166,452	    0,491593	97,8	   0,0208008	-127,3
     166,481	    0,491858	100,8	   0,0206193	-124,1
      166,51	    0,492679	98,1	   0,0207472	-126,7
      166,54	    0,493556	96,6	    0,020558	-128,2
     166,569	    0,494427	98,9	   0,0204548	-123,7
     166,598	    0,496062	97,5	   0,0207032	-127,1
     166,628	    0,496449	98,4	    0,020194	-127,8
     166,657	    0,497599	98,5	   0,0198922	-128,9
     166,686	    0,498654	99,1	     0,01971	-129,9
     166,716	    0,499194	102,1	   0,0196594	-128,3
     166,745	    0,500706	99,6	   0,0196638	-128,9
     166,774	    0,501315	99,5	   0,0197209	-126,8
     166,804	    0,501946	103,4	   0,0201327	-126,4
     166,833	    0,502936	96,9	   0,0199457	-129,1
     166,862	    0,504059	99,4	   0,0198082	-129,6
     166,891	    0,504729	102,7	   0,0198871	-128,2
     166,921	    0,505358	101,7	   0,0197075	-128,1
      166,95	    0,506199	97,9	    0,019816	-126,7
     166,979	    0,507273	99,9	   0,0197061	-125,6
     167,009	    0,508188	100,8	   0,0196648	-122,2
     167,038	    0,509509	99,5	   0,0193052	-123,8
     167,067	    0,510451	96,3	   0,0192184	-126,9
     167,097	    0,510809	97,7	   0,0194208	-128,1
     167,126	    0,511651	100,0	   0,0190041	-126,9
     167,155	    0,512248	99,2	   0,0188855	-126,6
     167,185	    0,512906	100,6	   0,0190729	-125,3
     167,214	    0,514123	101,5	    0,019313	-127,0
     167,243	    0,514998	104,2	   0,0188208	-128,5
     167,273	    0,516361	102,3	   0,0191061	-127,0
     167,302	     0,51729	102,6	   0,0188036	-130,2
     167,331	    0,517309	103,4	   0,0187875	-123,4
     167,361	    0,518836	102,4	   0,0192241	-123,7
      167,39	     0,51972	100,5	   0,0184655	-125,2
     167,419	    0,520394	102,9	   0,0185824	-127,7
     167,449	    0,521761	101,1	   0,0186437	-128,7
     167,478	    0,522492	101,2	   0,0182895	-129,2
     167,507	    0,523366	100,9	   0,0178194	-128,0
     167,537	    0,524219	100,4	   0,0183159	-126,3
     167,566	    0,525127	98,6	   0,0181964	-127,1
     167,595	    0,525755	101,9	   0,0179684	-126,8
     167,625	    0,526809	98,0	   0,0180266	-129,2
     167,654	    0,527786	100,3	   0,0183408	-123,8
     167,683	    0,528219	102,3	   0,0181057	-129,1
     167,713	    0,529438	102,6	   0,0179825	-126,6
     167,742	    0,530133	103,1	   0,0177841	-125,2
     167,771	    0,531449	102,2	    0,018065	-128,9
     167,801	    0,531869	100,8	   0,0176723	-130,4
      167,83	    0,532341	101,6	   0,0174767	-127,2
     167,859	    0,533128	100,3	   0,0176371	-126,6
     167,889	     0,53433	99,0	   0,0176514	-128,3
     167,918	    0,535357	103,0	   0,0175507	-126,7
     167,947	    0,536613	102,7	   0,0174691	-126,2
     167,977	     0,53717	103,6	   0,0176638	-127,9
     168,006	     0,53818	103,0	   0,0173682	-128,8
     168,035	    0,538284	103,9	   0,0175738	-129,0
     168,065	    0,539398	101,1	   0,0174541	-126,5
     168,094	    0,539827	103,2	   0,0168666	-125,9
     168,123	    0,540907	101,8	    0,017025	-124,2
     168,152	    0,541678	105,0	    0,017353	-125,5
     168,182	    0,543156	102,5	   0,0170333	-127,9
     168,211	    0,543485	101,9	   0,0171416	-128,9
      168,24	    0,544935	100,4	   0,0166383	-126,5
      168,27	    0,545661	103,8	   0,0171517	-125,6
     168,299	    0,546718	102,8	   0,0169563	-126,1
     168,328	    0,547265	101,7	   0,0163805	-130,4
     168,358	    0,547804	104,0	   0,0167346	-128,6
     168,387	    0,548406	106,5	   0,0167083	-127,3
     168,416	    0,550066	104,9	   0,0167062	-126,0
     168,446	    0,550726	104,0	   0,0166676	-124,1
     168,475	    0,552041	102,0	   0,0162359	-127,6
     168,504	    0,552716	101,5	   0,0164777	-129,8
     168,534	    0,552713	107,2	   0,0168284	-123,4
     168,563	      0,5536	108,2	     0,01644	-126,9
     168,592	    0,554818	108,2	   0,0163509	-125,9
     168,622	    0,555968	105,9	   0,0162242	-131,4
     168,651	    0,556782	104,3	   0,0162288	-128,3
      168,68	     0,55737	107,6	   0,0159581	-127,4
      168,71	    0,557873	103,9	   0,0160436	-129,3
     168,739	    0,558967	104,4	   0,0163072	-128,3
     168,768	    0,559719	103,6	   0,0159348	-127,8
     168,798	    0,560736	103,8	   0,0160523	-130,8
     168,827	    0,561951	106,1	   0,0159649	-125,8
     168,856	    0,562076	105,0	   0,0158971	-125,1
     168,886	     0,56316	105,7	   0,0159302	-125,6
     168,915	    0,563497	105,5	   0,0161207	-127,6
     168,944	    0,564319	106,9	   0,0160907	-126,3
     168,974	    0,565119	107,2	   0,0159107	-126,8
     169,003	    0,565734	104,1	    0,015795	-128,4
     169,032	    0,566988	109,0	   0,0154088	-128,6
     169,062	    0,567817	105,8	   0,0155696	-126,2
     169,091	    0,569008	107,4	   0,0156209	-130,6
      169,12	    0,569606	107,9	   0,0154761	-127,3
      169,15	    0,570457	105,8	   0,0153394	-130,0
     169,179	    0,571187	107,6	   0,0159404	-128,3
     169,208	    0,571809	109,3	   0,0152923	-125,7
     169,238	    0,573152	106,2	   0,0158179	-125,1
     169,267	    0,573824	104,8	   0,0155972	-125,0
     169,296	    0,574971	106,5	    0,015507	-128,0
     169,326	    0,575433	106,8	   0,0156542	-130,0
     169,355	    0,576214	107,7	   0,0152862	-128,2
     169,384	    0,577161	102,4	   0,0155066	-127,3
     169,413	    0,578049	109,1	   0,0152249	-130,1
     169,443	    0,578463	105,4	   0,0151779	-128,3
     169,472	    0,579506	107,2	   0,0152454	-128,8
     169,501	    0,579873	108,4	   0,0150134	-124,1
     169,531	    0,580704	104,9	   0,0151475	-128,3
      169,56	    0,581991	108,6	   0,0151245	-126,1
     169,589	    0,582565	109,2	   0,0150593	-127,0
     169,619	    0,583688	107,0	   0,0148799	-128,3
     169,648	     0,58412	106,3	    0,014778	-124,8
     169,677	    0,585898	105,6	   0,0152467	-125,1
     169,707	    0,585934	110,1	   0,0150026	-127,5
     169,736	    0,586978	107,8	   0,0146384	-132,3
     169,765	     0,58792	108,7	   0,0151191	-126,0
     169,795	    0,588082	110,4	   0,0149002	-126,0
     169,824	    0,589188	108,6	   0,0146737	-132,7
     169,853	    0,590532	106,9	   0,0146807	-131,2
     169,883	    0,590743	107,3	   0,0147649	-127,8
     169,912	    0,591312	107,0	   0,0144891	-123,7
     169,941	    0,591794	110,2	   0,0143387	-129,1
     169,971	    0,592785	110,9	   0,0147068	-124,9
         170	    0,593905	109,6	   0,0149231	-126,0
     170,029	    0,594693	108,7	   0,0143619	-127,1
     170,059	    0,595378	108,0	   0,0142118	-126,1
     170,088	    0,596398	111,1	   0,0143297	-129,2
     170,117	    0,597401	106,1	   0,0146549	-124,5
     170,147	    0,598042	112,2	   0,0141686	-129,6
     170,176	    0,598921	108,8	   0,0139765	-128,1
     170,205	    0,599416	109,4	   0,0140854	-131,6
     170,235	    0,600887	109,0	   0,0139817	-125,1
     170,264	      0,6014	111,0	   0,0141864	-128,6
     170,293	    0,601935	108,6	   0,0142189	-126,8
     170,323	    0,603203	110,2	   0,0140569	-124,5
     170,352	      0,6037	112,6	   0,0139329	-132,1
     170,381	    0,604612	110,1	   0,0142849	-129,1
     170,411	    0,605253	110,3	   0,0138788	-128,9
      170,44	    0,606004	109,5	   0,0140528	-128,0
     170,469	    0,607112	110,3	   0,0137188	-129,4
     170,499	    0,607801	111,5	   0,0138601	-126,7
     170,528	    0,608237	111,1	   0,0137839	-128,8
     170,557	    0,609115	112,0	   0,0139398	-128,9
     170,587	    0,610156	108,8	   0,0137344	-126,1
     170,616	    0,611217	108,6	   0,0136815	-128,4
     170,645	    0,612303	108,0	   0,0137566	-124,9
     170,674	     0,61244	109,6	   0,0134863	-128,4
     170,704	     0,61339	113,4	   0,0134358	-130,3
     170,733	    0,614542	109,1	   0,0132362	-124,7
     170,762	    0,614793	112,4	   0,0133524	-130,9
     170,792	    0,615746	114,5	   0,0137513	-124,4
     170,821	    0,616327	113,4	   0,0134257	-126,8
      170,85	    0,617082	111,4	   0,0135713	-124,0
      170,88	    0,617369	116,0	   0,0137053	-127,4
     170,909	    0,618616	115,6	   0,0135701	-125,4
     170,938	    0,619861	113,6	    0,013576	-125,6
     170,968	    0,620408	110,3	    0,013586	-132,0
     170,997	     0,62121	113,9	   0,0133087	-124,2
     171,026	    0,621967	112,4	   0,0135353	-128,4
     171,056	    0,622469	109,8	   0,0131078	-129,2
     171,085	    0,623785	112,2	   0,0133063	-125,0
     171,114	    0,624031	115,0	   0,0131118	-126,6
     171,144	    0,625316	112,4	   0,0132171	-126,8
     171,173	    0,625682	113,4	   0,0132541	-124,8
     171,202	    0,627046	113,1	   0,0130793	-126,3
     171,232	    0,627514	109,2	   0,0129774	-128,5
     171,261	    0,628504	113,6	   0,0129722	-126,2
      171,29	    0,629408	113,1	   0,0131096	-128,0
      171,32	    0,630003	113,4	   0,0130147	-124,6
     171,349	    0,630737	112,3	   0,0130256	-127,7
     171,378	    0,631958	110,2	   0,0132298	-127,1
     171,408	    0,632385	115,8	   0,0129573	-126,4
     171,437	    0,633247	112,8	   0,0130528	-126,6
     171,466	    0,633622	112,5	   0,0128709	-126,8
     171,496	    0,634713	115,1	   0,0128834	-128,3
     171,525	     0,63504	115,3	    0,012934	-124,3
     171,554	    0,636109	113,1	   0,0132362	-124,7
     171,584	    0,637156	111,1	   0,0129439	-129,6
     171,613	    0,638124	113,2	   0,0127042	-128,8
     171,642	    0,638708	115,9	   0,0127693	-122,8
     171,672	    0,639378	116,7	   0,0128133	-126,7
     171,701	    0,639949	111,8	   0,0131305	-123,5
      171,73	    0,641112	114,4	   0,0130712	-128,3
      171,76	    0,641708	115,5	    0,012935	-125,0
     171,789	    0,642905	114,0	   0,0126138	-130,5
     171,818	    0,643537	113,4	   0,0126978	-127,5
     171,848	    0,644127	115,1	   0,0122936	-132,6
     171,877	    0,644519	114,1	   0,0123099	-132,1
     171,906	    0,645606	114,0	   0,0125503	-124,0
     171,935	    0,646063	117,4	   0,0127663	-129,0
     171,965	    0,646936	118,3	   0,0125554	-127,2
     171,994	    0,647534	115,6	   0,0123862	-124,6
     172,023	    0,648655	118,0	   0,0126374	-123,2
     172,053	    0,649637	115,1	   0,0123931	-130,5
     172,082	    0,650049	114,4	   0,0124006	-130,1
     172,111	    0,651238	113,6	   0,0122995	-128,1
     172,141	    0,651545	118,3	   0,0123481	-125,8
      172,17	    0,652616	114,6	   0,0126304	-123,9
     172,199	    0,654103	112,4	    0,012263	-130,8
     172,229	    0,654878	114,0	   0,0119533	-129,6
     172,258	    0,655095	116,7	   0,0124043	-124,4
     172,287	    0,655866	119,8	   0,0122568	-125,7
     172,317	     0,65684	114,3	   0,0120188	-127,8
     172,346	    0,657051	114,1	    0,011815	-128,5
     172,375	    0,658245	114,3	   0,0121372	-127,7
     172,405	    0,658903	118,4	    0,012294	-124,2
     172,434	     0,65979	113,4	   0,0119259	-130,9
     172,463	    0,660679	116,6	   0,0121691	-130,9
     172,493	    0,661636	113,1	   0,0121882	-129,6
     172,522	    0,661799	117,3	   0,0122162	-124,4
     172,551	    0,662917	112,6	   0,0121748	-127,5
     172,581	    0,663361	114,1	   0,0119136	-125,1
      172,61	    0,664371	118,8	   0,0118627	-126,0
     172,639	    0,665217	112,7	   0,0121723	-126,5
     172,669	    0,665787	119,6	   0,0121923	-128,1
     172,698	    0,667137	116,3	   0,0115333	-127,1
     172,727	      0,6674	116,2	   0,0120682	-127,6
     172,757	    0,668481	118,8	    0,011724	-129,1
     172,786	    0,669206	117,1	   0,0118161	-130,8
     172,815	    0,670479	116,8	   0,0118391	-127,4
     172,845	    0,670861	120,3	   0,0116205	-129,8
     172,874	    0,671637	118,2	   0,0119915	-126,6
     172,903	    0,672236	118,5	   0,0118768	-126,6
     172,933	    0,673099	118,3	   0,0118699	-123,5
     172,962	    0,673012	119,3	   0,0119175	-125,4
     172,991	    0,674265	117,7	   0,0114794	-131,6
     173,021	    0,675444	118,3	   0,0116532	-126,1
      173,05	    0,676199	117,0	    0,011537	-125,7
     173,079	    0,676528	117,2	    0,011628	-122,6
     173,109	    0,677032	122,1	   0,0117282	-124,9
     173,138	    0,677793	117,0	   0,0119747	-124,9
     173,167	    0,678773	121,0	   0,0116827	-128,3
     173,196	    0,679429	122,0	   0,0115392	-127,3
     173,226	    0,680138	121,3	   0,0118591	-124,6
     173,255	    0,681171	120,4	   0,0119329	-126,1
     173,284	    0,681875	119,3	   0,0115906	-126,9
     173,314	    0,682779	119,1	   0,0115663	-124,6
     173,343	    0,684243	118,0	   0,0113956	-127,6
     173,372	    0,684541	123,0	   0,0113107	-127,2
     173,402	    0,685084	119,0	   0,0112211	-124,7
     173,431	    0,685256	123,9	   0,0113842	-124,4
      173,46	    0,686107	126,7	    0,011132	-124,8
      173,49	    0,687225	121,7	   0,0113402	-123,7
     173,519	    0,687875	122,8	   0,0112253	-130,0
     173,548	    0,688873	122,2	   0,0115615	-122,6
     173,578	    0,689326	118,8	   0,0111369	-129,6
     173,607	    0,690067	123,0	   0,0112701	-129,5
     173,636	    0,690953	124,4	   0,0114709	-132,0
     173,666	     0,69151	123,5	   0,0113958	-131,9
     173,695	    0,692823	122,4	   0,0118714	-124,6
     173,724	    0,693841	121,6	    0,011381	-129,3
     173,754	    0,694493	120,4	   0,0111912	-124,7
     173,783	    0,695013	121,7	    0,011187	-127,4
     173,812	    0,695809	122,4	   0,0111136	-124,8
     173,842	    0,696967	122,7	   0,0111426	-124,1
     173,871	    0,697581	125,6	    0,011192	-125,6
       173,9	    0,697886	126,7	    0,011161	-129,9
      173,93	    0,698127	127,6	   0,0109371	-127,6
     173,959	    0,699123	120,8	   0,0109988	-128,8
     173,988	    0,700251	121,1	   0,0112363	-129,4
     174,018	    0,701054	121,9	   0,0112109	-130,0
     174,047	    0,700847	125,0	   0,0111256	-128,9
     174,076	    0,702383	123,9	   0,0109907	-125,8
     174,106	    0,703509	124,0	   0,0109323	-127,5
     174,135	    0,703998	125,8	   0,0110413	-127,0
     174,164	    0,704751	127,3	   0,0109966	-129,0
     174,194	    0,704893	124,8	   0,0114733	-122,9
     174,223	     0,70587	122,9	   0,0107594	-126,7
     174,252	    0,706951	126,8	   0,0111371	-127,0
     174,282	     0,70762	126,2	   0,0105598	-124,6
     174,311	    0,707707	124,9	   0,0107351	-128,6
      174,34	     0,70878	123,4	   0,0106577	-129,2
      174,37	    0,709823	127,2	   0,0108397	-124,2
     174,399	    0,710612	124,5	   0,0110968	-126,0
     174,428	    0,711162	124,8	   0,0106048	-126,3
     174,457	    0,711866	127,3	   0,0106379	-127,7
     174,487	    0,712513	124,4	     0,01098	-127,0
     174,516	    0,713387	125,9	    0,010458	-127,5
     174,545	    0,714004	129,2	   0,0104482	-125,4
     174,575	    0,715447	122,5	   0,0108681	-131,2
     174,604	     0,71529	129,5	   0,0107206	-126,0
     174,633	    0,716207	126,4	   0,0106314	-124,6
     174,663	    0,717225	128,1	   0,0108127	-125,6
     174,692	    0,718123	127,4	    0,010573	-128,4
     174,721	    0,718745	126,8	   0,0102942	-123,4
     174,751	    0,719142	127,5	   0,0108643	-128,6
      174,78	    0,720049	128,7	   0,0106503	-130,4
     174,809	    0,721083	127,4	   0,0103988	-126,3
     174,839	    0,721719	124,8	   0,0105743	-124,1
     174,868	    0,722652	126,2	   0,0106256	-126,2
     174,897	    0,723637	127,2	   0,0103609	-125,2
     174,927	    0,724218	127,5	   0,0105263	-124,7
     174,956	    0,724424	130,0	     0,01043	-126,3
     174,985	    0,724787	129,5	   0,0106252	-130,4
     175,015	    0,726848	132,4	   0,0103429	-125,7
     175,044	    0,727302	128,6	   0,0105818	-127,2
     175,073	    0,727642	133,1	   0,0105091	-127,3
     175,103	    0,728164	132,3	    0,010532	-121,3
     175,132	     0,72948	130,4	   0,0105113	-129,0
     175,161	    0,729772	128,1	   0,0103682	-128,7
     175,191	    0,730718	128,2	   0,0106544	-122,1
      175,22	     0,73138	132,6	   0,0105219	-130,5
     175,249	    0,731594	134,1	   0,0102653	-125,2
     175,279	    0,733009	132,0	   0,0106695	-127,2
     175,308	    0,733992	131,2	    0,010567	-126,5
     175,337	    0,734241	131,5	   0,0104578	-124,9
     175,367	    0,735062	133,4	   0,0101071	-127,0
     175,396	    0,736007	137,5	   0,0105651	-128,2
     175,425	    0,736887	132,7	   0,0102705	-126,4
     175,455	    0,737239	133,2	   0,0103628	-127,3
     175,484	    0,737746	133,2	     0,01025	-128,2
     175,513	    0,737972	137,5	   0,0103794	-123,7
     175,543	    0,739492	130,3	   0,0102572	-130,4
     175,572	    0,740788	134,2	   0,0103088	-124,0
     175,601	      0,7412	131,2	   0,0101359	-131,0
      175,63	    0,741432	134,1	   0,0100219	-123,8
      175,66	    0,742797	135,3	   0,0101476	-130,5
     175,689	    0,743747	131,3	   0,0100151	-126,9
     175,718	    0,743658	130,2	   0,0100003	-127,8
     175,748	     0,74415	132,8	  0,00999021	-125,5
     175,777	    0,744416	136,8	  0,00994447	-126,1
     175,806	    0,744999	138,4	   0,0101531	-122,5
     175,836	     0,74612	138,5	   0,0100235	-129,1
     175,865	    0,746873	140,1	   0,0100636	-123,3
     175,894	    0,747249	139,7	  0,00996797	-121,8
     175,924	    0,747923	140,7	  0,00986945	-133,9
     175,953	    0,749179	144,0	  0,00990111	-123,1
     175,982	    0,749545	139,2	   0,0100227	-128,4
     176,012	    0,750571	141,0	  0,00991307	-126,1
     176,041	    0,750429	141,2	   0,0102009	-126,7
      176,07	    0,751439	144,7	    0,010096	-125,8
       176,1	    0,752141	142,4	   0,0097848	-127,2
     176,129	    0,753129	142,3	   0,0100195	-128,0
     176,158	    0,753277	143,0	  0,00984507	-126,6
     176,188	    0,753813	145,6	  0,00983083	-129,6
     176,217	    0,754416	145,7	  0,00974683	-124,7
     176,246	    0,755718	145,3	  0,00962001	-125,6
     176,276	    0,755724	151,5	  0,00990748	-127,7
     176,305	    0,755934	152,2	   0,0100168	-122,5
     176,334	    0,755793	158,1	   0,0100742	-128,8
     176,364	    0,756101	159,2	   0,0101082	-126,6
     176,393	    0,754958	174,4	  0,00991611	-125,8
     176,422	     0,75047	196,2	  0,00982864	-131,0
     176,452	  0,00957126	-131,5	  0,00970737	-123,9
     176,481	  0,00927035	-129,6	  0,00974187	-128,0
      176,51	  0,00974574	-129,0	  0,00998557	-126,8
      176,54	  0,00940701	-124,6	   0,0096755	-126,1
     176,569	  0,00965365	-133,5	  0,00994031	-129,7
     176,598	  0,00970898	-122,3	  0,00978767	-123,1
     176,628	  0,00987854	-128,2	  0,00956257	-127,2
     176,657	  0,00950476	-125,8	  0,00971864	-127,1
     176,686	  0,00969631	-130,1	  0,00972948	-126,5
     176,716	  0,00967867	-126,5	   0,0096914	-125,2
     176,745	  0,00972422	-128,4	  0,00951918	-129,5
     176,774	  0,00944214	-123,2	  0,00973821	-128,8
     176,804	  0,00965095	-131,3	  0,00976389	-127,5
     176,833	   0,0096791	-127,4	  0,00959359	-126,5
     176,862	  0,00928248	-124,8	  0,00934829	-127,3
     176,891	   0,0096757	-130,2	  0,00960446	-129,2
     176,921	  0,00919016	-130,2	  0,00944625	-125,5
      176,95	  0,00947742	-128,1	  0,00953609	-127,7
     176,979	   0,0092015	-125,9	  0,00958149	-128,6
     177,009	   0,0093825	-126,4	  0,00947245	-123,1
     177,038	  0,00941344	-124,6	  0,00949215	-123,4
     177,067	  0,00940371	-121,5	  0,00960966	-127,9
     177,097	  0,00949825	-124,5	  0,00938925	-124,9
     177,126	   0,0094602	-127,8	  0,00934913	-128,1
     177,155	   0,0092283	-124,4	  0,00967323	-128,2
     177,185	   0,0092328	-127,2	  0,00930533	-129,2
     177,214	   0,0093439	-129,1	  0,00969581	-128,5
     177,243	   0,0093285	-124,8	  0,00948269	-128,4
     177,273	  0,00931757	-121,9	  0,00942031	-126,5
     177,302	  0,00952402	-129,0	  0,00930593	-125,9
     177,331	  0,00925767	-128,8	  0,00931309	-124,8
     177,361	  0,00923571	-124,5	  0,00954823	-127,6
      177,39	  0,00951852	-127,7	  0,00941366	-123,4
     177,419	  0,00931864	-124,7	  0,00945404	-129,9
     177,449	  0,00940368	-125,9	  0,00956189	-132,6
     177,478	  0,00942058	-125,2	  0,00943051	-126,7
     177,507	   0,0093113	-126,5	  0,00921396	-125,3
     177,537	  0,00905589	-126,8	  0,00945589	-128,7
     177,566	  0,00931774	-128,2	  0,00933287	-131,7
     177,595	  0,00933165	-132,3	  0,00937163	-126,1
     177,625	  0,00915314	-125,4	  0,00911513	-126,5
     177,654	  0,00910089	-129,5	  0,00916515	-123,5
     177,683	  0,00913936	-126,0	  0,00902055	-127,1
     177,713	  0,00933982	-130,0	  0,00943452	-126,6
     177,742	  0,00948492	-128,0	  0,00916879	-125,7
     177,771	   0,0093427	-130,1	  0,00944289	-127,4
     177,801	  0,00934498	-131,6	  0,00909774	-125,9
      177,83	  0,00915956	-128,9	  0,00907857	-128,8
     177,859	  0,00946853	-125,5	  0,00939448	-130,3
     177,889	  0,00928613	-127,6	  0,00944656	-123,1
     177,918	   0,0092229	-130,9	  0,00915659	-126,0
     177,947	   0,0090944	-123,3	  0,00930611	-126,4
     177,977	  0,00916721	-126,5	  0,00909539	-127,7
     178,006	  0,00891919	-129,1	  0,00882994	-128,4
     178,035	   0,0090388	-131,0	  0,00915298	-125,1
     178,065	   0,0090716	-129,2	  0,00889684	-125,3
     178,094	  0,00915238	-128,8	  0,00891344	-125,5
     178,123	  0,00891355	-125,7	    0,008877	-128,8
     178,152	  0,00910092	-123,7	  0,00896448	-125,8
     178,182	  0,00929653	-124,1	  0,00907201	-129,2
     178,211	  0,00922507	-129,5	  0,00895935	-130,5
      178,24	  0,00915716	-128,0	  0,00909728	-129,8
      178,27	  0,00918456	-126,4	  0,00927223	-125,0
     178,299	  0,00896348	-126,8	  0,00915673	-129,1
     178,328	  0,00900074	-128,6	  0,00934142	-128,8
     178,358	  0,00908564	-131,7	  0,00915063	-124,3
     178,387	  0,00905583	-128,8	  0,00901877	-124,7
     178,416	  0,00917182	-128,1	  0,00915089	-126,8
     178,446	  0,00920066	-124,7	  0,00893395	-125,5
     178,475	  0,00905878	-128,3	  0,00890087	-123,1
     178,504	  0,00893391	-127,5	  0,00880148	-130,4
     178,534	  0,00887078	-123,5	  0,00893901	-124,7
     178,563	  0,00875453	-126,3	  0,00898001	-129,7
     178,592	  0,00896344	-124,8	  0,00883899	-126,1
     178,622	   0,0090679	-126,6	  0,00899778	-127,0
     178,651	  0,00887055	-126,7	  0,00910294	-127,6
      178,68	  0,00894823	-128,0	  0,00885213	-126,0
      178,71	  0,00900424	-126,6	  0,00890301	-124,8
     178,739	  0,00871419	-130,0	   0,0086125	-128,0
     178,768	  0,00897696	-127,2	  0,00873619	-128,5
     178,798	  0,00862547	-123,3	  0,00886866	-129,6
     178,827	  0,00900274	-124,4	  0,00868833	-125,7
     178,856	  0,00875664	-129,7	  0,00878975	-125,4
     178,886	  0,00881608	-124,4	   0,0090338	-127,8
     178,915	  0,00898466	-127,6	  0,00895854	-124,6
     178,944	  0,00875181	-124,7	  0,00905349	-129,2
     178,974	  0,00874555	-127,7	  0,00894099	-129,6
     179,003	  0,00855741	-124,7	  0,00906587	-132,2
     179,032	  0,00897476	-129,1	  0,00886105	-129,1
     179,062	  0,00893987	-128,5	  0,00893203	-127,2
     179,091	  0,00890758	-128,8	  0,00905085	-127,1
      179,12	  0,00877842	-125,0	  0,00873111	-126,0
      179,15	  0,00895761	-128,5	  0,00877083	-123,3
     179,179	  0,00889437	-129,0	  0,00864922	-128,1
     179,208	  0,00877264	-122,0	  0,00888696	-125,5
     179,238	  0,00891065	-130,3	  0,00889794	-129,7
     179,267	  0,00891042	-128,3	  0,00891796	-127,1
     179,296	  0,00885179	-128,5	    0,008692	-128,9
     179,326	  0,00886993	-130,9	  0,00865258	-129,7
     179,355	  0,00831388	-125,4	  0,00837794	-125,5
     179,384	  0,00850057	-127,7	  0,00847561	-126,0
     179,413	  0,00888447	-126,5	   0,0085181	-128,0
     179,443	  0,00885287	-129,1	    0,008505	-128,9
     179,472	  0,00876889	-123,6	   0,0085473	-128,3
     179,501	  0,00873244	-126,7	  0,00873342	-126,2
     179,531	  0,00840581	-124,3	  0,00834818	-127,5
      179,56	  0,00857981	-124,4	  0,00852965	-122,5
     179,589	  0,00829754	-126,4	  0,00865924	-129,9
     179,619	  0,00849337	-129,4	  0,00861218	-127,9
     179,648	  0,00869462	-124,9	  0,00886413	-124,3
     179,677	  0,00869749	-129,9	  0,00884644	-127,4
     179,707	  0,00842184	-124,6	  0,00874025	-127,3
     179,736	  0,00834061	-126,2	  0,00862971	-129,1
     179,765	  0,00846417	-128,1	  0,00881786	-128,7
     179,795	   0,0082307	-126,5	  0,00853465	-128,6
     179,824	  0,00837145	-132,3	  0,00862305	-128,8
     179,853	   0,0086074	-130,2	  0,00854202	-128,5
     179,883	  0,00867012	-127,7	   0,0086886	-126,7
     179,912	  0,00864267	-123,1	  0,00852113	-124,8
     179,941	  0,00838764	-125,2	  0,00872308	-125,1
     179,971	  0,00832327	-125,4	   0,0084359	-130,5
         180	  0,00826587	-125,5	  0,00839991	-125,4

