X-Data [Hz]	Laser (M - Filtered) [m/s]	Phase [Deg]	Laser (M - Filtered) [m/s]	Phase [Deg]	
	002: [07-09-24 15:47]		003: [07-09-24 15:49]	
        41,5	    0,012389	76,9	   0,0129709	75,9
      41,502	    0,012344	79,7	   0,0129768	77,8
     41,5039	    0,012524	79,1	   0,0129901	76,9
     41,5059	   0,0128146	79,1	   0,0130076	77,5
     41,5078	   0,0129792	77,4	   0,0130747	75,8
     41,5098	   0,0129933	78,8	   0,0130137	79,1
     41,5117	   0,0129822	80,5	   0,0130336	77,3
     41,5137	   0,0131176	78,9	   0,0132061	77,6
     41,5156	   0,0130624	78,4	   0,0132794	78,8
     41,5176	   0,0129481	77,8	   0,0131518	77,4
     41,5196	   0,0130537	78,7	   0,0130825	78,0
     41,5215	   0,0131672	79,2	   0,0131496	77,9
     41,5235	   0,0132934	77,4	   0,0131402	78,9
     41,5254	   0,0132675	78,6	   0,0132137	77,1
     41,5274	   0,0132105	76,7	   0,0132981	76,4
     41,5293	   0,0132499	77,3	   0,0132969	78,3
     41,5313	   0,0133337	77,7	    0,013233	77,3
     41,5332	   0,0134284	77,2	   0,0133775	78,3
     41,5352	   0,0133564	78,8	   0,0132992	77,4
     41,5371	    0,013326	78,2	   0,0133387	77,0
     41,5391	   0,0134022	78,1	   0,0132932	77,1
     41,5411	   0,0133493	76,7	   0,0133306	76,1
      41,543	   0,0132766	76,7	    0,013378	79,1
      41,545	   0,0133926	79,6	   0,0133797	78,2
     41,5469	   0,0134553	78,2	   0,0135116	79,5
     41,5489	   0,0134885	79,0	   0,0135296	78,2
     41,5508	   0,0135044	78,8	   0,0135177	77,9
     41,5528	   0,0134749	77,4	   0,0135016	78,9
     41,5547	   0,0134946	78,6	   0,0135491	77,3
     41,5567	   0,0134917	77,6	   0,0135367	78,1
     41,5587	   0,0135761	79,1	   0,0136235	77,1
     41,5606	   0,0136136	78,5	   0,0136057	77,2
     41,5626	   0,0136043	76,6	   0,0136229	77,9
     41,5645	   0,0136085	79,0	   0,0136175	77,3
     41,5665	   0,0136685	78,9	   0,0136711	80,6
     41,5684	   0,0137187	79,7	    0,013703	76,8
     41,5704	   0,0136749	80,6	   0,0137596	77,9
     41,5723	   0,0137173	77,8	   0,0138098	79,5
     41,5743	   0,0136764	78,9	   0,0137904	76,9
     41,5762	   0,0137483	77,3	    0,013773	78,8
     41,5782	   0,0137855	77,9	    0,013812	78,6
     41,5802	   0,0136968	78,7	   0,0138347	78,0
     41,5821	   0,0137622	79,7	   0,0138398	77,9
     41,5841	    0,013951	78,7	   0,0138522	78,3
      41,586	   0,0139892	77,8	   0,0137965	79,3
      41,588	    0,013934	79,0	    0,013868	77,6
     41,5899	   0,0139318	78,6	    0,013977	80,0
     41,5919	   0,0138369	79,9	   0,0139156	80,4
     41,5938	   0,0139488	80,4	   0,0139467	77,5
     41,5958	    0,014068	76,9	   0,0139608	78,4
     41,5978	    0,013994	78,2	   0,0140271	77,6
     41,5997	   0,0140102	77,8	   0,0140999	78,4
     41,6017	    0,013991	77,7	   0,0141422	80,1
     41,6036	   0,0140312	80,2	   0,0140919	78,8
     41,6056	   0,0140789	79,4	    0,014118	79,3
     41,6075	   0,0141165	79,7	   0,0141538	78,0
     41,6095	    0,014142	79,8	   0,0141598	79,4
     41,6114	   0,0141314	79,2	   0,0141743	79,6
     41,6134	   0,0141057	79,6	   0,0141603	78,6
     41,6153	   0,0141016	79,2	   0,0142135	79,9
     41,6173	   0,0142238	80,0	   0,0142495	80,9
     41,6193	    0,014255	80,5	   0,0143132	77,9
     41,6212	   0,0142852	78,0	   0,0143285	79,2
     41,6232	   0,0143915	79,7	   0,0142985	78,5
     41,6251	   0,0144464	77,3	   0,0142788	79,0
     41,6271	   0,0143764	80,4	   0,0143127	79,9
      41,629	   0,0143251	81,6	   0,0144153	79,0
      41,631	   0,0143668	78,6	   0,0145039	80,1
     41,6329	   0,0144357	80,0	   0,0145594	78,0
     41,6349	   0,0144865	78,1	   0,0144514	79,5
     41,6369	   0,0145235	77,9	   0,0144451	78,8
     41,6388	   0,0145397	80,2	   0,0144787	78,9
     41,6408	   0,0145167	78,9	   0,0145361	79,1
     41,6427	   0,0145201	81,1	   0,0146131	78,1
     41,6447	   0,0145938	80,6	    0,014572	78,3
     41,6466	   0,0146071	79,1	   0,0145262	80,6
     41,6486	   0,0146472	79,4	   0,0146066	77,8
     41,6505	   0,0145945	79,6	   0,0146711	80,4
     41,6525	   0,0146613	79,7	   0,0147817	80,4
     41,6544	   0,0147254	79,8	   0,0147756	80,5
     41,6564	   0,0147843	79,1	   0,0147921	80,7
     41,6584	   0,0146373	80,5	   0,0147828	78,6
     41,6603	   0,0147081	78,4	   0,0147389	80,1
     41,6623	   0,0147347	78,6	   0,0148508	79,2
     41,6642	   0,0147503	80,5	   0,0149018	79,4
     41,6662	   0,0148039	80,0	   0,0148772	81,3
     41,6681	   0,0148406	81,3	   0,0148922	78,9
     41,6701	   0,0148714	81,0	      0,0149	80,9
      41,672	   0,0149036	79,7	   0,0149438	79,3
      41,674	   0,0149432	79,9	     0,01498	78,8
      41,676	   0,0149293	79,1	   0,0149561	81,0
     41,6779	   0,0149769	80,7	   0,0150366	81,2
     41,6799	   0,0149409	80,2	   0,0151502	79,6
     41,6818	   0,0150761	79,7	   0,0151352	80,1
     41,6838	   0,0150845	80,6	   0,0152056	79,1
     41,6857	   0,0151329	78,7	   0,0151736	80,5
     41,6877	   0,0151628	79,1	   0,0151817	80,3
     41,6896	   0,0151746	80,2	   0,0152085	78,4
     41,6916	   0,0151531	79,7	   0,0153613	80,8
     41,6936	   0,0151903	81,5	   0,0153225	79,7
     41,6955	   0,0152393	81,7	   0,0152008	81,5
     41,6975	   0,0153201	78,9	    0,015155	80,3
     41,6994	   0,0152888	80,5	   0,0153148	80,3
     41,7014	   0,0154083	78,1	   0,0153911	81,1
     41,7033	   0,0153148	79,7	   0,0154296	80,9
     41,7053	   0,0153006	81,8	   0,0154909	80,8
     41,7072	   0,0154031	80,0	   0,0155727	79,4
     41,7092	   0,0154754	81,9	   0,0154996	78,8
     41,7111	   0,0154841	81,6	   0,0154331	81,0
     41,7131	   0,0154739	79,1	   0,0154725	80,5
     41,7151	   0,0154771	81,0	   0,0155889	80,2
      41,717	   0,0155642	79,6	   0,0156658	82,5
      41,719	    0,015591	80,5	   0,0157492	79,4
     41,7209	    0,015667	81,5	   0,0157419	80,0
     41,7229	     0,01576	79,9	   0,0156626	80,1
     41,7248	   0,0156363	80,5	   0,0156964	78,8
     41,7268	    0,015643	80,6	   0,0157478	82,3
     41,7287	   0,0157252	79,5	   0,0157388	81,5
     41,7307	   0,0158505	81,3	   0,0157668	81,5
     41,7327	   0,0157831	80,3	   0,0158793	81,4
     41,7346	   0,0157348	80,9	   0,0159545	80,3
     41,7366	   0,0158287	80,7	   0,0159752	79,9
     41,7385	   0,0159051	80,5	   0,0160236	81,2
     41,7405	    0,015985	82,0	    0,016094	79,9
     41,7424	   0,0159578	80,9	   0,0161282	81,2
     41,7444	   0,0159954	81,6	   0,0160986	80,9
     41,7463	   0,0160241	81,8	   0,0160416	80,5
     41,7483	   0,0160494	82,0	   0,0160327	80,2
     41,7502	    0,016116	81,7	   0,0161167	80,2
     41,7522	   0,0161125	83,0	   0,0162965	81,7
     41,7542	   0,0161001	80,5	   0,0162828	81,3
     41,7561	   0,0161799	82,2	   0,0163629	81,6
     41,7581	   0,0161747	81,5	    0,016389	82,9
       41,76	   0,0161761	82,0	   0,0163327	83,9
      41,762	   0,0162486	83,7	   0,0163189	80,7
     41,7639	   0,0162686	80,5	   0,0164005	81,5
     41,7659	   0,0162757	81,5	   0,0164128	80,5
     41,7678	    0,016435	81,9	   0,0164111	79,2
     41,7698	   0,0164128	79,7	   0,0164841	82,2
     41,7718	   0,0164056	80,6	   0,0166446	81,4
     41,7737	   0,0165264	82,0	   0,0166275	83,1
     41,7757	    0,016513	81,0	   0,0166265	83,9
     41,7776	   0,0165023	82,7	   0,0166493	80,8
     41,7796	   0,0165481	84,7	   0,0166858	82,0
     41,7815	   0,0165647	80,5	   0,0166994	81,3
     41,7835	   0,0165504	82,9	   0,0166853	81,4
     41,7854	   0,0165091	82,2	   0,0166685	83,5
     41,7874	   0,0167077	81,7	   0,0166414	82,8
     41,7893	   0,0167067	83,6	   0,0168401	82,9
     41,7913	   0,0167965	81,7	   0,0168885	82,5
     41,7933	   0,0168662	81,6	   0,0169559	80,2
     41,7952	   0,0168578	83,2	   0,0169504	82,4
     41,7972	   0,0169091	81,7	   0,0169868	81,8
     41,7991	   0,0169853	82,4	   0,0169965	81,2
     41,8011	    0,017014	80,4	   0,0171224	83,7
      41,803	   0,0168899	81,1	   0,0171656	82,8
      41,805	   0,0170015	83,9	   0,0170743	83,2
     41,8069	   0,0170931	82,8	   0,0171586	82,2
     41,8089	   0,0171803	82,7	   0,0172504	80,7
     41,8109	   0,0171376	83,0	   0,0173058	82,3
     41,8128	    0,017125	82,1	   0,0172754	83,3
     41,8148	   0,0171891	83,0	   0,0173107	82,5
     41,8167	     0,01722	82,4	   0,0173368	82,9
     41,8187	   0,0172631	81,7	   0,0173433	83,3
     41,8206	   0,0173516	83,1	   0,0174473	82,5
     41,8226	   0,0174672	82,8	   0,0175006	83,3
     41,8245	   0,0174487	81,5	   0,0174952	82,4
     41,8265	   0,0173717	83,1	   0,0174607	82,1
     41,8284	   0,0173815	83,7	   0,0174968	83,2
     41,8304	   0,0174919	83,0	   0,0175973	82,7
     41,8324	   0,0175132	83,6	   0,0176319	82,1
     41,8343	    0,017565	82,8	   0,0177309	83,2
     41,8363	   0,0176211	81,8	   0,0177751	83,1
     41,8382	   0,0175704	84,0	   0,0178267	83,0
     41,8402	   0,0176155	83,1	   0,0178281	83,8
     41,8421	   0,0177318	82,7	   0,0178506	80,9
     41,8441	   0,0178749	84,7	   0,0179389	82,5
      41,846	   0,0179407	82,1	   0,0179315	83,4
      41,848	    0,017905	82,3	    0,017911	83,7
       41,85	   0,0179498	82,7	   0,0180668	83,2
     41,8519	    0,017991	83,3	   0,0181351	83,7
     41,8539	    0,018089	84,7	   0,0181429	82,6
     41,8558	   0,0180735	83,9	   0,0180806	83,8
     41,8578	   0,0180748	83,5	   0,0181238	82,9
     41,8597	   0,0180555	83,1	   0,0182414	82,8
     41,8617	   0,0180569	84,8	    0,018339	84,8
     41,8636	   0,0182759	84,0	   0,0184083	84,0
     41,8656	   0,0182753	84,8	   0,0184185	85,2
     41,8675	   0,0182745	83,2	   0,0184119	85,1
     41,8695	   0,0182942	83,7	    0,018418	83,4
     41,8715	    0,018376	83,9	   0,0184458	83,8
     41,8734	   0,0184014	84,3	   0,0184844	83,8
     41,8754	    0,018416	83,7	   0,0185537	83,0
     41,8773	   0,0184267	83,6	   0,0186723	85,9
     41,8793	   0,0185167	83,6	   0,0186549	85,1
     41,8812	   0,0184872	84,2	   0,0187491	84,9
     41,8832	   0,0184964	85,9	   0,0187705	85,1
     41,8851	   0,0185953	84,8	   0,0187905	82,6
     41,8871	   0,0186901	86,2	   0,0187529	82,6
     41,8891	   0,0186894	82,8	    0,018758	85,1
      41,891	   0,0187235	83,6	   0,0188516	83,8
      41,893	   0,0187201	85,2	   0,0189568	85,6
     41,8949	   0,0187854	84,9	   0,0190121	85,6
     41,8969	   0,0188989	84,1	   0,0191259	84,5
     41,8988	   0,0189722	85,0	   0,0191796	85,2
     41,9008	   0,0190976	85,1	   0,0192424	84,5
     41,9027	   0,0191863	84,2	   0,0193424	83,4
     41,9047	   0,0191937	85,2	   0,0192911	85,7
     41,9066	   0,0190897	84,9	   0,0193013	85,1
     41,9086	   0,0190956	85,2	   0,0194196	85,7
     41,9106	   0,0191518	85,2	    0,019456	86,4
     41,9125	   0,0191969	85,1	    0,019447	85,6
     41,9145	   0,0192382	84,7	   0,0195315	84,8
     41,9164	   0,0193755	85,8	   0,0195455	85,2
     41,9184	   0,0194578	84,7	   0,0196056	84,6
     41,9203	   0,0195618	87,2	   0,0196227	84,1
     41,9223	   0,0196354	86,9	   0,0196595	85,5
     41,9242	   0,0196884	84,7	   0,0196895	85,7
     41,9262	   0,0196186	86,0	   0,0197187	85,8
     41,9282	   0,0196859	85,7	   0,0197117	86,9
     41,9301	   0,0197574	84,1	   0,0198798	85,0
     41,9321	   0,0198101	84,6	   0,0199192	85,4
      41,934	   0,0198226	86,0	   0,0201162	85,2
      41,936	    0,019802	84,5	   0,0202317	85,3
     41,9379	   0,0198622	87,3	   0,0201792	86,2
     41,9399	   0,0198671	88,6	   0,0202039	86,8
     41,9418	   0,0199112	86,2	   0,0202309	84,8
     41,9438	   0,0200238	87,4	   0,0202956	86,1
     41,9457	   0,0200937	85,4	     0,02038	87,2
     41,9477	   0,0201896	84,9	   0,0203802	86,1
     41,9497	   0,0201316	87,0	   0,0203804	87,8
     41,9516	   0,0202451	85,9	   0,0204489	87,4
     41,9536	   0,0203522	88,0	   0,0205628	83,9
     41,9555	   0,0204001	87,8	    0,020619	86,0
     41,9575	   0,0204546	86,8	   0,0207195	86,6
     41,9594	   0,0205044	86,2	   0,0207791	85,2
     41,9614	   0,0205363	87,1	   0,0208519	87,6
     41,9633	   0,0205149	86,7	    0,020836	87,9
     41,9653	   0,0205933	87,1	   0,0209012	86,3
     41,9673	   0,0206878	87,2	   0,0209081	87,6
     41,9692	   0,0207274	88,0	   0,0210343	87,0
     41,9712	   0,0208505	87,1	   0,0211711	86,4
     41,9731	   0,0209871	87,4	   0,0211302	87,1
     41,9751	   0,0210378	87,2	   0,0211792	87,8
      41,977	   0,0209931	86,4	   0,0212516	85,7
      41,979	   0,0210529	89,0	    0,021326	86,4
     41,9809	   0,0211007	89,0	   0,0213868	87,9
     41,9829	   0,0210883	86,7	   0,0214494	86,8
     41,9848	   0,0212159	88,1	   0,0215547	89,4
     41,9868	   0,0212655	87,6	   0,0216193	89,2
     41,9888	    0,021327	88,7	   0,0217381	86,9
     41,9907	   0,0214144	88,9	   0,0217719	88,3
     41,9927	   0,0214741	88,0	   0,0217911	86,5
     41,9946	   0,0214888	87,3	   0,0217935	86,8
     41,9966	   0,0215213	90,7	   0,0218811	88,7
     41,9985	   0,0215627	88,9	   0,0218922	89,2
     42,0005	   0,0216875	88,2	   0,0219636	87,5
     42,0024	   0,0218559	89,7	   0,0220074	88,4
     42,0044	   0,0219019	89,3	   0,0220995	89,3
     42,0064	   0,0219385	87,2	   0,0222129	87,9
     42,0083	   0,0219746	88,2	   0,0223541	90,3
     42,0103	   0,0219902	88,7	   0,0224593	89,3
     42,0122	   0,0220301	87,9	      0,0225	87,3
     42,0142	   0,0222127	90,8	   0,0225242	88,7
     42,0161	   0,0222866	90,5	   0,0224829	90,3
     42,0181	    0,022355	88,9	    0,022561	87,5
       42,02	   0,0223566	89,9	   0,0225985	88,2
      42,022	   0,0223386	88,6	   0,0226711	90,2
     42,0239	   0,0223828	89,0	   0,0227455	88,7
     42,0259	   0,0225208	89,2	   0,0229042	90,5
     42,0279	   0,0225348	89,9	   0,0230428	90,4
     42,0298	   0,0225612	88,9	   0,0231341	88,0
     42,0318	    0,022643	89,6	   0,0230298	90,5
     42,0337	   0,0226661	90,3	   0,0230047	90,5
     42,0357	   0,0227853	90,4	    0,023083	88,5
     42,0376	   0,0228936	90,7	   0,0233276	89,2
     42,0396	   0,0229754	90,9	   0,0234792	90,3
     42,0415	   0,0230602	91,0	   0,0235085	89,4
     42,0435	   0,0230582	91,4	   0,0235576	90,2
     42,0455	   0,0230775	92,8	   0,0235933	91,0
     42,0474	   0,0231762	89,1	   0,0237373	91,4
     42,0494	   0,0232541	90,0	    0,023839	90,9
     42,0513	   0,0233504	91,5	   0,0239233	92,2
     42,0533	   0,0234169	91,0	   0,0239793	89,2
     42,0552	   0,0236189	91,2	   0,0240503	90,3
     42,0572	   0,0236502	92,0	   0,0240054	91,9
     42,0591	   0,0237019	90,3	   0,0241078	90,2
     42,0611	   0,0237832	90,5	   0,0242339	91,7
      42,063	   0,0238373	91,9	   0,0243627	92,4
      42,065	   0,0239145	92,0	   0,0244864	91,1
      42,067	   0,0240459	91,6	   0,0245322	91,9
     42,0689	   0,0240595	92,8	   0,0246122	93,6
     42,0709	   0,0241851	90,5	   0,0246953	92,2
     42,0728	   0,0242541	89,5	   0,0247468	91,2
     42,0748	   0,0243314	93,2	   0,0248718	92,8
     42,0767	   0,0243981	92,5	   0,0248528	92,3
     42,0787	   0,0245056	93,4	   0,0249125	90,5
     42,0806	   0,0245379	93,3	    0,024916	90,9
     42,0826	   0,0245687	93,6	   0,0250165	91,7
     42,0846	   0,0247148	92,5	    0,025132	91,1
     42,0865	   0,0247809	93,6	   0,0253266	92,6
     42,0885	   0,0248507	92,6	   0,0254055	93,5
     42,0904	   0,0248582	91,9	   0,0255267	92,5
     42,0924	   0,0249536	93,4	   0,0256852	94,4
     42,0943	   0,0250584	93,7	   0,0257221	94,8
     42,0963	   0,0251622	92,5	   0,0257628	94,3
     42,0982	   0,0252929	92,2	   0,0258493	92,8
     42,1002	   0,0254497	95,3	   0,0259086	94,6
     42,1021	   0,0254729	93,9	    0,025951	92,7
     42,1041	   0,0255463	95,1	   0,0260783	92,5
     42,1061	   0,0255918	94,7	   0,0261765	94,8
      42,108	    0,025729	93,5	     0,02631	93,6
       42,11	   0,0257679	94,1	   0,0265321	93,9
     42,1119	   0,0258563	94,7	   0,0265903	95,0
     42,1139	   0,0259935	94,7	   0,0266633	94,9
     42,1158	   0,0260393	94,2	   0,0266989	94,5
     42,1178	   0,0261701	95,5	   0,0268631	96,6
     42,1197	   0,0262168	94,9	   0,0269691	96,3
     42,1217	   0,0263421	93,9	    0,027058	94,1
     42,1237	   0,0264824	93,7	    0,027146	95,0
     42,1256	   0,0265532	96,4	   0,0272316	95,0
     42,1276	   0,0266729	94,9	   0,0273473	94,0
     42,1295	   0,0267631	97,4	   0,0274166	95,8
     42,1315	   0,0269071	96,6	   0,0275066	97,3
     42,1334	    0,026914	94,6	   0,0276379	95,9
     42,1354	    0,026991	95,6	   0,0278396	95,5
     42,1373	    0,027049	97,2	   0,0278931	98,7
     42,1393	   0,0271095	97,1	   0,0279069	97,7
     42,1413	   0,0271774	96,0	   0,0279108	97,0
     42,1432	   0,0273305	96,4	   0,0280765	97,9
     42,1452	   0,0273538	96,7	    0,028197	98,6
     42,1471	   0,0275146	96,1	    0,028368	96,2
     42,1491	   0,0275913	96,4	   0,0284494	96,7
      42,151	   0,0277783	98,1	   0,0285696	97,0
      42,153	   0,0279029	96,5	   0,0287259	98,0
     42,1549	   0,0280077	98,7	   0,0288703	96,4
     42,1569	   0,0280969	98,4	   0,0289343	97,4
     42,1588	   0,0280986	97,2	   0,0289947	96,6
     42,1608	   0,0281643	97,7	   0,0290448	96,3
     42,1628	   0,0283295	99,7	   0,0292853	99,2
     42,1647	   0,0284695	99,3	   0,0293928	99,2
     42,1667	   0,0285978	97,6	   0,0295528	98,3
     42,1686	   0,0286931	98,4	   0,0296554	98,8
     42,1706	   0,0288168	98,3	   0,0298471	100,4
     42,1725	   0,0288681	98,2	   0,0299029	100,6
     42,1745	    0,029036	99,7	   0,0300005	98,9
     42,1764	   0,0291174	99,9	   0,0300965	101,1
     42,1784	   0,0291614	98,6	   0,0301835	98,5
     42,1804	   0,0292038	98,2	   0,0303055	99,2
     42,1823	   0,0293677	102,0	   0,0304229	101,1
     42,1843	   0,0295325	100,8	   0,0304561	100,1
     42,1862	   0,0295691	101,2	     0,03065	98,6
     42,1882	   0,0296723	101,5	   0,0307689	102,7
     42,1901	    0,029812	101,5	   0,0309541	101,6
     42,1921	   0,0299507	100,5	   0,0311162	100,4
      42,194	   0,0300993	101,6	   0,0311943	102,4
      42,196	   0,0301642	102,2	   0,0312873	103,4
     42,1979	    0,030342	102,4	   0,0314524	101,3
     42,1999	   0,0305646	100,9	   0,0315482	102,5
     42,2019	   0,0305823	101,7	   0,0317615	103,7
     42,2038	   0,0306996	101,6	   0,0318781	102,7
     42,2058	   0,0308103	100,6	   0,0320312	101,8
     42,2077	   0,0309212	103,5	     0,03209	102,8
     42,2097	   0,0310781	103,9	   0,0322143	103,1
     42,2116	   0,0313322	102,7	   0,0323584	102,8
     42,2136	   0,0314778	103,2	   0,0325809	103,0
     42,2155	   0,0316359	105,1	    0,032726	103,1
     42,2175	   0,0317001	103,4	   0,0328044	103,3
     42,2195	   0,0317435	103,9	    0,032897	103,3
     42,2214	   0,0318843	106,4	    0,033099	106,6
     42,2234	   0,0319964	103,8	   0,0331897	105,2
     42,2253	   0,0320798	105,0	   0,0333833	104,9
     42,2273	   0,0322186	104,3	   0,0335116	105,0
     42,2292	   0,0322837	106,7	   0,0336361	107,1
     42,2312	   0,0323485	102,2	   0,0337367	106,5
     42,2331	   0,0324201	104,0	   0,0339356	105,9
     42,2351	   0,0326183	106,9	   0,0340378	107,6
      42,237	   0,0327491	105,2	   0,0341881	105,6
      42,239	    0,032836	105,1	   0,0342959	106,5
      42,241	   0,0329899	106,2	   0,0345381	107,0
     42,2429	   0,0331187	106,7	     0,03465	106,2
     42,2449	   0,0333746	106,7	   0,0347833	105,6
     42,2468	   0,0334901	106,0	   0,0349202	105,6
     42,2488	   0,0336278	109,6	   0,0350801	108,7
     42,2507	   0,0337514	108,6	   0,0351992	107,6
     42,2527	   0,0338469	107,1	    0,035465	107,4
     42,2546	   0,0338926	108,0	   0,0356447	108,5
     42,2566	   0,0340314	109,6	   0,0357941	110,2
     42,2586	   0,0342203	108,9	   0,0359253	109,6
     42,2605	   0,0344851	109,1	   0,0360289	111,6
     42,2625	    0,034556	109,9	   0,0362206	111,0
     42,2644	   0,0347086	107,8	    0,036407	110,0
     42,2664	   0,0348375	107,8	   0,0365541	110,2
     42,2683	   0,0349604	109,0	   0,0366931	112,8
     42,2703	   0,0350887	111,5	   0,0369011	111,0
     42,2722	   0,0353386	109,7	    0,037009	111,2
     42,2742	   0,0354447	109,1	   0,0371275	111,8
     42,2761	   0,0356066	112,5	   0,0372236	112,6
     42,2781	   0,0357352	111,6	   0,0373725	111,9
     42,2801	    0,035769	109,9	   0,0375002	111,4
      42,282	   0,0359997	112,3	   0,0376164	113,2
      42,284	   0,0361709	113,3	   0,0378543	113,4
     42,2859	   0,0363452	113,4	   0,0380422	112,8
     42,2879	   0,0364841	112,3	   0,0382502	115,0
     42,2898	   0,0366192	114,0	   0,0383522	115,3
     42,2918	   0,0367036	115,6	   0,0385841	114,3
     42,2937	   0,0368838	111,9	   0,0387339	114,6
     42,2957	   0,0370221	114,5	   0,0389082	117,0
     42,2977	   0,0371514	115,7	   0,0389971	117,9
     42,2996	   0,0372822	115,2	   0,0391223	117,1
     42,3016	   0,0374339	114,1	   0,0393388	117,3
     42,3035	   0,0374896	115,7	   0,0394861	118,2
     42,3055	   0,0376573	115,2	    0,039636	118,6
     42,3074	   0,0378974	114,6	   0,0399084	117,5
     42,3094	    0,038096	116,8	   0,0400728	119,4
     42,3113	   0,0382184	117,2	   0,0401558	117,6
     42,3133	    0,038415	116,4	    0,040246	118,5
     42,3153	   0,0385191	115,0	   0,0405016	119,4
     42,3172	   0,0386269	116,7	    0,040527	120,0
     42,3192	   0,0387905	118,6	   0,0406912	120,8
     42,3211	   0,0389177	117,4	   0,0408759	118,6
     42,3231	   0,0390195	118,5	   0,0410049	119,0
      42,325	   0,0391702	118,1	   0,0411238	121,7
      42,327	   0,0393347	120,8	   0,0412209	120,6
     42,3289	   0,0394576	119,7	   0,0413527	121,2
     42,3309	   0,0395412	120,8	   0,0414548	121,8
     42,3328	   0,0397097	122,1	   0,0415814	122,6
     42,3348	   0,0399011	121,1	    0,041733	122,0
     42,3368	   0,0399487	120,8	   0,0419571	125,1
     42,3387	    0,040078	123,0	    0,042098	124,9
     42,3407	   0,0402495	123,8	   0,0421812	125,7
     42,3426	   0,0403578	121,2	    0,042324	124,1
     42,3446	   0,0404877	121,9	    0,042358	124,6
     42,3465	   0,0406677	124,2	   0,0425876	126,3
     42,3485	   0,0408255	125,1	   0,0426631	126,7
     42,3504	    0,040974	123,7	   0,0427985	125,3
     42,3524	   0,0410442	123,3	    0,042881	127,1
     42,3544	   0,0412013	124,8	   0,0430155	127,6
     42,3563	   0,0413363	125,7	   0,0431875	128,9
     42,3583	   0,0415536	123,9	   0,0433296	127,4
     42,3602	   0,0416687	125,1	   0,0434346	129,7
     42,3622	   0,0418713	126,8	   0,0436053	127,4
     42,3641	   0,0420061	125,9	   0,0436874	127,9
     42,3661	   0,0421893	127,1	   0,0437229	129,6
      42,368	   0,0422906	127,0	   0,0437802	130,7
       42,37	    0,042355	128,1	    0,043897	128,5
     42,3719	   0,0423647	127,6	   0,0440247	129,2
     42,3739	   0,0425502	129,2	   0,0441971	132,0
     42,3759	   0,0426868	130,5	   0,0442408	132,2
     42,3778	   0,0428283	130,2	   0,0443988	131,5
     42,3798	   0,0428901	129,0	   0,0444669	131,1
     42,3817	   0,0430996	129,8	   0,0445896	132,0
     42,3837	   0,0431722	133,0	   0,0446568	133,4
     42,3856	    0,043253	132,4	   0,0447178	132,3
     42,3876	   0,0432955	131,9	   0,0448412	134,2
     42,3895	    0,043472	132,5	   0,0448893	135,7
     42,3915	   0,0436669	133,5	   0,0450062	134,9
     42,3935	   0,0437404	133,8	    0,045085	134,4
     42,3954	   0,0438195	133,2	   0,0451603	136,9
     42,3974	   0,0438974	135,1	   0,0452568	137,0
     42,3993	   0,0440413	134,6	   0,0453116	136,4
     42,4013	   0,0441485	134,5	   0,0453486	136,6
     42,4032	   0,0442476	134,2	    0,045477	139,1
     42,4052	   0,0442401	136,5	   0,0455723	139,6
     42,4071	   0,0443425	137,5	   0,0456027	137,8
     42,4091	   0,0443896	136,3	   0,0455957	138,3
      42,411	   0,0445735	136,8	   0,0457203	139,1
      42,413	   0,0446454	136,5	   0,0457867	140,1
      42,415	   0,0448627	136,2	   0,0457749	141,9
     42,4169	   0,0448391	135,8	   0,0458047	139,8
     42,4189	    0,044871	137,0	    0,045791	141,6
     42,4208	   0,0450146	139,6	   0,0458896	141,0
     42,4228	   0,0450952	139,4	   0,0458904	140,6
     42,4247	   0,0451103	139,6	   0,0458969	141,3
     42,4267	   0,0451655	139,7	   0,0459371	143,4
     42,4286	   0,0452756	141,7	   0,0460021	141,6
     42,4306	   0,0452629	141,1	   0,0459883	142,4
     42,4326	   0,0452956	140,9	   0,0460406	142,2
     42,4345	   0,0454162	141,0	    0,046097	144,0
     42,4365	   0,0454975	143,1	   0,0460941	144,1
     42,4384	   0,0455588	142,7	   0,0461943	143,2
     42,4404	   0,0457376	143,3	   0,0461492	146,2
     42,4423	   0,0456863	144,4	   0,0462338	145,8
     42,4443	   0,0456717	145,0	   0,0461594	147,2
     42,4462	    0,045839	144,1	   0,0461703	145,1
     42,4482	    0,045909	146,1	   0,0461741	145,8
     42,4501	    0,045995	146,1	   0,0462084	147,5
     42,4521	   0,0459472	147,6	   0,0462856	146,6
     42,4541	   0,0459915	146,4	   0,0462747	147,7
      42,456	   0,0459466	146,8	    0,046213	146,9
      42,458	   0,0459846	148,6	   0,0462267	150,3
     42,4599	   0,0459973	150,0	   0,0462754	149,6
     42,4619	   0,0460201	147,9	   0,0462886	149,2
     42,4638	    0,046143	148,0	   0,0462487	149,8
     42,4658	   0,0462174	150,7	   0,0461973	152,5
     42,4677	   0,0462108	150,5	   0,0462225	150,7
     42,4697	   0,0462416	148,6	   0,0461445	151,9
     42,4717	   0,0462601	150,2	   0,0462004	152,9
     42,4736	    0,046237	151,9	   0,0461532	153,4
     42,4756	   0,0462642	152,7	   0,0461344	152,9
     42,4775	   0,0462126	152,9	   0,0461653	153,0
     42,4795	   0,0462091	152,2	   0,0461435	154,5
     42,4814	   0,0462125	153,4	   0,0461382	155,4
     42,4834	   0,0462008	153,4	   0,0460933	153,6
     42,4853	   0,0462168	154,3	   0,0460877	153,8
     42,4873	   0,0462043	153,4	   0,0461262	156,5
     42,4892	    0,046168	154,6	   0,0460441	158,4
     42,4912	   0,0460872	154,3	   0,0460106	155,4
     42,4932	   0,0461375	153,2	   0,0459634	155,1
     42,4951	    0,046053	153,9	   0,0458356	158,3
     42,4971	   0,0460255	156,1	   0,0458439	158,4
      42,499	   0,0460179	155,7	   0,0457904	156,5
      42,501	   0,0460315	156,2	   0,0457414	157,6
     42,5029	   0,0460338	155,1	   0,0457333	159,0
     42,5049	   0,0460598	157,0	   0,0456528	160,2
     42,5068	   0,0460326	157,2	   0,0455536	156,8
     42,5088	   0,0459919	157,8	   0,0455286	158,8
     42,5108	    0,045944	157,0	   0,0455694	159,5
     42,5127	   0,0459624	157,7	   0,0454934	162,0
     42,5147	   0,0458946	160,1	   0,0454761	159,8
     42,5166	   0,0458384	159,3	   0,0454331	160,4
     42,5186	   0,0458471	158,2	   0,0454093	160,9
     42,5205	   0,0457989	159,8	   0,0453497	162,1
     42,5225	   0,0457659	160,4	   0,0452633	159,5
     42,5244	    0,045731	160,3	   0,0452647	161,2
     42,5264	   0,0457059	160,4	   0,0451152	161,1
     42,5283	   0,0456785	161,3	   0,0451483	163,0
     42,5303	   0,0456588	161,4	   0,0450671	164,0
     42,5323	   0,0456072	162,0	   0,0450168	161,4
     42,5342	   0,0454734	162,2	   0,0448781	162,6
     42,5362	   0,0454306	163,0	   0,0448401	164,6
     42,5381	   0,0453791	163,9	   0,0447858	165,7
     42,5401	   0,0452794	163,4	   0,0446884	161,6
      42,542	   0,0451795	162,8	   0,0445625	165,1
      42,544	   0,0450758	164,1	   0,0446204	165,5
     42,5459	   0,0450733	163,9	   0,0445666	166,4
     42,5479	   0,0450129	164,3	   0,0444254	163,0
     42,5499	   0,0448825	163,6	   0,0444214	165,2
     42,5518	   0,0448269	165,3	   0,0443597	167,4
     42,5538	   0,0447872	166,1	   0,0442912	168,1
     42,5557	   0,0447612	165,8	   0,0441401	165,7
     42,5577	   0,0447052	165,7	   0,0440826	164,8
     42,5596	   0,0446241	165,8	   0,0440577	167,7
     42,5616	   0,0446209	168,1	    0,043996	168,8
     42,5635	   0,0445081	167,8	   0,0439311	166,4
     42,5655	   0,0443609	167,9	   0,0438417	166,9
     42,5674	     0,04433	167,4	   0,0437606	169,1
     42,5694	   0,0442875	168,4	   0,0436973	169,8
     42,5714	   0,0442568	169,9	    0,043582	167,8
     42,5733	   0,0441908	170,2	   0,0435037	168,4
     42,5753	    0,044075	169,6	   0,0434092	168,9
     42,5772	   0,0440555	169,2	   0,0433234	171,6
     42,5792	   0,0438857	171,5	   0,0432248	172,1
     42,5811	   0,0437649	169,4	   0,0430517	169,2
     42,5831	   0,0436901	169,6	   0,0430433	170,5
      42,585	   0,0435979	172,9	   0,0429587	171,5
      42,587	   0,0435244	172,3	   0,0429292	173,2
      42,589	   0,0434341	171,6	   0,0428097	170,8
     42,5909	     0,04331	171,7	   0,0426873	171,5
     42,5929	   0,0432044	173,2	   0,0425347	171,9
     42,5948	   0,0431871	173,4	   0,0424197	173,8
     42,5968	   0,0431694	173,9	   0,0423658	171,7
     42,5987	   0,0430384	173,0	   0,0422452	172,0
     42,6007	   0,0429786	171,0	   0,0422422	173,1
     42,6026	   0,0429122	174,4	   0,0420969	174,4
     42,6046	   0,0428807	174,5	   0,0420446	174,2
     42,6065	   0,0427414	173,8	   0,0419644	174,3
     42,6085	    0,042625	173,4	   0,0419749	173,0
     42,6105	   0,0424416	176,1	   0,0418564	176,4
     42,6124	   0,0423139	176,0	   0,0417923	175,2
     42,6144	   0,0422148	175,0	   0,0416289	175,0
     42,6163	   0,0421077	175,3	   0,0415813	175,6
     42,6183	   0,0420393	177,3	   0,0415043	176,3
     42,6202	   0,0419705	176,6	   0,0414453	177,4
     42,6222	   0,0418531	176,8	   0,0412445	177,5
     42,6241	   0,0417635	176,2	   0,0411516	177,6
     42,6261	   0,0416183	176,6	   0,0410088	176,9
     42,6281	   0,0415868	176,7	   0,0408746	177,6
       42,63	   0,0413606	178,1	   0,0407987	178,9
      42,632	   0,0412483	177,8	   0,0407157	179,2
     42,6339	   0,0411705	177,4	   0,0405966	177,8
     42,6359	    0,041127	177,2	    0,040517	179,9
     42,6378	   0,0410416	179,5	   0,0404952	179,6
     42,6398	   0,0409838	178,5	   0,0404545	180,8
     42,6417	   0,0409803	178,7	   0,0403617	178,9
     42,6437	   0,0407814	179,7	   0,0402398	179,9
     42,6456	   0,0406963	179,1	   0,0401474	181,3
     42,6476	   0,0406195	180,0	   0,0400377	182,4
     42,6496	    0,040557	180,2	   0,0399432	180,2
     42,6515	   0,0404228	179,2	   0,0398027	181,0
     42,6535	   0,0402324	181,4	   0,0397379	182,1
     42,6554	   0,0400349	182,0	   0,0395597	183,2
     42,6574	   0,0399606	181,6	   0,0394155	181,7
     42,6593	   0,0398988	179,8	   0,0393356	180,7
     42,6613	   0,0398618	181,2	   0,0392197	183,1
     42,6632	   0,0397574	182,9	   0,0391017	184,1
     42,6652	   0,0396615	182,5	    0,038995	183,4
     42,6672	   0,0394844	181,6	   0,0388883	183,9
     42,6691	   0,0393999	182,0	   0,0388964	183,4
     42,6711	   0,0393281	183,0	   0,0387605	183,7
      42,673	   0,0392516	184,4	   0,0387715	184,7
      42,675	   0,0391602	184,3	   0,0386424	185,1
     42,6769	   0,0390982	182,2	   0,0385673	184,3
     42,6789	   0,0389166	183,2	   0,0383896	184,2
     42,6808	   0,0387756	185,5	   0,0382285	183,6
     42,6828	    0,038667	186,7	   0,0381673	187,0
     42,6847	   0,0386017	183,7	   0,0380505	185,5
     42,6867	   0,0385289	184,6	   0,0379381	184,9
     42,6887	    0,038392	185,8	   0,0378875	184,4
     42,6906	   0,0382654	186,4	    0,037726	187,0
     42,6926	   0,0381444	186,4	    0,037571	185,6
     42,6945	   0,0380829	186,8	    0,037488	185,8
     42,6965	   0,0380525	186,3	   0,0373792	183,6
     42,6984	   0,0379323	188,0	   0,0372484	187,0
     42,7004	   0,0377736	188,0	   0,0371828	186,2
     42,7023	   0,0376559	188,5	   0,0370348	185,9
     42,7043	   0,0375527	188,6	   0,0370083	185,7
     42,7063	   0,0374852	188,2	   0,0369394	187,0
     42,7082	   0,0373945	188,2	   0,0369034	186,7
     42,7102	   0,0371964	189,3	   0,0368109	187,2
     42,7121	   0,0370574	191,0	   0,0367498	187,8
     42,7141	    0,036925	188,9	   0,0366071	185,6
      42,716	   0,0368512	189,1	   0,0364699	186,2
      42,718	    0,036771	190,8	   0,0363554	188,8
     42,7199	   0,0367639	189,7	   0,0363098	188,5
     42,7219	   0,0367402	189,9	   0,0361184	187,3
     42,7239	   0,0366458	188,3	   0,0360065	187,2
     42,7258	   0,0364154	191,4	   0,0359007	189,2
     42,7278	   0,0362942	190,6	   0,0358318	189,4
     42,7297	    0,036118	190,8	   0,0357607	190,2
     42,7317	   0,0360087	190,6	   0,0356793	188,9
     42,7336	   0,0359637	192,4	   0,0355692	189,6
     42,7356	   0,0358099	191,4	   0,0354183	191,1
     42,7375	   0,0356879	192,7	    0,035321	191,7
     42,7395	   0,0356312	190,8	   0,0352207	191,3
     42,7414	   0,0355547	191,0	   0,0351203	190,5
     42,7434	   0,0354286	190,4	   0,0350175	190,1
     42,7454	   0,0353868	190,4	   0,0349035	191,1
     42,7473	   0,0352672	193,4	   0,0348651	192,7
     42,7493	    0,035163	192,7	   0,0348025	192,9
     42,7512	   0,0350453	191,6	   0,0346057	190,9
     42,7532	   0,0349436	190,9	   0,0345518	191,1
     42,7551	   0,0347876	193,5	   0,0343841	192,7
     42,7571	   0,0347547	192,3	   0,0342754	194,3
      42,759	   0,0345386	192,6	   0,0342426	194,0
      42,761	   0,0344517	193,0	   0,0341964	192,6
      42,763	   0,0343326	193,1	   0,0341316	193,2
     42,7649	   0,0342215	192,8	   0,0340306	192,6
     42,7669	   0,0341199	195,1	   0,0338858	194,4
     42,7688	   0,0340511	194,4	   0,0339047	194,8
     42,7708	   0,0339452	194,2	   0,0338031	192,2
     42,7727	   0,0338327	195,4	   0,0337648	192,5
     42,7747	   0,0337883	195,7	   0,0336048	195,0
     42,7766	   0,0335871	196,9	   0,0334892	193,6
     42,7786	   0,0334578	197,0	   0,0332525	193,7
     42,7805	   0,0334381	195,2	    0,033221	193,0
     42,7825	   0,0334723	195,2	   0,0331625	192,9
     42,7845	   0,0332977	197,6	   0,0329704	194,7
     42,7864	   0,0331785	197,6	   0,0328583	196,1
     42,7884	   0,0329741	197,1	   0,0327746	194,8
     42,7903	   0,0329597	195,4	    0,032771	195,3
     42,7923	   0,0328268	197,0	   0,0326618	193,2
     42,7942	   0,0327941	197,5	   0,0325815	195,3
     42,7962	   0,0326102	197,6	    0,032453	196,8
     42,7981	    0,032543	197,3	   0,0323456	197,0
     42,8001	   0,0324319	196,4	   0,0322932	195,3
     42,8021	     0,03236	196,3	   0,0321039	195,3
      42,804	   0,0321862	198,5	   0,0319184	197,1
      42,806	   0,0321255	198,9	   0,0318165	198,6
     42,8079	   0,0320347	196,7	    0,031791	196,9
     42,8099	   0,0320056	196,1	   0,0318014	197,9
     42,8118	   0,0319196	196,6	   0,0317309	196,8
     42,8138	   0,0318053	197,6	   0,0315804	197,1
     42,8157	   0,0317544	199,5	   0,0314582	198,5
     42,8177	   0,0316306	197,1	   0,0313979	198,6
     42,8196	    0,031521	199,3	   0,0312579	198,4
     42,8216	   0,0314018	198,4	   0,0311079	196,8
     42,8236	   0,0312819	199,4	   0,0311377	196,6
     42,8255	   0,0311692	-158,7	   0,0310414	198,0
     42,8275	   0,0311068	-160,2	   0,0309964	198,5
     42,8294	   0,0309921	-159,8	   0,0308503	199,4
     42,8314	   0,0308796	-160,4	   0,0308239	198,2
     42,8333	   0,0307407	-160,1	   0,0307187	197,5
     42,8353	   0,0305989	-157,1	   0,0306371	197,6
     42,8372	   0,0305599	-158,5	   0,0305657	199,2
     42,8392	   0,0304595	-159,7	   0,0304878	199,6
     42,8412	    0,030416	-160,2	      0,0303	198,3
     42,8431	   0,0302509	-157,8	   0,0302889	199,5
     42,8451	   0,0301756	-158,7	   0,0300906	-159,6
      42,847	   0,0301433	-158,5	   0,0299271	-158,4
      42,849	   0,0300216	-158,7	   0,0298346	-159,5
     42,8509	   0,0299856	-159,9	   0,0297189	-159,3
     42,8529	   0,0298698	-159,4	   0,0296222	-160,1
     42,8548	   0,0297949	-158,6	   0,0296424	-159,4
     42,8568	   0,0296835	-158,3	   0,0295761	-157,7
     42,8587	   0,0295622	-159,8	   0,0295437	-158,0
     42,8607	   0,0294889	-158,7	   0,0293994	-158,7
     42,8627	   0,0293756	-157,9	    0,029329	-159,9
     42,8646	   0,0292552	-157,6	   0,0292136	-159,1
     42,8666	   0,0291933	-156,0	   0,0291749	-159,4
     42,8685	    0,029098	-156,5	   0,0290652	-156,8
     42,8705	   0,0290351	-155,5	   0,0289273	-158,3
     42,8724	   0,0289082	-156,9	   0,0287995	-158,5
     42,8744	   0,0288707	-155,9	   0,0287441	-159,9
     42,8763	   0,0287525	-155,2	   0,0286534	-158,7
     42,8783	   0,0287194	-155,6	   0,0284957	-158,7
     42,8803	   0,0286254	-154,5	   0,0284351	-157,5
     42,8822	   0,0285452	-156,9	   0,0283809	-156,6
     42,8842	   0,0283708	-156,8	   0,0283193	-158,3
     42,8861	   0,0283747	-157,0	   0,0282289	-157,5
     42,8881	   0,0282643	-154,4	   0,0280828	-155,7
       42,89	   0,0282048	-156,3	   0,0280575	-155,1
      42,892	   0,0281621	-156,8	   0,0280271	-155,8
     42,8939	   0,0280118	-156,9	   0,0279449	-155,9
     42,8959	   0,0279693	-155,7	   0,0278421	-157,7
     42,8979	   0,0278497	-155,3	   0,0277931	-158,7
     42,8998	   0,0277386	-154,9	   0,0276621	-155,9
     42,9018	   0,0276286	-154,8	   0,0276225	-155,7
     42,9037	   0,0275471	-157,3	   0,0274493	-156,2
     42,9057	   0,0274293	-156,5	    0,027438	-156,7
     42,9076	   0,0273425	-152,7	   0,0273191	-156,8
     42,9096	   0,0272464	-153,3	   0,0272645	-156,8
     42,9115	   0,0271656	-152,1	   0,0272203	-155,8
     42,9135	   0,0271055	-154,7	   0,0271592	-155,4
     42,9154	   0,0270665	-154,0	   0,0271033	-154,5
     42,9174	   0,0269148	-154,7	   0,0269489	-156,7
     42,9194	   0,0268834	-155,4	   0,0267865	-156,3
     42,9213	    0,026876	-153,0	   0,0267275	-153,2
     42,9233	   0,0268581	-152,8	   0,0267122	-152,6
     42,9252	   0,0267162	-154,8	   0,0266259	-154,5
     42,9272	   0,0265967	-155,4	    0,026557	-153,0
     42,9291	   0,0264595	-153,5	   0,0264222	-154,4
     42,9311	   0,0264333	-153,5	   0,0264262	-154,4
      42,933	   0,0263054	-152,9	   0,0263405	-157,1
      42,935	   0,0262455	-152,2	   0,0262351	-152,6
      42,937	   0,0261688	-154,7	   0,0261632	-154,5
     42,9389	   0,0261702	-153,7	   0,0260918	-154,5
     42,9409	   0,0260574	-151,6	   0,0260201	-155,2
     42,9428	   0,0259239	-150,5	   0,0259927	-155,2
     42,9448	   0,0257737	-150,5	   0,0258627	-153,7
     42,9467	   0,0256667	-151,2	   0,0257835	-152,1
     42,9487	   0,0256907	-151,2	   0,0256571	-152,8
     42,9506	   0,0256272	-151,3	   0,0255706	-151,0
     42,9526	   0,0255603	-150,2	   0,0254913	-153,2
     42,9545	   0,0255185	-151,1	   0,0254119	-151,5
     42,9565	   0,0254302	-152,0	   0,0253832	-149,7
     42,9585	   0,0252753	-152,1	   0,0254058	-151,4
     42,9604	   0,0252026	-152,2	   0,0253023	-150,0
     42,9624	   0,0251372	-152,6	   0,0252178	-152,5
     42,9643	   0,0249895	-150,6	   0,0251219	-153,0
     42,9663	   0,0249687	-150,6	   0,0250377	-154,0
     42,9682	   0,0249705	-152,1	   0,0248993	-153,7
     42,9702	   0,0247999	-151,1	   0,0248373	-151,6
     42,9721	   0,0247569	-152,6	   0,0247825	-152,3
     42,9741	   0,0247029	-150,4	   0,0247131	-152,5
     42,9761	   0,0246645	-149,3	   0,0246371	-153,9
      42,978	   0,0246112	-149,2	   0,0245032	-152,6
       42,98	   0,0244811	-149,2	   0,0244199	-149,6
     42,9819	   0,0244185	-149,6	   0,0243534	-149,4
     42,9839	   0,0242802	-150,0	   0,0242847	-150,6
     42,9858	   0,0242045	-151,9	   0,0242148	-149,4
     42,9878	   0,0241354	-149,3	   0,0241951	-151,0
     42,9897	   0,0241031	-149,6	   0,0241557	-151,3
     42,9917	   0,0240454	-148,6	    0,024094	-153,1
     42,9936	   0,0240402	-151,2	   0,0241029	-150,6
     42,9956	   0,0239706	-151,0	   0,0239591	-149,9
     42,9976	     0,02388	-149,7	   0,0237913	-150,9
     42,9995	   0,0237946	-150,0	   0,0237311	-149,2
     43,0015	   0,0237021	-147,8	   0,0236308	-151,5
     43,0034	   0,0236103	-147,7	   0,0235322	-151,0
     43,0054	   0,0235012	-148,6	    0,023592	-147,8
     43,0073	   0,0234343	-149,5	   0,0235043	-147,2
     43,0093	   0,0233587	-149,5	   0,0234834	-148,4
     43,0112	   0,0233246	-149,8	   0,0234246	-148,5
     43,0132	   0,0233417	-148,0	   0,0234043	-149,5
     43,0152	   0,0232257	-147,8	   0,0233501	-148,8
     43,0171	   0,0231306	-149,4	   0,0233305	-148,0
     43,0191	   0,0230042	-149,1	   0,0232119	-149,1
      43,021	   0,0229021	-149,4	   0,0230928	-149,9
      43,023	   0,0228908	-149,6	   0,0230121	-149,5
     43,0249	   0,0229034	-147,6	   0,0228894	-150,9
     43,0269	   0,0227773	-146,8	    0,022778	-151,2
     43,0288	     0,02272	-148,0	   0,0227004	-150,4
     43,0308	   0,0226005	-147,7	   0,0226774	-148,0
     43,0327	   0,0225206	-148,2	   0,0226762	-146,0
     43,0347	   0,0225218	-146,9	   0,0226639	-147,4
     43,0367	   0,0225158	-148,6	   0,0225921	-147,9
     43,0386	   0,0224658	-146,5	   0,0224952	-148,2
     43,0406	   0,0223491	-148,1	   0,0224299	-148,4
     43,0425	   0,0222859	-148,4	   0,0223903	-149,8
     43,0445	   0,0222295	-149,2	   0,0222931	-147,4
     43,0464	   0,0221767	-148,9	   0,0221923	-148,5
     43,0484	   0,0221738	-147,9	   0,0221265	-149,7
     43,0503	   0,0220935	-146,6	   0,0220194	-147,4
     43,0523	   0,0220414	-145,7	   0,0219698	-148,8
     43,0543	   0,0219391	-143,7	   0,0219101	-147,7
     43,0562	   0,0218435	-146,8	   0,0218583	-146,4
     43,0582	   0,0217143	-147,3	   0,0218754	-145,7
     43,0601	   0,0216537	-145,8	   0,0217301	-147,6
     43,0621	   0,0215761	-144,8	    0,021693	-147,1
      43,064	   0,0215395	-145,7	   0,0215404	-146,7
      43,066	   0,0214052	-146,2	   0,0215647	-149,0
     43,0679	   0,0214138	-147,2	   0,0215008	-146,5
     43,0699	   0,0214301	-147,8	   0,0214713	-147,0
     43,0718	    0,021342	-147,2	    0,021365	-147,1
     43,0738	   0,0212677	-147,8	   0,0212916	-147,5
     43,0758	   0,0212116	-144,7	   0,0211498	-146,7
     43,0777	   0,0212371	-144,4	   0,0210981	-148,3
     43,0797	   0,0211725	-145,6	    0,021138	-146,1
     43,0816	   0,0211046	-144,9	    0,021086	-146,3
     43,0836	   0,0210094	-145,8	    0,021013	-144,3
     43,0855	   0,0210297	-147,0	   0,0209976	-145,1
     43,0875	   0,0208181	-144,8	   0,0210488	-145,7
     43,0894	   0,0207829	-145,2	   0,0209383	-148,9
     43,0914	   0,0207801	-145,3	   0,0208342	-147,5
     43,0934	   0,0205922	-145,8	   0,0207882	-147,6
     43,0953	   0,0205896	-147,4	   0,0207454	-147,4
     43,0973	   0,0204959	-145,7	   0,0206423	-144,3
     43,0992	   0,0205009	-146,1	   0,0206106	-145,3
     43,1012	   0,0205024	-144,6	   0,0205077	-146,5
     43,1031	   0,0203964	-143,7	   0,0203982	-146,4
     43,1051	   0,0203632	-142,6	   0,0203318	-145,9
      43,107	   0,0203072	-144,6	   0,0202563	-145,6
      43,109	   0,0202188	-144,9	   0,0202543	-143,5
     43,1109	   0,0200797	-144,8	   0,0201841	-145,2
     43,1129	   0,0200506	-145,9	   0,0200782	-144,8
     43,1149	   0,0200177	-144,0	   0,0200898	-146,1
     43,1168	   0,0199952	-144,9	   0,0199833	-147,0
     43,1188	   0,0199704	-145,6	   0,0200192	-146,2
     43,1207	   0,0198847	-144,4	   0,0200046	-145,2
     43,1227	   0,0198216	-143,8	   0,0199064	-144,7
     43,1246	   0,0198324	-144,4	   0,0199236	-143,8
     43,1266	   0,0196958	-143,0	   0,0198209	-143,2
     43,1285	   0,0196326	-142,2	   0,0197103	-145,3
     43,1305	   0,0195955	-141,7	   0,0196936	-144,7
     43,1325	   0,0195131	-142,9	   0,0196813	-145,0
     43,1344	   0,0194329	-144,1	    0,019565	-146,1
     43,1364	    0,019377	-145,2	   0,0194526	-146,5
     43,1383	   0,0194258	-145,3	   0,0193678	-144,8
     43,1403	   0,0193698	-143,3	   0,0193789	-143,0
     43,1422	   0,0192897	-142,1	   0,0192601	-144,3
     43,1442	   0,0190998	-143,2	   0,0193005	-142,6
     43,1461	   0,0190717	-141,2	   0,0192814	-145,0
     43,1481	   0,0190565	-143,7	   0,0192501	-143,7
       43,15	   0,0189943	-143,1	   0,0192363	-143,6
      43,152	   0,0189305	-142,9	   0,0191667	-143,8
      43,154	   0,0189085	-144,9	   0,0190925	-143,2
     43,1559	   0,0188795	-143,1	   0,0189347	-143,1
     43,1579	   0,0188615	-143,1	   0,0189402	-144,8
     43,1598	   0,0188621	-142,2	   0,0187936	-145,3
     43,1618	   0,0188552	-145,4	   0,0187414	-144,8
     43,1637	   0,0187819	-142,7	   0,0187633	-143,7
     43,1657	   0,0186053	-142,2	   0,0188155	-143,1
     43,1676	   0,0185122	-141,7	    0,018761	-141,7
     43,1696	   0,0185159	-143,4	   0,0186964	-142,9
     43,1716	    0,018523	-140,9	   0,0185509	-142,2
     43,1735	   0,0184759	-143,3	   0,0184175	-144,3
     43,1755	   0,0183602	-142,0	   0,0183474	-145,0
     43,1774	   0,0183404	-142,0	   0,0183705	-144,5
     43,1794	   0,0182958	-144,5	    0,018358	-143,3
     43,1813	   0,0182077	-144,1	   0,0183164	-142,1
     43,1833	   0,0181745	-142,0	    0,018296	-140,9
     43,1852	   0,0181477	-140,6	   0,0182504	-141,2
     43,1872	   0,0180415	-139,3	   0,0182671	-139,9
     43,1891	   0,0180358	-140,5	   0,0181207	-144,2
     43,1911	   0,0179188	-141,3	   0,0181332	-143,3
     43,1931	   0,0179099	-142,1	   0,0179785	-142,2
      43,195	   0,0179731	-142,9	   0,0178726	-143,5
      43,197	   0,0179893	-143,4	   0,0177972	-141,7
     43,1989	   0,0178323	-140,6	   0,0178358	-140,7
     43,2009	   0,0177309	-140,8	   0,0179133	-140,0
     43,2028	   0,0177092	-140,8	   0,0179077	-142,0
     43,2048	   0,0176935	-140,0	    0,017813	-141,3
     43,2067	   0,0177264	-142,5	   0,0176818	-143,0
     43,2087	   0,0176556	-141,6	   0,0176999	-142,8
     43,2107	   0,0175278	-142,2	   0,0176391	-141,3
     43,2126	   0,0174543	-141,3	   0,0176287	-142,5
     43,2146	   0,0174458	-142,7	   0,0175831	-142,1
     43,2165	   0,0174675	-141,2	   0,0175448	-140,1
     43,2185	   0,0173891	-140,2	   0,0174709	-142,8
     43,2204	   0,0173075	-141,5	   0,0173837	-142,0
     43,2224	   0,0172242	-139,4	   0,0173953	-141,5
     43,2243	   0,0172327	-141,8	   0,0173198	-141,8
     43,2263	   0,0171594	-140,6	   0,0172559	-140,9
     43,2282	   0,0171344	-140,2	   0,0172446	-140,2
     43,2302	   0,0170814	-140,3	   0,0170587	-140,7
     43,2322	   0,0170431	-140,3	   0,0170074	-140,4
     43,2341	   0,0170248	-140,6	   0,0170174	-142,0
     43,2361	   0,0169458	-141,8	    0,017087	-142,2
      43,238	   0,0168869	-140,7	   0,0170539	-143,0
       43,24	   0,0168792	-142,4	   0,0170132	-140,9
     43,2419	    0,016821	-141,1	   0,0169479	-139,6
     43,2439	   0,0168321	-139,7	   0,0169473	-140,7
     43,2458	    0,016798	-140,4	   0,0168287	-140,1
     43,2478	   0,0167009	-138,7	   0,0168673	-139,9
     43,2498	    0,016698	-140,1	   0,0169017	-140,4
     43,2517	   0,0166955	-141,4	   0,0167716	-141,7
     43,2537	   0,0167034	-140,8	   0,0167355	-141,7
     43,2556	   0,0165809	-139,6	     0,01654	-142,5
     43,2576	   0,0165715	-140,6	   0,0164894	-140,1
     43,2595	   0,0164893	-139,6	   0,0164695	-140,2
     43,2615	    0,016419	-139,0	   0,0165121	-138,2
     43,2634	    0,016365	-140,0	   0,0165465	-139,3
     43,2654	   0,0162766	-137,9	   0,0164396	-140,5
     43,2673	   0,0162445	-139,7	   0,0163826	-140,7
     43,2693	    0,016289	-141,8	   0,0163519	-141,2
     43,2713	   0,0162484	-140,4	   0,0162871	-140,1
     43,2732	   0,0162516	-140,6	   0,0162418	-138,8
     43,2752	   0,0162087	-140,6	   0,0162188	-139,5
     43,2771	   0,0161046	-138,6	   0,0161987	-137,8
     43,2791	   0,0160038	-138,9	   0,0162358	-138,6
      43,281	   0,0159784	-138,6	     0,01609	-139,8
      43,283	   0,0160067	-139,4	   0,0160481	-139,8
     43,2849	   0,0159478	-139,5	   0,0160164	-140,1
     43,2869	    0,015954	-139,3	   0,0159978	-140,6
     43,2889	   0,0158957	-140,9	   0,0158718	-139,1
     43,2908	   0,0158432	-138,3	   0,0157629	-140,2
     43,2928	   0,0157603	-138,6	   0,0158182	-137,1
     43,2947	   0,0156897	-138,5	   0,0158169	-140,3
     43,2967	   0,0157339	-137,9	   0,0157592	-139,6
     43,2986	    0,015734	-138,6	   0,0157225	-138,9
     43,3006	   0,0156441	-139,2	   0,0158132	-140,8
     43,3025	      0,0156	-138,4	   0,0157399	-140,4
     43,3045	   0,0154879	-140,3	   0,0156058	-140,0
     43,3064	   0,0154435	-139,6	    0,015504	-139,5
     43,3084	   0,0154784	-139,9	   0,0154702	-140,0
     43,3104	   0,0154299	-139,2	   0,0154333	-138,3
     43,3123	   0,0154058	-138,0	   0,0154378	-139,5
     43,3143	   0,0154094	-138,9	   0,0154202	-139,2
     43,3162	   0,0153227	-138,2	   0,0154601	-139,1
     43,3182	   0,0152267	-138,0	    0,015434	-136,6
     43,3201	   0,0152252	-140,6	   0,0153667	-137,9
     43,3221	   0,0151237	-138,0	   0,0152869	-139,7
      43,324	   0,0151663	-139,5	   0,0151173	-140,4
      43,326	   0,0151269	-138,8	   0,0151117	-138,1
      43,328	    0,015069	-137,2	   0,0151566	-139,8
     43,3299	   0,0151061	-138,2	   0,0151429	-138,0
     43,3319	    0,015004	-136,0	      0,0151	-137,9
     43,3338	   0,0149193	-137,2	   0,0150765	-138,1
     43,3358	   0,0148484	-137,8	   0,0150773	-137,9
     43,3377	   0,0147114	-138,4	   0,0149934	-136,5
     43,3397	   0,0147505	-137,7	   0,0149488	-138,4
     43,3416	   0,0148312	-138,0	   0,0149299	-138,8
     43,3436	   0,0147617	-138,8	   0,0148565	-140,1
     43,3456	   0,0147084	-138,4	   0,0148792	-140,2
     43,3475	   0,0147883	-140,1	   0,0147187	-139,1
     43,3495	   0,0147368	-137,3	   0,0146714	-137,9
     43,3514	   0,0147112	-137,8	   0,0146243	-136,3
     43,3534	   0,0146687	-137,7	   0,0145842	-136,8
     43,3553	   0,0146037	-136,8	   0,0145529	-137,9
     43,3573	   0,0145341	-137,6	   0,0145994	-138,2
     43,3592	   0,0144643	-137,7	   0,0145783	-140,0
     43,3612	   0,0144539	-137,9	    0,014559	-139,1
     43,3631	   0,0145227	-138,9	   0,0144819	-138,3
     43,3651	   0,0144797	-138,7	   0,0144961	-137,4
     43,3671	    0,014389	-137,8	   0,0144169	-136,2
      43,369	    0,014372	-137,3	   0,0144284	-137,3
      43,371	    0,014262	-135,3	    0,014383	-135,9
     43,3729	   0,0142074	-136,2	   0,0143543	-138,2
     43,3749	   0,0141856	-137,7	   0,0142776	-138,1
     43,3768	   0,0141872	-138,8	   0,0142618	-137,9
     43,3788	   0,0142536	-139,0	   0,0142414	-138,9
     43,3807	   0,0142194	-138,2	    0,014203	-138,0
     43,3827	   0,0140842	-138,5	   0,0141264	-136,6
     43,3847	   0,0139705	-136,9	   0,0141209	-136,8
     43,3866	   0,0139775	-135,3	   0,0141565	-136,2
     43,3886	   0,0140492	-136,2	   0,0141413	-137,7
     43,3905	   0,0140802	-135,4	   0,0140763	-138,1
     43,3925	   0,0140725	-136,2	     0,01395	-136,1
     43,3944	   0,0139691	-138,1	   0,0139044	-137,6
     43,3964	   0,0138206	-138,2	   0,0139197	-136,5
     43,3983	    0,013829	-136,5	   0,0139337	-137,8
     43,4003	   0,0138626	-137,5	   0,0139921	-138,0
     43,4022	   0,0138572	-137,4	   0,0139334	-138,9
     43,4042	   0,0136994	-135,7	   0,0138205	-138,5
     43,4062	   0,0137151	-137,4	   0,0137316	-137,3
     43,4081	   0,0137221	-137,2	   0,0136383	-135,0
     43,4101	   0,0137097	-136,7	   0,0136391	-135,0
      43,412	   0,0136903	-136,9	   0,0136442	-135,6
      43,414	   0,0136161	-135,8	   0,0136199	-136,4
     43,4159	   0,0135607	-134,9	   0,0136065	-138,0
     43,4179	   0,0136194	-136,5	   0,0135591	-135,1
     43,4198	   0,0135271	-137,2	   0,0135058	-138,2
     43,4218	   0,0134896	-138,1	   0,0135441	-137,9
     43,4238	   0,0134761	-136,6	   0,0135271	-137,8
     43,4257	   0,0134183	-136,4	   0,0134001	-135,7
     43,4277	   0,0133643	-134,7	   0,0134019	-137,0
     43,4296	   0,0133356	-134,4	   0,0134863	-138,0
     43,4316	   0,0132595	-135,1	   0,0133273	-135,9
     43,4335	   0,0132789	-136,5	    0,013302	-134,8
     43,4355	   0,0134202	-135,6	    0,013374	-135,7
     43,4374	   0,0132672	-137,2	   0,0132947	-135,5
     43,4394	   0,0132735	-135,7	   0,0132849	-136,2
     43,4413	   0,0132141	-136,2	   0,0133194	-137,0
     43,4433	   0,0130833	-135,5	    0,013261	-137,8
     43,4453	   0,0132685	-136,4	   0,0131428	-137,6
     43,4472	   0,0132798	-134,4	   0,0130625	-137,8
     43,4492	   0,0131814	-135,6	   0,0129622	-136,3
     43,4511	     0,01303	-134,9	   0,0130885	-134,6
     43,4531	   0,0129715	-134,7	   0,0130438	-134,8
      43,455	   0,0130099	-134,3	   0,0130153	-135,0
      43,457	   0,0130771	-135,1	   0,0130001	-135,6
     43,4589	   0,0129967	-134,9	   0,0129971	-136,9
     43,4609	   0,0129336	-136,6	     0,01292	-136,0
     43,4629	   0,0129097	-136,4	   0,0128358	-136,8
     43,4648	   0,0127925	-137,9	   0,0128002	-135,8
     43,4668	   0,0128299	-135,4	   0,0127633	-136,3
     43,4687	   0,0127356	-135,7	   0,0127859	-137,8
     43,4707	   0,0127451	-135,4	   0,0127749	-135,9
     43,4726	   0,0127477	-134,3	   0,0127171	-136,3
     43,4746	   0,0127632	-136,2	   0,0126311	-134,2
     43,4765	   0,0127842	-134,7	    0,012593	-133,6
     43,4785	   0,0128017	-134,1	   0,0126506	-133,7
     43,4804	   0,0127205	-135,6	    0,012699	-134,4
     43,4824	   0,0126015	-133,4	   0,0126763	-135,6
     43,4844	   0,0124926	-135,8	   0,0125391	-137,0
     43,4863	   0,0124842	-135,5	   0,0124591	-137,3
     43,4883	   0,0125111	-137,4	   0,0125168	-135,8
     43,4902	   0,0125677	-137,1	   0,0124121	-136,2
     43,4922	   0,0124412	-136,2	   0,0124128	-135,0
     43,4941	   0,0124339	-134,7	   0,0124345	-137,6
     43,4961	   0,0124134	-134,0	   0,0123734	-134,9
      43,498	   0,0123414	-135,0	    0,012379	-135,5
        43,5	   0,0123714	-135,6	   0,0123573	-134,9

