X-Data [Hz]	Laser (M - Filtered) [m/s]	Phase [Deg]	Laser (M - Filtered) [m/s]	Phase [Deg]	
	003: [06-27-24 09:28]		004: [06-27-24 09:31]	
         145	  0,00700792	59,0	   0,0073139	57,1
     145,029	  0,00768583	52,4	  0,00817997	56,2
     145,059	  0,00777508	55,3	  0,00773709	62,0
     145,088	   0,0080998	58,8	  0,00793711	50,9
     145,117	  0,00853162	59,3	  0,00755634	57,7
     145,147	  0,00884526	57,9	  0,00750207	54,0
     145,176	  0,00884797	56,5	  0,00750455	60,4
     145,205	  0,00842954	57,0	  0,00826662	57,1
     145,235	  0,00822675	57,6	  0,00837333	54,8
     145,264	  0,00831568	56,3	   0,0083354	55,4
     145,293	   0,0086771	56,7	  0,00772108	58,0
     145,323	  0,00895693	55,5	  0,00800014	60,3
     145,352	  0,00901813	56,0	   0,0077795	57,3
     145,381	  0,00841889	57,3	  0,00807119	55,4
     145,411	   0,0082897	57,6	  0,00878458	58,3
      145,44	  0,00871261	55,7	  0,00794253	57,0
     145,469	  0,00902683	60,1	  0,00798475	50,7
     145,499	  0,00918696	54,9	  0,00793486	59,1
     145,528	  0,00833488	55,8	  0,00808761	57,8
     145,557	  0,00854784	54,1	   0,0084093	57,6
     145,587	  0,00918205	57,4	  0,00832266	58,8
     145,616	  0,00918576	60,1	   0,0080857	58,8
     145,645	  0,00885737	58,3	  0,00811062	56,8
     145,674	  0,00899169	55,9	  0,00872695	58,2
     145,704	   0,0092739	52,5	  0,00858125	58,5
     145,733	  0,00910187	55,9	  0,00813618	53,4
     145,762	  0,00866994	57,9	  0,00812934	59,9
     145,792	  0,00863109	60,0	  0,00851805	61,3
     145,821	  0,00953614	58,6	  0,00868968	58,3
      145,85	  0,00948731	58,3	  0,00836919	56,6
      145,88	  0,00890726	58,4	   0,0082292	56,4
     145,909	   0,0092366	55,8	  0,00870932	60,6
     145,938	  0,00980606	55,0	  0,00859299	54,4
     145,968	  0,00913215	59,6	  0,00841326	54,9
     145,997	  0,00877756	57,9	  0,00835926	57,6
     146,026	  0,00961325	59,3	   0,0089297	55,2
     146,056	  0,00915256	58,0	  0,00855689	56,9
     146,085	   0,0091428	52,9	  0,00851343	57,0
     146,114	  0,00955865	53,9	  0,00924259	54,5
     146,144	  0,00923513	55,9	   0,0089418	54,6
     146,173	  0,00888995	54,3	  0,00825657	57,7
     146,202	  0,00929861	57,2	   0,0090563	55,0
     146,232	  0,00923659	61,8	  0,00897655	54,5
     146,261	  0,00917734	59,6	  0,00851384	52,3
      146,29	  0,00993393	57,4	  0,00896388	54,2
      146,32	  0,00956517	55,7	  0,00898375	57,2
     146,349	  0,00941512	55,9	  0,00845079	60,9
     146,378	  0,00990157	55,3	  0,00920666	56,5
     146,408	  0,00908523	56,7	  0,00882948	57,5
     146,437	  0,00950393	56,6	  0,00849157	56,8
     146,466	  0,00986966	58,7	   0,0092516	55,6
     146,496	  0,00929555	54,8	  0,00893255	54,9
     146,525	   0,0101563	54,7	  0,00894876	57,4
     146,554	  0,00966101	57,5	  0,00958015	55,6
     146,584	  0,00989526	53,2	  0,00891558	58,0
     146,613	   0,0100604	55,3	  0,00934144	56,2
     146,642	  0,00980963	55,4	  0,00930065	53,5
     146,672	   0,0103569	54,5	  0,00899107	56,7
     146,701	  0,00973909	54,1	  0,00949581	60,0
      146,73	   0,0102818	55,3	  0,00885974	55,1
      146,76	  0,00991017	59,1	  0,00965253	54,2
     146,789	   0,0100021	55,0	  0,00907368	56,9
     146,818	  0,00993084	60,7	  0,00956788	56,6
     146,848	  0,00984256	56,5	  0,00924349	58,2
     146,877	   0,0103058	57,7	   0,0091774	60,0
     146,906	  0,00985277	56,5	  0,00975406	55,1
     146,935	   0,0103468	59,9	  0,00917174	60,1
     146,965	  0,00970174	58,8	  0,00969468	56,4
     146,994	   0,0102657	59,8	  0,00921716	56,2
     147,023	  0,00979072	56,7	  0,00992725	54,5
     147,053	   0,0107617	53,8	  0,00948882	54,4
     147,082	   0,0103199	55,7	  0,00980203	57,7
     147,111	   0,0107502	58,9	   0,0093077	56,6
     147,141	  0,00992095	59,4	  0,00987909	57,9
      147,17	   0,0106503	56,1	  0,00958085	58,5
     147,199	  0,00997689	54,9	  0,00983142	59,4
     147,229	   0,0106192	57,6	  0,00963325	57,5
     147,258	   0,0101545	58,3	  0,00996428	57,6
     147,287	   0,0109312	56,7	  0,00962455	60,1
     147,317	   0,0105441	55,4	   0,0101799	58,4
     147,346	   0,0107808	57,2	  0,00974645	55,9
     147,375	   0,0105761	59,2	    0,010429	57,9
     147,405	   0,0105194	57,0	   0,0098609	59,1
     147,434	    0,010957	58,6	   0,0106052	54,1
     147,463	   0,0104254	58,5	   0,0098771	51,3
     147,493	   0,0110969	59,3	   0,0105012	55,9
     147,522	   0,0106658	57,3	  0,00976229	55,9
     147,551	   0,0113327	59,2	   0,0104211	55,8
     147,581	    0,011036	56,8	  0,00985784	56,7
      147,61	   0,0108179	57,3	   0,0101067	56,2
     147,639	   0,0109469	57,4	    0,010304	58,0
     147,669	   0,0106218	56,7	  0,00998107	55,2
     147,698	   0,0113446	59,0	   0,0108782	56,6
     147,727	   0,0108531	56,0	   0,0100325	61,2
     147,757	   0,0109766	55,9	   0,0104741	56,1
     147,786	   0,0111909	60,0	   0,0102063	58,8
     147,815	   0,0105925	57,2	   0,0103298	55,3
     147,845	   0,0114099	55,1	   0,0107036	57,1
     147,874	   0,0114939	56,3	   0,0100233	55,9
     147,903	   0,0108621	56,7	   0,0105895	56,9
     147,933	   0,0116243	55,1	   0,0105577	57,6
     147,962	   0,0111442	57,3	    0,010051	57,8
     147,991	   0,0112911	58,1	   0,0107564	54,4
     148,021	   0,0116691	58,7	   0,0109428	56,6
      148,05	   0,0115148	55,6	   0,0106828	56,0
     148,079	   0,0112891	60,3	   0,0112565	52,9
     148,109	   0,0119005	59,8	   0,0102796	60,1
     148,138	   0,0113468	55,7	   0,0104933	57,1
     148,167	    0,011146	56,3	   0,0109662	56,7
     148,196	   0,0116647	57,9	    0,010781	58,9
     148,226	   0,0117492	57,5	   0,0108033	54,6
     148,255	   0,0114462	57,6	    0,011149	57,7
     148,284	   0,0119511	58,9	   0,0108189	58,9
     148,314	   0,0119944	55,7	   0,0106577	58,2
     148,343	   0,0116842	54,9	   0,0113093	57,7
     148,372	   0,0115558	57,2	   0,0111335	56,3
     148,402	   0,0121085	59,3	    0,010726	56,3
     148,431	   0,0123465	54,9	   0,0114234	57,4
      148,46	   0,0116397	60,9	   0,0115527	58,6
      148,49	   0,0123331	58,0	   0,0108252	60,6
     148,519	    0,012595	57,1	   0,0112307	56,4
     148,548	   0,0121646	57,9	   0,0116945	57,6
     148,578	   0,0116774	58,0	   0,0112627	58,2
     148,607	   0,0124591	56,2	   0,0111952	54,6
     148,636	   0,0125794	56,0	   0,0113241	55,6
     148,666	   0,0124528	56,5	   0,0113187	59,1
     148,695	   0,0121259	59,1	   0,0115894	59,1
     148,724	   0,0121329	56,7	   0,0113274	54,0
     148,754	   0,0125418	58,3	   0,0114196	55,8
     148,783	   0,0129765	53,6	   0,0118189	57,0
     148,812	   0,0123445	56,9	   0,0119197	57,1
     148,842	   0,0120778	56,6	   0,0110113	57,0
     148,871	     0,01271	58,4	   0,0115431	57,7
       148,9	   0,0129066	56,9	   0,0118622	56,8
      148,93	   0,0131799	57,4	   0,0120273	56,2
     148,959	   0,0128577	57,9	   0,0117149	57,9
     148,988	   0,0126072	57,7	   0,0118913	57,6
     149,018	    0,012608	59,4	   0,0117882	55,9
     149,047	   0,0127686	58,4	   0,0118993	59,6
     149,076	   0,0132569	55,5	   0,0122216	54,4
     149,106	   0,0133509	55,9	   0,0121406	55,1
     149,135	   0,0131299	57,9	   0,0119191	56,9
     149,164	   0,0134503	54,6	   0,0121409	56,7
     149,194	   0,0126894	61,0	   0,0121906	53,6
     149,223	    0,013424	55,8	   0,0124233	57,7
     149,252	   0,0131494	62,8	   0,0126449	54,1
     149,282	   0,0139016	55,6	   0,0121473	59,5
     149,311	    0,013623	59,5	     0,01251	56,6
      149,34	   0,0137203	55,1	    0,012138	59,4
      149,37	   0,0136254	57,4	   0,0123415	56,1
     149,399	   0,0136069	56,5	    0,012528	57,6
     149,428	   0,0136348	55,4	   0,0124201	57,1
     149,457	   0,0136792	58,8	    0,012867	56,6
     149,487	   0,0135153	57,3	    0,012672	59,5
     149,516	   0,0139177	61,1	    0,013084	53,4
     149,545	   0,0141063	53,5	   0,0124344	59,9
     149,575	   0,0138649	56,5	   0,0131974	56,1
     149,604	   0,0144146	55,8	   0,0126212	58,5
     149,633	    0,014485	55,9	   0,0129834	54,8
     149,663	   0,0143639	56,1	   0,0127136	57,2
     149,692	   0,0144247	55,9	   0,0128509	57,1
     149,721	   0,0144703	56,7	   0,0126647	56,6
     149,751	    0,014321	60,8	   0,0131002	56,4
      149,78	   0,0146208	56,1	   0,0130621	55,2
     149,809	   0,0144468	57,5	   0,0127037	58,2
     149,839	   0,0142836	58,1	    0,013447	58,0
     149,868	   0,0147276	55,0	   0,0131303	59,6
     149,897	   0,0145615	57,1	   0,0136885	51,8
     149,927	    0,014771	56,7	   0,0132307	57,9
     149,956	   0,0148052	55,7	   0,0135401	56,4
     149,985	   0,0148373	55,8	   0,0133332	56,5
     150,015	   0,0149582	56,5	   0,0133737	54,0
     150,044	   0,0149408	58,0	   0,0137518	56,8
     150,073	    0,015109	57,1	   0,0136134	55,7
     150,103	    0,015471	58,4	   0,0137244	56,9
     150,132	   0,0153166	56,4	    0,013735	57,8
     150,161	   0,0153427	58,2	   0,0139526	57,1
     150,191	   0,0155643	55,4	   0,0140459	57,3
      150,22	   0,0155218	54,8	   0,0141389	58,7
     150,249	   0,0154476	54,6	   0,0139056	56,2
     150,279	   0,0158018	57,2	   0,0143773	57,9
     150,308	   0,0155812	56,8	   0,0142066	57,2
     150,337	   0,0158523	57,7	   0,0142584	57,2
     150,367	   0,0158473	57,0	   0,0144785	57,6
     150,396	   0,0159045	55,4	   0,0143265	57,9
     150,425	   0,0162773	57,9	   0,0147551	58,8
     150,455	      0,0166	55,8	   0,0142686	58,3
     150,484	   0,0162004	55,3	   0,0143908	54,1
     150,513	   0,0163176	56,1	   0,0145381	58,7
     150,543	   0,0165196	56,8	   0,0144135	55,8
     150,572	   0,0164088	56,4	   0,0147267	56,7
     150,601	   0,0161282	55,8	   0,0145228	58,4
      150,63	   0,0162699	59,7	   0,0146785	58,8
      150,66	   0,0166595	60,0	   0,0150643	57,8
     150,689	   0,0167159	56,0	   0,0151061	56,3
     150,718	   0,0168624	55,3	   0,0147999	56,0
     150,748	   0,0168859	56,9	   0,0153158	55,6
     150,777	   0,0169692	58,2	   0,0150432	56,5
     150,806	   0,0173262	56,4	   0,0151317	57,0
     150,836	   0,0166365	55,8	   0,0150668	57,6
     150,865	    0,016474	58,0	   0,0151787	58,3
     150,894	   0,0169826	57,1	   0,0155484	54,7
     150,924	   0,0176986	57,3	   0,0156828	59,5
     150,953	   0,0179331	56,6	   0,0154297	57,7
     150,982	   0,0173032	56,8	   0,0158099	58,2
     151,012	   0,0172736	57,0	   0,0153107	60,4
     151,041	   0,0175762	60,0	   0,0158288	57,0
      151,07	   0,0182074	58,0	   0,0163342	55,2
       151,1	   0,0180437	57,6	   0,0159196	57,6
     151,129	   0,0179284	55,0	   0,0156341	59,1
     151,158	   0,0178779	57,5	   0,0153168	56,2
     151,188	   0,0178664	56,7	   0,0161569	55,5
     151,217	   0,0188756	56,3	   0,0167104	57,2
     151,246	   0,0183498	57,6	   0,0162875	57,6
     151,276	   0,0179823	57,0	   0,0161219	58,2
     151,305	   0,0179763	59,2	   0,0163264	56,5
     151,334	   0,0184883	57,1	   0,0167929	56,8
     151,364	    0,019101	58,4	   0,0168356	56,9
     151,393	   0,0187615	55,8	   0,0165324	57,8
     151,422	   0,0186191	59,8	   0,0165772	57,8
     151,452	   0,0191776	56,6	   0,0173394	57,5
     151,481	   0,0196949	55,9	    0,017489	58,7
      151,51	   0,0194757	55,5	   0,0168655	58,7
      151,54	   0,0194213	54,8	   0,0167424	56,6
     151,569	   0,0197769	56,7	   0,0170995	58,1
     151,598	   0,0197181	58,3	    0,017822	57,0
     151,628	   0,0195382	56,0	   0,0174077	58,3
     151,657	    0,020022	58,4	   0,0171324	57,1
     151,686	   0,0202115	57,3	   0,0179263	58,2
     151,716	   0,0194875	55,8	   0,0177581	59,8
     151,745	   0,0202547	56,9	   0,0175715	58,1
     151,774	   0,0207039	55,3	   0,0176861	56,9
     151,804	   0,0200527	58,2	   0,0179071	58,8
     151,833	   0,0205154	59,4	   0,0180091	58,6
     151,862	   0,0210575	55,1	   0,0183665	55,8
     151,891	   0,0201311	56,1	   0,0186405	59,5
     151,921	   0,0205574	60,3	    0,018143	60,1
      151,95	   0,0214822	56,7	   0,0185206	58,1
     151,979	   0,0205963	59,0	   0,0185876	59,6
     152,009	   0,0213841	57,8	   0,0182741	55,8
     152,038	   0,0215015	56,0	   0,0189983	58,4
     152,067	   0,0207876	56,2	   0,0190597	57,6
     152,097	   0,0215869	58,9	   0,0188172	57,6
     152,126	   0,0215544	53,7	   0,0192084	55,9
     152,155	   0,0218944	59,0	   0,0189362	56,4
     152,185	   0,0222407	57,1	   0,0190835	57,1
     152,214	   0,0216661	59,1	   0,0197858	58,5
     152,243	   0,0227797	59,4	   0,0193093	57,6
     152,273	   0,0225901	57,4	   0,0198257	56,2
     152,302	   0,0226586	57,4	   0,0194461	54,6
     152,331	   0,0234731	58,1	    0,019512	55,3
     152,361	   0,0228255	57,4	   0,0202101	58,6
      152,39	   0,0233481	59,2	   0,0197505	55,1
     152,419	   0,0230715	56,0	   0,0208546	54,4
     152,449	   0,0238142	60,0	   0,0201548	59,4
     152,478	   0,0239998	58,0	   0,0207959	59,5
     152,507	   0,0239161	56,5	   0,0208443	58,2
     152,537	   0,0246009	56,3	   0,0205026	59,8
     152,566	   0,0238136	59,4	   0,0210162	56,4
     152,595	   0,0244485	56,6	   0,0205609	56,3
     152,625	   0,0237747	57,3	   0,0218709	56,6
     152,654	   0,0250479	59,3	   0,0211506	55,6
     152,683	   0,0245426	59,6	   0,0215704	59,7
     152,713	   0,0254293	55,5	   0,0214147	54,9
     152,742	   0,0251907	57,1	   0,0218955	57,2
     152,771	   0,0264674	56,9	   0,0221457	57,8
     152,801	   0,0254109	57,9	   0,0222654	56,4
      152,83	   0,0264077	58,5	   0,0224742	57,9
     152,859	   0,0256053	57,5	   0,0224434	58,3
     152,889	   0,0265115	56,8	   0,0222315	57,0
     152,918	   0,0256926	58,5	   0,0222349	58,0
     152,947	   0,0271968	58,5	   0,0225577	59,2
     152,977	   0,0268244	60,2	   0,0227354	56,2
     153,006	   0,0273824	55,0	   0,0226745	58,5
     153,035	   0,0266575	56,7	   0,0231255	57,2
     153,065	   0,0274618	56,3	    0,022855	59,4
     153,094	   0,0280288	58,2	   0,0236913	55,7
     153,123	   0,0277203	58,6	   0,0234162	57,0
     153,152	   0,0283445	58,8	   0,0244853	58,4
     153,182	   0,0278889	55,3	   0,0238345	56,6
     153,211	   0,0290549	58,2	   0,0244104	57,3
      153,24	   0,0284803	59,3	   0,0240532	56,1
      153,27	   0,0295713	56,6	   0,0246822	58,9
     153,299	   0,0290178	61,4	   0,0246097	54,6
     153,328	   0,0292783	55,4	   0,0247168	58,6
     153,358	   0,0304045	57,6	   0,0250343	58,2
     153,387	   0,0297792	59,6	   0,0243835	60,1
     153,416	   0,0310407	56,4	   0,0258183	59,7
     153,446	   0,0303996	58,3	   0,0253169	59,7
     153,475	   0,0309836	56,0	   0,0260539	58,3
     153,504	   0,0319616	57,0	   0,0263042	58,5
     153,534	   0,0313351	61,0	   0,0259027	60,3
     153,563	   0,0321668	57,7	   0,0267987	56,8
     153,592	   0,0327919	60,4	   0,0265896	58,8
     153,622	   0,0313244	60,3	   0,0266196	59,8
     153,651	   0,0324412	59,6	    0,027679	57,5
      153,68	   0,0337298	59,7	   0,0268041	60,7
      153,71	   0,0326383	59,8	   0,0275623	58,1
     153,739	   0,0339798	56,3	   0,0275478	55,0
     153,768	   0,0344112	59,7	   0,0273011	56,9
     153,798	   0,0337579	60,9	   0,0283501	59,4
     153,827	   0,0348842	57,4	   0,0281998	58,5
     153,856	   0,0349621	60,8	   0,0279146	60,8
     153,886	   0,0348216	60,3	   0,0290245	60,8
     153,915	   0,0360146	58,6	   0,0292634	54,8
     153,944	   0,0366847	59,9	   0,0283452	58,8
     153,974	   0,0352177	60,6	   0,0300274	59,5
     154,003	   0,0372816	57,3	   0,0304199	58,1
     154,032	   0,0376961	59,7	   0,0294963	57,5
     154,062	   0,0370925	62,0	   0,0302509	61,0
     154,091	   0,0374207	60,6	   0,0309143	57,5
      154,12	   0,0389901	58,1	   0,0299865	58,0
      154,15	   0,0391014	59,8	   0,0304301	60,7
     154,179	   0,0390236	61,6	   0,0319589	59,2
     154,208	   0,0388593	59,6	   0,0327827	58,3
     154,238	   0,0404869	58,8	   0,0317294	58,1
     154,267	   0,0409769	61,5	    0,031685	60,5
     154,296	    0,041329	61,1	   0,0337089	59,7
     154,326	   0,0415663	61,7	   0,0332928	56,4
     154,355	    0,042518	56,4	   0,0324125	59,3
     154,384	   0,0429387	58,0	   0,0336257	60,6
     154,413	   0,0431833	61,7	   0,0343014	59,7
     154,443	   0,0439583	63,5	    0,034371	58,3
     154,472	   0,0438168	61,6	   0,0342185	56,5
     154,501	    0,045431	61,7	   0,0349428	60,1
     154,531	   0,0450105	60,6	   0,0359212	58,9
      154,56	   0,0462255	58,9	   0,0367853	56,3
     154,589	   0,0458636	60,9	   0,0360371	55,3
     154,619	    0,046741	62,0	   0,0362493	60,2
     154,648	    0,047393	59,7	   0,0362128	59,0
     154,677	   0,0488966	60,1	   0,0371479	60,8
     154,707	   0,0496569	59,7	   0,0384331	60,7
     154,736	   0,0493529	61,0	    0,038495	55,1
     154,765	   0,0500202	60,5	   0,0384331	55,7
     154,795	   0,0499169	62,7	    0,038319	59,8
     154,824	   0,0522127	59,4	   0,0393967	58,5
     154,853	   0,0518246	59,7	   0,0402143	58,6
     154,883	   0,0532293	61,0	   0,0403769	57,2
     154,912	   0,0538036	59,3	   0,0405308	59,3
     154,941	    0,054308	58,8	   0,0410801	57,3
     154,971	   0,0544703	61,3	   0,0414109	58,5
         155	   0,0562164	65,7	   0,0418971	61,3
     155,029	   0,0571595	62,0	   0,0425952	61,0
     155,059	   0,0578368	60,5	   0,0432089	59,3
     155,088	   0,0589813	62,0	   0,0439221	60,3
     155,117	    0,060143	60,4	   0,0446703	59,1
     155,147	   0,0603316	62,6	   0,0449563	57,9
     155,176	   0,0627455	63,0	   0,0456887	58,0
     155,205	   0,0622319	63,5	   0,0458421	59,3
     155,235	   0,0638276	61,2	   0,0464241	62,1
     155,264	   0,0644532	64,1	   0,0474031	62,1
     155,293	   0,0660485	64,6	   0,0480777	60,0
     155,323	   0,0667329	61,6	   0,0490569	61,3
     155,352	   0,0677436	63,0	   0,0498236	61,3
     155,381	    0,068695	63,5	   0,0503635	60,6
     155,411	   0,0694724	64,1	   0,0507481	61,9
      155,44	   0,0712603	65,3	   0,0512458	59,0
     155,469	   0,0720276	65,1	   0,0525758	57,4
     155,499	   0,0731309	63,3	    0,052772	61,1
     155,528	   0,0750322	64,7	    0,053949	59,1
     155,557	   0,0760083	65,0	   0,0552508	59,0
     155,587	   0,0772093	64,5	   0,0560377	57,8
     155,616	   0,0791824	65,1	   0,0561332	60,5
     155,645	   0,0801089	66,3	   0,0584237	62,2
     155,674	   0,0819397	65,7	   0,0576482	60,6
     155,704	    0,083148	65,1	   0,0593046	61,8
     155,733	   0,0854028	66,8	   0,0591481	59,5
     155,762	   0,0864485	65,6	   0,0609073	61,5
     155,792	   0,0881405	65,9	   0,0627772	61,5
     155,821	   0,0892794	67,3	   0,0627459	62,2
      155,85	   0,0906163	68,1	   0,0640163	61,2
      155,88	   0,0918725	67,7	   0,0654742	62,8
     155,909	   0,0946567	67,3	    0,067023	61,5
     155,938	   0,0962191	66,9	   0,0680552	61,2
     155,968	   0,0974202	63,7	   0,0688391	61,4
     155,997	   0,0988445	69,3	   0,0700107	62,5
     156,026	    0,102536	67,5	   0,0714298	62,5
     156,056	    0,103563	66,6	   0,0724552	63,0
     156,085	    0,105604	68,4	   0,0745444	60,9
     156,114	    0,106943	67,7	   0,0754976	62,7
     156,144	    0,108098	68,4	   0,0763937	62,6
     156,173	    0,110588	66,0	   0,0787356	63,8
     156,202	    0,112071	72,4	   0,0798224	65,5
     156,232	     0,11416	69,8	   0,0807898	64,5
     156,261	    0,115934	68,6	   0,0821401	61,3
      156,29	    0,118178	71,2	    0,083491	65,0
      156,32	    0,120155	70,2	   0,0855462	63,0
     156,349	    0,122164	71,5	   0,0879327	63,3
     156,378	    0,124671	71,8	    0,088501	62,5
     156,408	     0,12682	70,0	   0,0905809	64,1
     156,437	    0,127503	68,5	   0,0923622	64,6
     156,466	    0,130804	74,4	   0,0933489	67,3
     156,496	    0,133017	68,3	   0,0945218	67,0
     156,525	    0,134867	70,7	   0,0967882	65,6
     156,554	    0,138012	71,2	   0,0984443	63,7
     156,584	    0,138266	68,4	     0,10033	66,0
     156,613	      0,1403	70,1	    0,102433	62,6
     156,642	    0,141739	69,7	    0,104703	64,0
     156,672	    0,143545	75,0	    0,105974	65,3
     156,701	     0,14824	71,3	    0,107662	66,8
      156,73	    0,148876	70,3	    0,110386	66,2
      156,76	    0,150877	71,5	    0,112236	63,9
     156,789	    0,152322	73,8	    0,113196	65,9
     156,818	    0,155078	71,3	    0,115781	65,5
     156,848	    0,157228	69,8	    0,117294	67,1
     156,877	    0,157905	72,3	     0,11942	67,2
     156,906	    0,159689	72,9	    0,121096	68,9
     156,935	    0,162053	75,2	     0,12366	65,2
     156,965	    0,164447	75,3	    0,125422	66,4
     156,994	    0,166625	72,5	    0,126624	68,5
     157,023	    0,167175	75,8	     0,12895	67,6
     157,053	    0,169665	77,8	    0,131797	67,8
     157,082	    0,172331	74,3	    0,133841	67,6
     157,111	    0,173763	75,2	    0,135679	68,6
     157,141	    0,176544	74,9	    0,137545	69,5
      157,17	    0,177661	77,3	    0,139619	69,3
     157,199	    0,179591	74,6	    0,141587	69,1
     157,229	    0,180899	74,1	    0,143878	70,6
     157,258	    0,182739	77,8	    0,144458	70,7
     157,287	    0,185278	75,7	    0,147316	68,7
     157,317	    0,187332	75,1	    0,149924	69,8
     157,346	    0,187933	75,5	    0,151049	70,2
     157,375	    0,189958	77,3	     0,15273	69,0
     157,405	    0,191747	73,6	    0,154522	71,2
     157,434	    0,194069	78,0	     0,15759	71,1
     157,463	    0,195358	75,9	    0,157734	71,3
     157,493	    0,197216	78,1	    0,160927	69,1
     157,522	    0,199355	76,6	    0,163209	70,2
     157,551	    0,199511	78,5	    0,164221	74,8
     157,581	    0,202014	79,5	    0,167066	70,3
      157,61	    0,204668	77,3	     0,16894	72,5
     157,639	    0,204471	81,5	    0,170762	72,8
     157,669	    0,208342	76,7	    0,172017	69,7
     157,698	    0,208948	79,6	    0,175073	67,1
     157,727	    0,210804	78,9	    0,176423	74,3
     157,757	    0,212962	77,2	    0,177014	72,6
     157,786	     0,21374	83,5	     0,18053	76,2
     157,815	    0,215994	80,8	    0,180896	76,1
     157,845	    0,217454	83,7	    0,183789	72,0
     157,874	     0,21924	80,5	    0,186312	73,7
     157,903	    0,220189	78,7	    0,187249	76,1
     157,933	    0,222642	81,9	    0,189162	76,3
     157,962	    0,224122	79,7	    0,191866	76,7
     157,991	    0,226091	81,4	    0,193659	75,4
     158,021	    0,226754	83,9	    0,195055	73,7
      158,05	    0,229535	81,9	    0,196672	77,5
     158,079	    0,229672	84,4	    0,198628	76,6
     158,109	    0,232145	81,6	    0,200035	78,0
     158,138	    0,233362	84,6	    0,202403	75,6
     158,167	    0,235318	80,7	    0,203962	78,1
     158,196	    0,236748	81,8	    0,204849	79,3
     158,226	    0,238119	84,5	    0,206679	77,2
     158,255	    0,239344	82,8	    0,208553	79,4
     158,284	    0,241317	83,7	    0,210652	77,2
     158,314	    0,242203	81,6	    0,211224	80,4
     158,343	    0,243894	85,7	    0,212995	74,8
     158,372	    0,245697	85,1	    0,215035	89,9
     158,402	    0,247159	84,8	    0,194213	138,8
     158,431	    0,249366	82,8	    0,169611	185,4
      158,46	    0,250086	85,0	    0,155986	198,5
      158,49	    0,251515	83,9	    0,147042	-149,2
     158,519	    0,253768	86,5	    0,141486	-145,8
     158,548	    0,254647	82,9	    0,135898	-144,1
     158,578	    0,255753	85,9	    0,130829	-138,8
     158,607	    0,257404	82,7	     0,12514	-143,3
     158,636	    0,258146	84,8	    0,120564	-138,4
     158,666	    0,259651	86,1	    0,115792	-142,7
     158,695	    0,262016	85,9	    0,111848	-136,0
     158,724	    0,262792	86,9	    0,107994	-141,4
     158,754	    0,264829	85,4	     0,10504	-137,8
     158,783	    0,265605	86,5	     0,10169	-135,6
     158,812	    0,266793	84,2	   0,0992509	-139,7
     158,842	    0,268271	87,1	   0,0968493	-133,4
     158,871	    0,269395	85,5	   0,0940993	-139,1
       158,9	    0,271324	88,6	   0,0913004	-134,5
      158,93	    0,271446	89,1	   0,0872496	-138,5
     158,959	    0,274636	87,2	   0,0836906	-131,4
     158,988	    0,274834	86,2	   0,0803948	-136,9
     159,018	    0,276297	89,6	   0,0785798	-135,1
     159,047	    0,278318	85,4	   0,0775815	-131,8
     159,076	    0,279172	89,4	   0,0776059	-134,4
     159,106	    0,280509	87,6	   0,0778305	-132,6
     159,135	    0,282624	88,7	   0,0762837	-136,1
     159,164	    0,282922	86,4	   0,0743697	-133,9
     159,194	    0,284448	84,9	   0,0720911	-132,4
     159,223	    0,285207	90,4	    0,070315	-135,5
     159,252	    0,287493	88,7	   0,0687121	-132,7
     159,282	    0,288633	86,3	   0,0679053	-134,1
     159,311	    0,289417	88,5	   0,0679526	-131,9
      159,34	    0,291177	89,4	   0,0662909	-133,4
      159,37	    0,291882	86,4	   0,0642434	-134,5
     159,399	     0,29399	90,5	   0,0625649	-133,9
     159,428	    0,294367	87,6	   0,0616268	-132,8
     159,457	    0,295986	87,2	    0,060977	-133,1
     159,487	    0,297273	91,0	   0,0610019	-133,6
     159,516	    0,298146	89,2	   0,0599332	-131,3
     159,545	    0,300125	89,1	   0,0593071	-132,9
     159,575	     0,30071	92,5	   0,0586804	-131,4
     159,604	    0,302034	89,8	   0,0575456	-130,3
     159,633	    0,303436	89,6	   0,0553748	-134,6
     159,663	    0,304925	89,2	   0,0543708	-129,7
     159,692	    0,305396	92,4	   0,0551144	-126,3
     159,721	    0,307093	89,2	   0,0543742	-133,6
     159,751	    0,308339	90,7	   0,0531188	-132,3
      159,78	    0,309276	91,7	   0,0519184	-129,4
     159,809	    0,310985	90,9	    0,051519	-132,6
     159,839	    0,311799	92,4	   0,0523888	-131,1
     159,868	    0,314084	89,2	   0,0514451	-130,7
     159,897	     0,31436	96,0	   0,0501626	-129,3
     159,927	    0,315097	93,4	   0,0493159	-131,6
     159,956	    0,317495	87,7	   0,0486737	-132,4
     159,985	      0,3184	89,2	   0,0486474	-130,9
     160,015	    0,319616	94,3	   0,0466178	-129,9
     160,044	    0,319933	91,6	   0,0460117	-130,0
     160,073	    0,322187	94,9	   0,0470284	-134,1
     160,103	    0,322295	90,4	   0,0462765	-131,7
     160,132	    0,324337	90,3	   0,0449291	-128,2
     160,161	    0,324465	95,2	   0,0443033	-131,5
     160,191	    0,326584	92,1	   0,0434538	-131,2
      160,22	    0,327284	93,5	   0,0440416	-132,3
     160,249	    0,329052	89,7	   0,0446446	-126,3
     160,279	    0,330279	89,9	   0,0436016	-128,4
     160,308	    0,331283	92,1	   0,0423768	-129,0
     160,337	    0,332117	94,7	   0,0427648	-132,5
     160,367	    0,333475	96,0	   0,0424505	-126,4
     160,396	    0,333935	96,8	   0,0412885	-130,7
     160,425	    0,336626	91,9	   0,0418022	-127,7
     160,455	    0,337034	94,9	   0,0410277	-131,2
     160,484	    0,338046	94,5	    0,039977	-129,8
     160,513	    0,338556	97,1	   0,0395123	-131,2
     160,543	    0,340793	94,6	    0,039173	-131,7
     160,572	    0,341757	94,7	   0,0390817	-126,1
     160,601	       0,343	95,0	   0,0387825	-126,7
      160,63	    0,344476	95,2	   0,0383851	-123,7
      160,66	    0,345443	94,2	   0,0380242	-132,1
     160,689	     0,34631	96,7	   0,0376214	-130,3
     160,718	    0,347295	95,3	   0,0378526	-131,0
     160,748	    0,348749	97,0	   0,0365042	-128,9
     160,777	    0,349156	98,9	   0,0369704	-128,4
     160,806	    0,350939	95,9	   0,0364372	-129,3
     160,836	    0,351644	98,8	   0,0360782	-127,8
     160,865	    0,353154	94,6	   0,0355081	-128,8
     160,894	    0,354222	100,8	   0,0348478	-127,5
     160,924	    0,354804	92,6	   0,0350442	-131,7
     160,953	    0,356457	96,0	   0,0340262	-129,7
     160,982	    0,357505	95,8	   0,0350015	-132,0
     161,012	    0,357852	94,9	   0,0345049	-134,1
     161,041	    0,359302	98,4	   0,0350703	-126,6
      161,07	    0,361198	94,6	   0,0334072	-129,3
       161,1	    0,361774	92,6	   0,0338631	-130,0
     161,129	     0,36307	96,4	   0,0332574	-126,8
     161,158	    0,364064	94,9	   0,0337406	-127,5
     161,188	    0,365397	96,8	   0,0332037	-127,7
     161,217	    0,365892	97,5	   0,0324341	-126,4
     161,246	    0,366537	98,8	   0,0323131	-128,3
     161,276	    0,368714	95,5	   0,0315616	-127,2
     161,305	    0,369014	98,8	   0,0316087	-129,0
     161,334	    0,370404	92,9	   0,0311119	-127,3
     161,364	     0,37151	98,5	   0,0308939	-126,2
     161,393	    0,372681	96,3	   0,0305467	-125,0
     161,422	    0,373825	96,0	    0,030337	-128,9
     161,452	    0,375176	98,1	   0,0311203	-124,0
     161,481	    0,375069	99,8	   0,0302808	-130,5
      161,51	    0,376764	97,1	   0,0304336	-124,8
      161,54	    0,377755	100,3	   0,0295989	-124,2
     161,569	    0,378889	97,7	   0,0298178	-126,6
     161,598	    0,379981	102,9	   0,0295065	-125,7
     161,628	    0,380293	103,5	   0,0295761	-126,4
     161,657	     0,38196	102,4	   0,0288793	-129,7
     161,686	    0,382787	98,4	   0,0294336	-126,3
     161,716	    0,384093	103,3	   0,0296215	-126,3
     161,745	    0,384961	101,5	   0,0285168	-126,6
     161,774	     0,38641	100,1	   0,0283906	-129,2
     161,804	    0,386829	104,4	   0,0273993	-131,3
     161,833	    0,388586	100,6	   0,0275021	-127,6
     161,862	     0,38926	100,2	   0,0277098	-128,5
     161,891	    0,389464	100,9	   0,0273999	-129,6
     161,921	    0,391675	97,0	   0,0267355	-126,1
      161,95	    0,392266	101,7	    0,027815	-126,4
     161,979	    0,392328	102,7	   0,0260834	-128,3
     162,009	    0,393486	104,4	    0,028177	-124,8
     162,038	     0,39561	101,5	    0,026577	-126,7
     162,067	    0,396614	100,8	   0,0268386	-130,0
     162,097	    0,396984	98,8	   0,0268889	-124,2
     162,126	    0,398465	99,3	   0,0260977	-129,1
     162,155	    0,399274	105,1	   0,0257939	-130,3
     162,185	    0,400265	104,7	   0,0256885	-128,9
     162,214	    0,402129	104,2	   0,0253035	-126,3
     162,243	    0,402249	102,2	   0,0255013	-125,6
     162,273	    0,403429	99,4	   0,0259591	-126,6
     162,302	    0,404789	99,3	   0,0254304	-127,0
     162,331	    0,406198	103,4	   0,0255992	-129,6
     162,361	    0,406265	107,3	   0,0249199	-128,4
      162,39	    0,407269	104,4	   0,0241816	-131,2
     162,419	    0,408861	103,0	   0,0245157	-128,1
     162,449	    0,409324	102,6	   0,0241454	-128,0
     162,478	    0,410544	108,3	   0,0245417	-129,5
     162,507	    0,411405	104,7	   0,0241873	-128,4
     162,537	    0,412426	105,3	   0,0239014	-128,6
     162,566	    0,413696	105,2	   0,0238915	-129,4
     162,595	    0,414831	102,0	   0,0238379	-127,3
     162,625	    0,414671	107,4	   0,0241629	-126,5
     162,654	      0,4164	106,2	   0,0233721	-127,6
     162,683	     0,41689	105,1	   0,0229351	-127,9
     162,713	     0,41893	103,7	   0,0237654	-124,9
     162,742	    0,419166	105,4	   0,0241982	-124,6
     162,771	    0,419655	103,6	   0,0230906	-128,8
     162,801	    0,421525	103,1	   0,0225767	-131,2
      162,83	    0,421618	104,8	   0,0229079	-127,2
     162,859	    0,422884	104,4	   0,0235143	-127,0
     162,889	    0,424675	107,7	   0,0229949	-127,8
     162,918	    0,424394	101,9	   0,0216479	-129,7
     162,947	     0,42581	105,3	   0,0225018	-129,5
     162,977	     0,42695	104,4	   0,0223765	-124,7
     163,006	    0,427637	105,4	   0,0224393	-127,4
     163,035	    0,429418	107,4	   0,0217579	-129,1
     163,065	    0,429341	108,0	   0,0224273	-129,9
     163,094	    0,431067	103,9	   0,0220592	-126,4
     163,123	    0,431761	109,0	   0,0217505	-127,2
     163,152	    0,432119	106,0	   0,0213953	-126,9
     163,182	    0,433799	105,7	   0,0214982	-125,3
     163,211	    0,434291	107,0	   0,0217129	-130,9
      163,24	    0,435552	106,9	    0,021407	-123,9
      163,27	    0,436801	109,0	    0,021151	-127,7
     163,299	    0,437735	108,9	   0,0206462	-129,3
     163,328	    0,438628	106,8	   0,0204961	-128,5
     163,358	     0,43886	108,3	   0,0205441	-129,2
     163,387	    0,440518	106,6	   0,0206081	-131,4
     163,416	    0,441074	106,8	   0,0209861	-128,5
     163,446	    0,442848	105,6	   0,0209357	-125,6
     163,475	    0,442879	111,6	   0,0204806	-127,4
     163,504	     0,44403	106,5	   0,0201094	-128,8
     163,534	    0,444997	112,8	   0,0198632	-128,3
     163,563	    0,445899	109,7	   0,0199043	-130,3
     163,592	    0,446593	108,1	   0,0201589	-130,9
     163,622	    0,448008	111,1	    0,020389	-124,0
     163,651	    0,448631	108,1	   0,0201149	-126,3
      163,68	    0,449299	109,9	     0,01974	-126,0
      163,71	    0,450539	108,9	   0,0197904	-127,8
     163,739	    0,451721	107,3	   0,0194387	-128,4
     163,768	    0,452315	106,9	   0,0197376	-126,9
     163,798	    0,453927	108,5	   0,0193688	-126,8
     163,827	    0,454527	109,9	    0,019507	-124,7
     163,856	     0,45497	107,7	    0,019071	-126,9
     163,886	    0,456017	112,1	   0,0190487	-126,7
     163,915	    0,456747	109,2	    0,019052	-128,3
     163,944	    0,458348	110,1	   0,0189588	-127,2
     163,974	    0,458146	108,1	   0,0186186	-127,4
     164,003	    0,459882	113,5	   0,0186014	-132,2
     164,032	     0,46052	109,0	   0,0190502	-125,6
     164,062	    0,461441	113,4	   0,0184549	-130,2
     164,091	    0,462662	110,1	   0,0188441	-127,8
      164,12	    0,463123	118,2	   0,0185105	-131,5
      164,15	    0,463958	112,5	   0,0180347	-124,2
     164,179	    0,465477	111,6	   0,0178267	-127,6
     164,208	    0,465603	112,5	   0,0182466	-126,5
     164,238	     0,46701	111,0	   0,0183112	-128,1
     164,267	    0,468381	110,2	   0,0180664	-128,7
     164,296	    0,468864	114,2	   0,0190142	-125,2
     164,326	    0,470046	109,5	   0,0182499	-124,9
     164,355	    0,470567	113,6	   0,0180474	-128,8
     164,384	    0,471869	111,7	   0,0176457	-128,1
     164,413	    0,472311	111,8	   0,0177859	-129,7
     164,443	    0,473642	115,4	   0,0183262	-120,9
     164,472	    0,474663	116,3	   0,0176577	-128,8
     164,501	     0,47499	112,2	    0,017601	-125,7
     164,531	    0,474934	115,6	   0,0171036	-131,5
      164,56	    0,476738	114,9	   0,0175801	-127,7
     164,589	    0,477335	110,2	   0,0174276	-129,2
     164,619	    0,478727	113,0	    0,017375	-127,1
     164,648	    0,479992	113,5	   0,0166573	-130,2
     164,677	    0,480163	109,3	   0,0167838	-125,0
     164,707	    0,481597	114,7	   0,0168679	-125,2
     164,736	    0,481852	117,1	   0,0171624	-125,7
     164,765	    0,483889	114,1	   0,0167423	-125,8
     164,795	     0,48365	117,3	   0,0164805	-129,4
     164,824	    0,484272	114,2	   0,0165201	-124,5
     164,853	    0,485791	117,7	   0,0165411	-128,4
     164,883	    0,486682	112,5	   0,0166932	-130,4
     164,912	    0,487011	114,1	   0,0163156	-123,5
     164,941	    0,488203	116,1	   0,0158946	-130,6
     164,971	    0,488556	114,7	     0,01638	-127,2
         165	    0,490051	113,7	   0,0163348	-127,1
     165,029	     0,49016	120,7	   0,0162001	-128,3
     165,059	    0,492208	118,4	   0,0162907	-125,4
     165,088	    0,492898	114,6	   0,0160653	-132,5
     165,117	    0,493351	120,9	   0,0164705	-124,8
     165,147	    0,494656	113,8	   0,0164217	-124,2
     165,176	    0,494883	117,3	   0,0158017	-131,2
     165,205	    0,495634	119,2	   0,0162372	-125,6
     165,235	    0,497509	116,6	   0,0166409	-123,0
     165,264	    0,498312	118,1	   0,0159654	-129,0
     165,293	    0,499097	119,2	   0,0161755	-125,7
     165,323	    0,499708	116,3	   0,0157308	-122,7
     165,352	    0,499523	120,0	    0,015655	-129,8
     165,381	    0,500998	117,8	   0,0157162	-128,2
     165,411	    0,502351	116,8	   0,0157263	-127,5
      165,44	    0,502556	122,8	   0,0157063	-122,8
     165,469	    0,503673	116,5	   0,0155651	-130,5
     165,499	    0,503744	123,1	   0,0155454	-126,2
     165,528	    0,504956	123,2	   0,0155142	-124,6
     165,557	    0,505912	119,0	   0,0149957	-129,5
     165,587	    0,506759	119,0	    0,015555	-129,5
     165,616	    0,508257	119,5	   0,0154805	-126,7
     165,645	    0,509081	120,1	   0,0155252	-127,4
     165,674	      0,5093	120,5	   0,0150564	-131,0
     165,704	    0,510266	119,1	   0,0147699	-127,8
     165,733	    0,510863	120,2	   0,0151935	-122,9
     165,762	    0,512251	117,5	   0,0151352	-127,2
     165,792	    0,513702	119,7	   0,0150847	-125,6
     165,821	    0,514145	117,2	   0,0148996	-128,5
      165,85	    0,514603	121,8	   0,0148901	-125,9
      165,88	    0,515478	123,5	   0,0151976	-129,5
     165,909	    0,516573	125,2	   0,0145828	-131,4
     165,938	    0,517434	122,1	   0,0150565	-125,9
     165,968	    0,518853	118,6	   0,0148259	-123,9
     165,997	    0,519728	119,4	    0,014237	-125,3
     166,026	    0,520302	122,1	    0,014674	-128,8
     166,056	     0,52118	123,7	   0,0149135	-127,9
     166,085	    0,521433	122,4	   0,0143976	-127,5
     166,114	    0,521896	123,2	   0,0147912	-125,9
     166,144	    0,523161	124,2	   0,0142123	-127,1
     166,173	    0,524285	122,4	   0,0143705	-130,9
     166,202	    0,524789	125,4	   0,0141354	-131,8
     166,232	    0,525846	123,4	    0,014354	-126,1
     166,261	    0,526481	127,1	   0,0140742	-131,0
      166,29	    0,527483	122,8	   0,0146493	-125,3
      166,32	    0,528122	128,2	   0,0145111	-126,4
     166,349	    0,529541	122,8	   0,0140485	-126,5
     166,378	    0,530131	124,2	   0,0139665	-127,1
     166,408	    0,530818	121,1	   0,0145315	-123,9
     166,437	    0,531644	122,9	   0,0138224	-125,1
     166,466	     0,53263	123,2	   0,0140435	-129,6
     166,496	    0,533518	128,4	   0,0138899	-126,4
     166,525	    0,533896	128,4	   0,0139888	-123,1
     166,554	    0,534848	123,4	   0,0137693	-127,3
     166,584	    0,535488	126,4	    0,014112	-126,1
     166,613	    0,536393	126,9	   0,0135955	-123,9
     166,642	    0,537728	127,1	   0,0138648	-122,5
     166,672	    0,537588	132,0	   0,0136701	-127,0
     166,701	    0,538932	125,0	   0,0131252	-128,3
      166,73	    0,539669	126,2	   0,0136973	-128,3
      166,76	     0,54119	126,3	   0,0134727	-130,6
     166,789	    0,541334	129,6	   0,0134258	-132,7
     166,818	    0,542341	131,1	   0,0135774	-129,1
     166,848	    0,543175	125,0	   0,0133368	-128,8
     166,877	    0,543777	126,9	   0,0135986	-128,8
     166,906	    0,544779	124,5	   0,0135762	-124,0
     166,935	    0,544865	127,6	   0,0132104	-129,7
     166,965	    0,545638	130,5	   0,0132739	-128,1
     166,994	    0,546571	129,6	   0,0135751	-125,3
     167,023	    0,547429	133,8	   0,0130061	-133,4
     167,053	    0,548454	129,6	   0,0132391	-125,3
     167,082	    0,549433	133,7	   0,0134295	-122,7
     167,111	    0,550229	133,4	   0,0132884	-122,1
     167,141	    0,551871	127,5	    0,013331	-124,5
      167,17	    0,552676	124,9	    0,013162	-124,6
     167,199	    0,553294	131,8	   0,0131852	-127,8
     167,229	    0,554214	127,9	   0,0127108	-128,8
     167,258	    0,554214	131,2	     0,01289	-128,3
     167,287	    0,554684	136,3	   0,0127775	-127,7
     167,317	    0,555355	136,1	   0,0126318	-129,2
     167,346	    0,556889	132,8	    0,012805	-125,1
     167,375	    0,557038	137,5	   0,0125327	-131,5
     167,405	    0,557716	132,2	   0,0125849	-127,8
     167,434	    0,558731	130,5	    0,012691	-131,4
     167,463	    0,559521	133,6	    0,012727	-129,9
     167,493	    0,559864	135,1	   0,0128076	-128,4
     167,522	     0,56063	135,8	   0,0126382	-129,1
     167,551	    0,561254	140,5	   0,0123152	-126,7
     167,581	    0,563062	138,9	   0,0125879	-128,4
      167,61	    0,563985	132,8	   0,0126809	-124,8
     167,639	    0,564863	135,5	   0,0126184	-125,1
     167,669	    0,565587	133,7	   0,0124564	-125,0
     167,698	    0,566588	133,4	   0,0120406	-126,5
     167,727	    0,566968	135,4	   0,0122832	-131,9
     167,757	      0,5677	135,3	   0,0122116	-129,8
     167,786	    0,568345	136,8	    0,012132	-130,3
     167,815	     0,56894	137,6	   0,0121621	-126,0
     167,845	    0,569789	138,9	    0,012039	-127,5
     167,874	    0,570317	138,1	   0,0122344	-123,4
     167,903	    0,571419	142,8	   0,0123732	-124,1
     167,933	    0,572032	144,4	   0,0122182	-126,7
     167,962	    0,572672	143,1	    0,012126	-130,9
     167,991	    0,573375	143,8	   0,0119118	-127,5
     168,021	     0,57442	147,6	   0,0122782	-129,4
      168,05	    0,574489	148,5	   0,0119738	-125,4
     168,079	    0,575418	148,2	   0,0117896	-121,7
     168,109	    0,575586	151,0	   0,0119395	-125,6
     168,138	    0,576461	153,8	   0,0119284	-124,7
     168,167	    0,576928	155,3	   0,0117474	-128,1
     168,196	    0,577156	160,6	   0,0115084	-132,9
     168,226	    0,576638	170,8	   0,0117554	-127,3
     168,255	    0,574939	182,6	   0,0116414	-124,0
     168,284	    0,565935	-148,7	   0,0115205	-130,0
     168,314	   0,0112963	-129,7	   0,0119291	-131,4
     168,343	   0,0117205	-123,5	   0,0119344	-125,6
     168,372	    0,011479	-120,9	   0,0116643	-127,0
     168,402	   0,0111966	-128,4	   0,0113171	-133,0
     168,431	   0,0114956	-126,7	   0,0120878	-128,1
      168,46	   0,0114508	-130,0	   0,0116783	-122,1
      168,49	    0,011556	-128,9	   0,0115048	-125,7
     168,519	   0,0114183	-128,7	   0,0119264	-127,3
     168,548	    0,010764	-128,5	   0,0117917	-128,8
     168,578	   0,0108117	-130,6	   0,0113541	-127,0
     168,607	   0,0110802	-123,8	   0,0114691	-127,2
     168,636	   0,0114846	-125,3	   0,0112688	-128,1
     168,666	    0,011094	-125,4	   0,0112031	-126,6
     168,695	   0,0112073	-128,7	   0,0113017	-132,4
     168,724	   0,0111434	-127,9	   0,0117492	-124,0
     168,754	   0,0112096	-132,5	   0,0116396	-130,0
     168,783	   0,0112803	-128,7	   0,0111565	-129,4
     168,812	   0,0111061	-131,5	   0,0110585	-123,8
     168,842	   0,0110766	-126,7	   0,0113254	-122,4
     168,871	   0,0110384	-131,4	   0,0115677	-125,8
       168,9	    0,010988	-121,9	   0,0111145	-130,1
      168,93	   0,0112392	-125,9	   0,0112942	-126,4
     168,959	    0,011214	-130,0	   0,0114243	-125,8
     168,988	    0,010741	-130,2	   0,0117724	-125,9
     169,018	   0,0107066	-126,0	   0,0112606	-124,1
     169,047	   0,0107357	-133,2	   0,0111258	-130,7
     169,076	   0,0106336	-124,7	   0,0110583	-121,7
     169,106	   0,0107424	-129,3	    0,010983	-126,6
     169,135	   0,0105333	-127,7	   0,0111534	-130,2
     169,164	   0,0109292	-125,2	   0,0109241	-120,5
     169,194	    0,011086	-122,7	   0,0110164	-129,2
     169,223	   0,0109841	-127,4	   0,0109707	-128,6
     169,252	   0,0108895	-129,4	   0,0110463	-125,8
     169,282	   0,0105977	-128,5	   0,0107453	-125,9
     169,311	   0,0105521	-123,0	   0,0105003	-131,6
      169,34	   0,0106309	-125,6	   0,0108127	-124,6
      169,37	   0,0107944	-128,7	   0,0109745	-129,9
     169,399	   0,0108352	-125,6	   0,0110267	-121,8
     169,428	   0,0108257	-120,7	   0,0107502	-124,8
     169,457	   0,0105111	-125,0	   0,0107641	-124,1
     169,487	   0,0103977	-131,5	   0,0106078	-126,7
     169,516	   0,0104813	-126,0	     0,01068	-127,0
     169,545	   0,0105443	-128,8	   0,0105368	-125,3
     169,575	   0,0104233	-126,0	   0,0102142	-129,8
     169,604	   0,0106735	-123,9	   0,0102671	-125,8
     169,633	   0,0107918	-128,8	    0,010302	-129,1
     169,663	   0,0102605	-129,1	   0,0105592	-127,3
     169,692	   0,0103506	-126,7	   0,0106524	-127,7
     169,721	   0,0101222	-131,2	   0,0105365	-127,2
     169,751	   0,0101147	-126,6	   0,0105928	-122,0
      169,78	   0,0101185	-132,6	   0,0106876	-126,2
     169,809	   0,0102464	-124,1	   0,0108426	-124,1
     169,839	   0,0102411	-129,5	   0,0106086	-129,3
     169,868	   0,0101345	-122,2	   0,0104099	-125,5
     169,897	   0,0102319	-132,0	   0,0104699	-130,0
     169,927	   0,0102313	-124,0	   0,0106495	-123,5
     169,956	   0,0102501	-130,8	   0,0107912	-129,9
     169,985	   0,0102763	-131,2	   0,0105054	-121,9
     170,015	  0,00981841	-128,3	   0,0103669	-130,4
     170,044	  0,00973249	-131,3	   0,0101727	-130,2
     170,073	  0,00995308	-127,2	   0,0102851	-127,3
     170,103	   0,0101111	-130,0	   0,0102549	-126,5
     170,132	  0,00994208	-127,6	   0,0103153	-125,9
     170,161	  0,00983072	-125,7	   0,0100079	-123,2
     170,191	   0,0100385	-130,4	   0,0101372	-128,3
      170,22	   0,0101351	-128,6	  0,00997285	-125,5
     170,249	   0,0101739	-120,6	   0,0101543	-128,5
     170,279	   0,0100697	-131,0	   0,0103629	-128,3
     170,308	    0,010081	-123,4	   0,0101644	-121,9
     170,337	  0,00995162	-125,8	   0,0105442	-122,3
     170,367	  0,00994594	-127,1	   0,0101549	-127,3
     170,396	  0,00995667	-124,0	   0,0102327	-129,2
     170,425	  0,00979107	-132,7	   0,0102423	-126,3
     170,455	  0,00992888	-127,1	  0,00980817	-126,8
     170,484	   0,0101421	-121,9	  0,00981989	-131,3
     170,513	  0,00983968	-131,5	  0,00996342	-123,5
     170,543	  0,00991961	-126,3	  0,00980544	-129,1
     170,572	  0,00971224	-126,6	   0,0100558	-122,0
     170,601	  0,00963635	-129,9	   0,0101737	-121,6
      170,63	  0,00969453	-129,4	  0,00954683	-129,0
      170,66	   0,0100159	-129,4	   0,0098494	-125,1
     170,689	  0,00996412	-127,1	  0,00968412	-130,0
     170,718	   0,0097901	-128,7	  0,00967286	-120,1
     170,748	  0,00969641	-130,7	   0,0100952	-127,0
     170,777	  0,00965806	-122,7	  0,00995457	-127,6
     170,806	  0,00967131	-129,5	  0,00985631	-124,8
     170,836	  0,00951399	-127,8	  0,00981194	-125,8
     170,865	  0,00966442	-123,8	  0,00978966	-129,0
     170,894	  0,00958326	-131,4	  0,00967194	-122,9
     170,924	  0,00947932	-125,6	  0,00947518	-124,9
     170,953	  0,00946552	-128,4	  0,00976317	-124,7
     170,982	  0,00923291	-132,3	  0,00998287	-126,0
     171,012	  0,00937641	-123,9	  0,00985038	-124,0
     171,041	  0,00933401	-126,5	  0,00951981	-130,3
      171,07	  0,00941424	-127,7	  0,00941013	-128,8
       171,1	  0,00970849	-127,1	  0,00930143	-130,1
     171,129	  0,00944963	-122,1	  0,00963366	-127,9
     171,158	  0,00927245	-129,6	  0,00954888	-128,6
     171,188	  0,00958863	-133,0	  0,00936302	-124,0
     171,217	  0,00949136	-121,3	  0,00935068	-120,6
     171,246	  0,00943444	-123,7	  0,00934692	-128,1
     171,276	  0,00915542	-133,2	  0,00956911	-128,0
     171,305	  0,00913478	-131,0	   0,0092404	-123,9
     171,334	  0,00935031	-124,6	  0,00984907	-124,5
     171,364	  0,00949876	-124,6	  0,00902557	-130,3
     171,393	  0,00931094	-132,6	  0,00941512	-131,5
     171,422	  0,00944721	-126,7	   0,0094304	-121,8
     171,452	   0,0094621	-123,5	  0,00951866	-122,9
     171,481	  0,00920431	-127,9	  0,00951101	-128,7
      171,51	  0,00944744	-131,2	  0,00929587	-131,9
      171,54	  0,00955361	-127,4	  0,00951265	-120,9
     171,569	  0,00930364	-125,2	  0,00938267	-127,0
     171,598	  0,00906792	-126,9	  0,00942761	-127,6
     171,628	  0,00929025	-124,6	  0,00939069	-131,2
     171,657	  0,00906796	-124,2	  0,00937328	-125,6
     171,686	  0,00891275	-132,3	  0,00931189	-126,7
     171,716	  0,00902589	-130,5	  0,00928729	-125,0
     171,745	  0,00899465	-125,4	  0,00927526	-125,1
     171,774	  0,00918986	-127,0	  0,00912841	-124,3
     171,804	  0,00918792	-130,6	  0,00913278	-129,6
     171,833	  0,00916202	-124,6	  0,00913033	-126,3
     171,862	  0,00896549	-130,4	  0,00912313	-125,4
     171,891	  0,00926367	-125,1	  0,00927193	-123,5
     171,921	   0,0092311	-124,7	  0,00899886	-125,2
      171,95	  0,00913169	-124,0	  0,00908975	-128,8
     171,979	  0,00888505	-123,7	  0,00930284	-127,6
     172,009	  0,00912417	-122,3	   0,0090956	-128,5
     172,038	  0,00904416	-122,0	   0,0090985	-125,8
     172,067	  0,00882617	-132,6	  0,00869624	-127,4
     172,097	  0,00902598	-128,0	  0,00928104	-127,3
     172,126	  0,00894138	-126,9	  0,00888272	-124,7
     172,155	   0,0086152	-127,2	   0,0089769	-121,6
     172,185	   0,0088573	-125,9	  0,00892885	-125,9
     172,214	  0,00873459	-126,1	  0,00867466	-129,7
     172,243	  0,00907604	-124,9	  0,00911571	-130,5
     172,273	  0,00881503	-125,8	  0,00874989	-134,5
     172,302	  0,00868932	-121,7	  0,00898091	-129,6
     172,331	  0,00864841	-130,0	  0,00908333	-123,5
     172,361	  0,00889501	-129,1	  0,00909468	-122,9
      172,39	  0,00894176	-131,5	  0,00896561	-123,8
     172,419	  0,00901028	-127,0	  0,00883195	-127,7
     172,449	  0,00878266	-132,0	  0,00870792	-125,7
     172,478	  0,00895331	-127,1	  0,00882871	-124,1
     172,507	  0,00840857	-123,8	  0,00887563	-123,9
     172,537	   0,0084745	-123,6	  0,00855362	-122,2
     172,566	  0,00863168	-131,8	  0,00893923	-126,0
     172,595	   0,0086233	-123,2	  0,00901932	-126,3
     172,625	  0,00868659	-125,2	  0,00882861	-133,3
     172,654	   0,0086754	-128,0	  0,00882043	-128,8
     172,683	  0,00892193	-122,7	  0,00876678	-124,7
     172,713	  0,00844415	-124,8	  0,00881161	-125,1
     172,742	  0,00866951	-127,1	  0,00865461	-131,9
     172,771	  0,00855263	-130,0	  0,00879128	-128,6
     172,801	  0,00869064	-126,2	  0,00852794	-128,4
      172,83	  0,00877549	-123,8	  0,00886117	-130,2
     172,859	  0,00889448	-124,8	  0,00881955	-129,3
     172,889	  0,00856061	-122,2	  0,00874369	-126,7
     172,918	  0,00853798	-130,7	  0,00878584	-130,4
     172,947	   0,0088739	-124,9	  0,00866642	-132,7
     172,977	  0,00873956	-125,7	  0,00882676	-131,1
     173,006	  0,00837466	-132,4	  0,00868809	-129,1
     173,035	  0,00867725	-131,2	  0,00845727	-129,3
     173,065	  0,00875613	-131,4	  0,00864182	-123,0
     173,094	  0,00881934	-129,1	  0,00873007	-127,5
     173,123	   0,0082884	-130,0	  0,00846794	-124,0
     173,152	  0,00852998	-130,9	  0,00885007	-125,4
     173,182	  0,00845851	-134,1	  0,00881301	-126,9
     173,211	  0,00832981	-124,7	  0,00880847	-129,3
      173,24	  0,00841519	-133,3	   0,0085281	-131,4
      173,27	  0,00844751	-124,5	  0,00848183	-130,2
     173,299	  0,00825428	-124,0	  0,00839755	-132,9
     173,328	   0,0083136	-123,1	  0,00835299	-131,8
     173,358	  0,00850707	-130,2	  0,00854389	-126,4
     173,387	    0,008457	-131,8	  0,00851625	-125,1
     173,416	  0,00858214	-130,3	  0,00850448	-131,5
     173,446	  0,00843103	-129,6	  0,00843172	-125,5
     173,475	  0,00823695	-130,1	  0,00867753	-128,0
     173,504	  0,00825279	-126,3	  0,00837319	-133,1
     173,534	  0,00823144	-126,9	  0,00827379	-130,2
     173,563	  0,00834074	-124,5	  0,00851005	-130,9
     173,592	  0,00808957	-130,9	  0,00806203	-126,5
     173,622	  0,00853514	-128,4	  0,00822798	-124,3
     173,651	  0,00803152	-132,9	  0,00797028	-124,1
      173,68	  0,00808509	-131,3	  0,00808977	-120,7
      173,71	   0,0083651	-128,7	  0,00824373	-123,1
     173,739	   0,0080171	-132,7	  0,00801847	-127,2
     173,768	  0,00808287	-129,7	  0,00822375	-131,9
     173,798	   0,0084317	-127,0	  0,00845883	-128,8
     173,827	  0,00826043	-125,5	  0,00831962	-125,2
     173,856	  0,00810369	-124,7	   0,0081062	-129,1
     173,886	  0,00810118	-126,5	  0,00841135	-126,3
     173,915	  0,00823964	-129,0	  0,00832155	-131,2
     173,944	  0,00850497	-127,8	  0,00823312	-121,8
     173,974	  0,00818651	-129,4	  0,00835029	-123,3
     174,003	  0,00815877	-130,1	  0,00810829	-120,1
     174,032	  0,00804967	-125,7	  0,00813457	-132,9
     174,062	  0,00792619	-126,6	  0,00834101	-123,2
     174,091	   0,0081227	-125,1	  0,00796351	-128,4
      174,12	  0,00810277	-121,2	  0,00797664	-123,2
      174,15	  0,00788298	-124,7	  0,00818963	-127,8
     174,179	  0,00776416	-124,9	  0,00808231	-131,3
     174,208	  0,00813972	-130,6	    0,007936	-129,5
     174,238	   0,0083169	-131,0	  0,00797808	-127,6
     174,267	  0,00804677	-126,2	  0,00819534	-130,2
     174,296	  0,00761748	-129,8	  0,00802805	-128,6
     174,326	  0,00783147	-134,0	  0,00806371	-124,2
     174,355	  0,00834096	-129,7	  0,00806871	-126,7
     174,384	  0,00782697	-126,6	   0,0080996	-133,4
     174,413	  0,00787424	-134,1	   0,0082581	-128,1
     174,443	  0,00789867	-125,0	  0,00811594	-128,5
     174,472	  0,00766097	-123,6	   0,0077229	-125,1
     174,501	  0,00804084	-127,9	  0,00791112	-125,6
     174,531	   0,0080499	-128,8	  0,00787002	-123,5
      174,56	  0,00818638	-128,7	  0,00796185	-128,3
     174,589	  0,00764115	-121,7	  0,00777467	-133,7
     174,619	  0,00773577	-127,5	  0,00774252	-126,9
     174,648	  0,00776621	-123,2	  0,00769943	-119,9
     174,677	  0,00801644	-125,8	  0,00790579	-123,6
     174,707	    0,008078	-129,3	  0,00789889	-133,0
     174,736	  0,00835735	-125,7	  0,00797632	-131,1
     174,765	  0,00799904	-121,2	  0,00774475	-130,8
     174,795	   0,0075751	-126,3	  0,00788718	-124,7
     174,824	  0,00758143	-126,0	  0,00780157	-125,4
     174,853	  0,00792703	-130,0	  0,00786126	-125,6
     174,883	  0,00777602	-128,6	  0,00790045	-122,7
     174,912	  0,00756106	-123,7	  0,00785874	-126,1
     174,941	  0,00763216	-130,2	  0,00768907	-126,3
     174,971	   0,0079188	-128,0	  0,00778656	-125,5
         175	   0,0079935	-125,2	  0,00773416	-131,2

