X-Data [Hz]	Piezo (M - Filtered) [mV]	Phase [Deg]	Piezo (M - Filtered) [mV]	Phase [Deg]	
	002: [07-10-24 09:24]		003: [07-10-24 09:27]	
        41,5	    0,119797	-104,3	    0,124417	-102,0
      41,502	    0,119714	-99,0	     0,12643	-100,9
     41,5039	     0,12164	-102,5	    0,128865	-101,0
     41,5059	    0,125898	-106,7	     0,12856	-103,9
     41,5078	    0,124667	-100,4	    0,126854	-99,9
     41,5098	    0,127836	-103,5	    0,131682	-104,3
     41,5117	    0,125934	-100,0	     0,12842	-100,3
     41,5137	    0,129774	-107,4	    0,134482	-106,0
     41,5156	     0,12785	-103,2	    0,129146	-102,3
     41,5176	    0,130695	-104,0	    0,128822	-101,2
     41,5196	    0,130822	-106,0	    0,131284	-104,0
     41,5215	    0,131076	-101,9	    0,127842	-99,4
     41,5235	    0,129847	-106,5	    0,132547	-105,6
     41,5254	    0,129579	-102,6	     0,13021	-102,7
     41,5274	    0,134158	-105,1	    0,133494	-106,8
     41,5293	    0,132781	-106,9	    0,133495	-105,0
     41,5313	    0,130541	-101,9	     0,13086	-103,5
     41,5332	    0,132818	-104,6	    0,133356	-105,4
     41,5352	    0,129801	-100,9	    0,132217	-101,9
     41,5371	    0,132335	-102,6	    0,135468	-107,0
     41,5391	    0,130012	-101,1	    0,131777	-99,8
     41,5411	    0,131611	-99,9	    0,131482	-101,8
      41,543	     0,13081	-102,4	    0,131316	-100,0
      41,545	    0,130744	-99,3	    0,133011	-100,3
     41,5469	    0,133168	-105,2	    0,135777	-104,1
     41,5489	    0,131153	-101,6	    0,134199	-100,0
     41,5508	    0,135614	-105,8	    0,138132	-106,5
     41,5528	    0,134545	-103,6	    0,137697	-102,2
     41,5547	    0,136658	-103,7	    0,136005	-105,1
     41,5567	    0,135885	-104,6	    0,137724	-105,0
     41,5587	    0,132829	-101,3	    0,134154	-103,8
     41,5606	    0,136356	-106,4	    0,137347	-106,9
     41,5626	    0,136255	-104,7	    0,133929	-100,1
     41,5645	    0,136294	-102,5	    0,137369	-104,0
     41,5665	    0,138529	-105,4	    0,136424	-99,9
     41,5684	    0,136295	-100,2	    0,135343	-100,9
     41,5704	    0,138258	-105,7	    0,136562	-102,8
     41,5723	    0,133891	-100,5	    0,136128	-100,2
     41,5743	    0,135956	-100,5	    0,141647	-104,7
     41,5762	    0,136214	-101,6	    0,138322	-101,3
     41,5782	      0,1363	-99,4	    0,140269	-105,8
     41,5802	    0,139082	-105,0	    0,140043	-102,7
     41,5821	    0,136017	-102,1	    0,139667	-103,7
     41,5841	    0,140232	-105,8	    0,141164	-104,3
      41,586	    0,138157	-102,3	    0,139493	-100,7
      41,588	    0,140414	-103,3	    0,140539	-105,9
     41,5899	    0,140429	-104,8	    0,141525	-103,6
     41,5919	    0,139594	-100,9	    0,140055	-103,2
     41,5938	    0,140999	-104,1	    0,141599	-106,6
     41,5958	    0,138399	-98,8	    0,137996	-100,5
     41,5978	    0,141085	-101,6	    0,141451	-103,5
     41,5997	    0,140067	-103,3	    0,141449	-100,1
     41,6017	    0,138157	-99,3	    0,140495	-101,3
     41,6036	    0,141268	-106,5	    0,140232	-100,1
     41,6056	    0,140138	-103,2	     0,14139	-100,0
     41,6075	    0,139949	-103,6	    0,144685	-102,6
     41,6095	    0,139623	-104,2	    0,143888	-99,4
     41,6114	    0,141216	-98,3	    0,145227	-105,6
     41,6134	      0,1435	-103,4	    0,144866	-102,9
     41,6153	     0,14225	-100,0	    0,144968	-103,2
     41,6173	    0,144961	-103,0	    0,144741	-104,2
     41,6193	    0,140345	-99,2	    0,144283	-100,3
     41,6212	     0,14408	-100,1	    0,145891	-103,2
     41,6232	    0,144041	-102,0	    0,144589	-99,4
     41,6251	    0,143464	-100,3	     0,14602	-102,5
     41,6271	    0,146272	-104,5	    0,144807	-100,7
      41,629	    0,144342	-101,8	    0,145478	-99,7
      41,631	    0,142793	-99,6	    0,149344	-103,3
     41,6329	    0,148693	-103,6	    0,145305	-99,4
     41,6349	    0,145836	-102,4	    0,149853	-104,3
     41,6369	    0,148808	-103,1	    0,149599	-103,3
     41,6388	    0,147587	-102,9	    0,146374	-101,7
     41,6408	    0,146931	-100,5	    0,149186	-103,9
     41,6427	    0,150004	-103,3	    0,146929	-98,3
     41,6447	    0,145871	-98,4	    0,147206	-101,6
     41,6466	    0,149129	-104,2	    0,149877	-99,9
     41,6486	    0,148029	-102,5	    0,148924	-99,9
     41,6505	    0,149727	-101,5	    0,151086	-100,4
     41,6525	    0,152043	-104,7	    0,147915	-98,1
     41,6544	    0,147952	-98,5	    0,153678	-104,2
     41,6564	    0,152399	-102,0	    0,152939	-101,3
     41,6584	    0,151755	-103,8	     0,15085	-99,4
     41,6603	    0,148933	-99,6	    0,154332	-104,0
     41,6623	    0,152386	-102,4	    0,151758	-100,4
     41,6642	    0,149415	-98,7	    0,154639	-103,2
     41,6662	     0,15012	-99,6	    0,155976	-102,2
     41,6681	    0,151104	-101,0	    0,152317	-100,8
     41,6701	    0,150834	-98,2	    0,155278	-103,1
      41,672	    0,154195	-101,8	    0,152103	-99,4
      41,674	    0,150647	-98,6	     0,15456	-103,2
      41,676	    0,154533	-104,7	    0,155936	-99,0
     41,6779	    0,152732	-102,3	    0,155213	-96,8
     41,6799	    0,153899	-101,2	    0,157359	-103,0
     41,6818	    0,157029	-103,6	    0,154077	-100,4
     41,6838	    0,153043	-98,8	    0,158674	-102,3
     41,6857	    0,155023	-100,6	    0,157014	-96,6
     41,6877	    0,153523	-100,0	    0,155142	-99,1
     41,6896	    0,154373	-98,5	    0,158302	-103,0
     41,6916	    0,158488	-102,6	    0,156504	-98,3
     41,6936	    0,155657	-100,5	    0,160549	-103,6
     41,6955	    0,158602	-102,3	    0,158906	-99,8
     41,6975	    0,157265	-102,8	    0,157983	-98,6
     41,6994	    0,154813	-97,7	    0,162234	-100,8
     41,7014	     0,16003	-102,4	    0,159036	-99,3
     41,7033	    0,157998	-102,4	    0,161972	-103,6
     41,7053	    0,160398	-100,0	    0,163796	-101,9
     41,7072	    0,160894	-102,0	    0,161561	-100,6
     41,7092	    0,157812	-96,8	    0,163761	-103,0
     41,7111	    0,161508	-99,9	    0,158501	-97,0
     41,7131	    0,159065	-99,3	     0,16292	-102,0
     41,7151	    0,160744	-98,2	    0,164859	-102,3
      41,717	    0,162198	-102,7	    0,161413	-98,2
      41,719	    0,160042	-97,3	    0,163362	-101,1
     41,7209	    0,162945	-101,3	    0,162989	-96,9
     41,7229	    0,161131	-100,5	     0,16611	-103,2
     41,7248	    0,164747	-99,9	    0,166054	-100,6
     41,7268	    0,165254	-102,9	    0,164896	-100,2
     41,7287	    0,163464	-98,9	    0,166704	-101,4
     41,7307	    0,164694	-99,6	    0,164017	-98,0
     41,7327	    0,163338	-100,7	    0,164572	-100,7
     41,7346	    0,162908	-95,8	    0,169154	-102,6
     41,7366	    0,166233	-102,0	    0,165936	-97,8
     41,7385	    0,163838	-99,0	    0,167752	-100,5
     41,7405	    0,167374	-100,4	     0,16864	-96,5
     41,7424	    0,167212	-101,7	       0,167	-97,4
     41,7444	    0,165983	-99,6	    0,172609	-101,4
     41,7463	    0,168241	-100,5	    0,168643	-97,6
     41,7483	    0,167772	-101,0	    0,171094	-103,0
     41,7502	    0,168858	-98,6	    0,173689	-102,4
     41,7522	    0,167873	-100,4	    0,168791	-98,5
     41,7542	    0,166755	-98,4	    0,172809	-101,5
     41,7561	    0,167604	-98,0	    0,169422	-97,1
     41,7581	    0,168516	-100,3	    0,170455	-99,9
       41,76	    0,167597	-97,8	    0,171443	-96,6
      41,762	     0,17308	-101,6	    0,172674	-97,2
     41,7639	    0,168954	-99,0	    0,175125	-100,1
     41,7659	    0,173741	-99,5	    0,173319	-96,8
     41,7678	    0,174186	-101,6	    0,175849	-102,1
     41,7698	     0,17067	-97,1	    0,177343	-100,4
     41,7718	    0,173624	-99,7	    0,173942	-97,9
     41,7737	    0,171444	-97,5	     0,17632	-102,0
     41,7757	    0,171786	-96,8	    0,174341	-95,6
     41,7776	     0,17551	-101,9	    0,176407	-96,8
     41,7796	     0,17427	-98,7	    0,178874	-100,8
     41,7815	    0,177275	-100,0	    0,177172	-96,3
     41,7835	    0,177603	-101,6	       0,176	-98,5
     41,7854	    0,174734	-98,0	    0,180624	-98,0
     41,7874	    0,178804	-101,2	    0,175972	-97,0
     41,7893	    0,173584	-95,0	    0,182094	-100,1
     41,7913	    0,176597	-95,5	    0,181032	-99,3
     41,7933	    0,177784	-99,7	    0,179795	-98,7
     41,7952	    0,176919	-97,0	    0,182243	-101,0
     41,7972	    0,181832	-99,4	    0,178769	-96,2
     41,7991	    0,179084	-99,4	    0,182278	-99,6
     41,8011	    0,178816	-96,7	    0,182819	-96,2
      41,803	    0,180468	-100,0	    0,180945	-96,0
      41,805	    0,179301	-98,6	    0,186807	-98,3
     41,8069	    0,180993	-98,1	    0,183983	-95,3
     41,8089	    0,183889	-99,9	    0,185822	-100,6
     41,8109	    0,179715	-96,5	    0,187486	-99,4
     41,8128	    0,182895	-97,2	    0,186099	-96,7
     41,8148	    0,182423	-98,2	    0,188149	-100,1
     41,8167	    0,179978	-94,7	    0,188157	-99,4
     41,8187	    0,183938	-98,7	    0,187366	-97,8
     41,8206	    0,183871	-97,6	     0,18889	-99,8
     41,8226	    0,185755	-97,0	    0,185289	-94,9
     41,8245	    0,187945	-100,5	    0,185591	-96,7
     41,8265	    0,184884	-95,5	    0,190726	-96,6
     41,8284	    0,188824	-96,6	    0,188503	-96,0
     41,8304	    0,184394	-96,8	    0,194104	-99,7
     41,8324	     0,18456	-95,0	    0,193843	-97,3
     41,8343	    0,190468	-98,9	    0,192115	-94,7
     41,8363	     0,18896	-99,0	    0,196447	-99,1
     41,8382	    0,189653	-97,4	    0,193011	-96,4
     41,8402	    0,192628	-98,1	    0,193457	-98,9
     41,8421	    0,188524	-95,6	    0,196101	-100,3
     41,8441	    0,189889	-95,2	     0,19278	-95,1
      41,846	    0,191251	-97,4	    0,195075	-98,3
      41,848	    0,189467	-95,0	    0,194021	-94,1
       41,85	    0,195749	-98,6	    0,193176	-95,7
     41,8519	    0,191971	-97,9	    0,198133	-98,1
     41,8539	    0,194728	-98,1	    0,197075	-94,3
     41,8558	    0,197954	-99,1	    0,196286	-95,5
     41,8578	      0,1931	-93,9	    0,201514	-97,2
     41,8597	    0,195608	-93,5	    0,200791	-96,2
     41,8617	    0,197739	-97,1	    0,200483	-99,4
     41,8636	    0,196629	-95,8	     0,20282	-97,6
     41,8656	    0,199706	-97,7	    0,200367	-95,8
     41,8675	    0,199522	-97,6	    0,204146	-98,4
     41,8695	    0,197336	-93,4	    0,200868	-93,4
     41,8715	    0,201255	-95,6	    0,202146	-95,1
     41,8734	    0,199379	-96,0	    0,204503	-97,1
     41,8754	    0,199046	-93,6	    0,204329	-94,2
     41,8773	    0,203159	-97,9	    0,206461	-96,9
     41,8793	    0,199902	-96,1	    0,208309	-96,8
     41,8812	    0,202371	-97,8	    0,204239	-93,5
     41,8832	    0,204992	-96,7	    0,205748	-96,3
     41,8851	    0,202115	-92,6	    0,207705	-94,2
     41,8871	    0,202882	-95,3	    0,206888	-93,8
     41,8891	    0,204342	-98,1	    0,212552	-96,8
      41,891	     0,20053	-94,9	    0,210446	-94,4
      41,893	    0,206461	-96,1	     0,21049	-96,3
     41,8949	    0,206711	-96,5	    0,213259	-97,0
     41,8969	    0,204481	-93,7	    0,209149	-94,2
     41,8988	    0,208537	-95,1	    0,212851	-96,6
     41,9008	    0,204675	-93,1	    0,214836	-93,3
     41,9027	    0,206675	-94,2	    0,212533	-93,4
     41,9047	    0,209705	-95,8	    0,217357	-96,8
     41,9066	    0,209694	-94,4	     0,21731	-94,9
     41,9086	    0,212479	-95,3	    0,215149	-94,1
     41,9106	    0,214004	-96,6	    0,218618	-96,3
     41,9125	    0,210525	-91,7	    0,216398	-92,0
     41,9145	    0,213052	-94,1	    0,217759	-95,1
     41,9164	    0,215495	-96,3	    0,218655	-94,0
     41,9184	    0,214284	-92,1	    0,217315	-92,5
     41,9203	    0,215221	-94,6	    0,223298	-96,2
     41,9223	    0,215637	-95,4	    0,223644	-94,2
     41,9242	    0,214551	-92,4	    0,221962	-93,8
     41,9262	    0,218914	-95,9	    0,224493	-95,2
     41,9282	    0,218854	-95,3	    0,222008	-92,0
     41,9301	    0,217931	-92,6	    0,222444	-91,3
     41,9321	     0,22108	-93,5	    0,228089	-95,3
      41,934	    0,217704	-93,4	    0,225162	-93,2
      41,936	    0,218144	-91,4	    0,228113	-95,8
     41,9379	    0,222208	-96,2	    0,231609	-94,7
     41,9399	    0,220779	-93,7	    0,229288	-92,1
     41,9418	    0,223036	-92,9	    0,230643	-94,2
     41,9438	    0,225743	-95,0	    0,232914	-95,1
     41,9457	    0,222909	-91,0	    0,229076	-91,9
     41,9477	    0,226207	-92,8	    0,232035	-94,1
     41,9497	    0,227585	-93,9	    0,233904	-92,8
     41,9516	    0,223598	-89,9	    0,232919	-91,4
     41,9536	      0,2264	-90,9	    0,236478	-95,7
     41,9555	    0,230179	-95,7	    0,237919	-93,1
     41,9575	    0,230158	-91,6	    0,235021	-93,0
     41,9594	    0,231404	-93,1	    0,239028	-94,1
     41,9614	     0,23417	-95,3	    0,236876	-90,0
     41,9633	    0,231094	-90,8	    0,237552	-91,0
     41,9653	    0,234792	-90,5	    0,242123	-93,0
     41,9673	     0,23187	-93,0	    0,241429	-91,2
     41,9692	    0,230905	-89,7	     0,24209	-93,6
     41,9712	    0,238279	-93,7	    0,245616	-93,5
     41,9731	    0,235753	-94,3	    0,242641	-90,1
     41,9751	    0,238985	-91,5	    0,244038	-91,5
      41,977	     0,24183	-91,7	    0,246877	-89,8
      41,979	     0,23825	-89,3	    0,245607	-89,5
     41,9809	    0,240956	-90,2	    0,249445	-94,0
     41,9829	    0,243558	-90,0	    0,251312	-91,9
     41,9848	    0,241668	-89,8	    0,247797	-91,1
     41,9868	    0,241089	-89,5	    0,252805	-92,4
     41,9888	    0,245912	-93,7	    0,250106	-88,7
     41,9907	    0,245885	-92,3	    0,251299	-89,4
     41,9927	    0,247079	-90,3	    0,253446	-91,8
     41,9946	    0,250033	-91,5	     0,25463	-88,2
     41,9966	     0,24577	-88,8	    0,253303	-88,4
     41,9985	    0,248543	-89,4	    0,259644	-92,4
     42,0005	    0,249109	-90,8	    0,259026	-90,4
     42,0024	    0,247161	-88,9	    0,259677	-91,2
     42,0044	    0,256293	-93,0	    0,260733	-91,7
     42,0064	    0,255935	-93,0	    0,257438	-88,2
     42,0083	    0,251772	-88,7	    0,259301	-89,8
     42,0103	    0,253216	-89,4	    0,264848	-89,3
     42,0122	    0,256935	-90,2	    0,264373	-88,0
     42,0142	    0,255097	-90,3	    0,268605	-91,2
     42,0161	    0,259266	-88,8	    0,268972	-90,1
     42,0181	    0,261787	-93,0	    0,265421	-89,6
       42,02	    0,257372	-87,3	    0,270338	-91,2
      42,022	    0,260972	-86,8	    0,268673	-87,5
     42,0239	    0,264359	-90,3	     0,26839	-87,5
     42,0259	     0,26183	-89,7	    0,275251	-89,8
     42,0279	    0,268262	-89,7	    0,275899	-87,9
     42,0298	    0,268766	-91,8	    0,274628	-90,4
     42,0318	    0,267839	-86,3	    0,279877	-91,6
     42,0337	    0,271009	-87,4	    0,276507	-87,6
     42,0357	     0,27023	-87,4	    0,276574	-88,1
     42,0376	    0,271333	-85,1	    0,282892	-89,1
     42,0396	     0,27603	-89,4	    0,284004	-86,4
     42,0415	      0,2746	-89,5	    0,280767	-86,3
     42,0435	    0,274449	-85,5	    0,286831	-89,1
     42,0455	    0,282036	-88,8	    0,286627	-87,1
     42,0474	    0,281582	-89,6	    0,285395	-87,6
     42,0494	    0,277179	-87,7	    0,289511	-88,5
     42,0513	    0,279656	-87,0	    0,287789	-84,9
     42,0533	    0,277971	-87,1	    0,288922	-85,6
     42,0552	    0,279105	-85,8	    0,294415	-89,0
     42,0572	    0,282101	-88,5	      0,2946	-86,2
     42,0591	    0,279746	-87,8	    0,296791	-87,3
     42,0611	    0,277551	-86,4	    0,299199	-90,1
      42,063	    0,282755	-88,3	      0,2994	-86,8
      42,065	    0,286383	-89,1	    0,297237	-85,8
      42,067	    0,283947	-87,0	    0,300859	-87,5
     42,0689	    0,285373	-86,4	    0,300395	-83,5
     42,0709	    0,285655	-87,9	    0,305809	-87,3
     42,0728	    0,285961	-86,1	    0,308997	-86,7
     42,0748	    0,290653	-87,4	    0,305194	-84,0
     42,0767	    0,291306	-86,5	    0,306836	-85,4
     42,0787	    0,293664	-83,8	     0,31194	-84,8
     42,0806	     0,29794	-84,7	    0,310013	-83,8
     42,0826	    0,297519	-87,0	    0,310322	-83,4
     42,0846	    0,298572	-83,1	    0,317779	-85,9
     42,0865	    0,305075	-86,5	     0,31685	-83,6
     42,0885	      0,3051	-85,1	    0,317212	-84,1
     42,0904	    0,303173	-83,8	    0,320558	-85,0
     42,0924	     0,30949	-82,9	     0,32077	-82,0
     42,0943	    0,307497	-83,9	    0,320452	-82,3
     42,0963	    0,306905	-82,8	    0,328348	-85,0
     42,0982	    0,309593	-81,0	    0,327491	-83,2
     42,1002	    0,315016	-82,5	    0,327905	-84,3
     42,1021	    0,313026	-83,5	    0,331909	-83,7
     42,1041	    0,317557	-82,3	    0,329203	-80,5
     42,1061	    0,317069	-84,1	     0,33241	-81,2
      42,108	    0,311915	-82,5	    0,336022	-81,6
       42,11	    0,315079	-80,9	    0,335542	-80,3
     42,1119	    0,323351	-82,6	    0,339798	-82,5
     42,1139	    0,323238	-83,2	     0,34292	-82,5
     42,1158	     0,32471	-81,6	    0,344334	-81,7
     42,1178	    0,326423	-81,8	     0,34344	-81,9
     42,1197	    0,325946	-80,5	     0,34837	-83,2
     42,1217	    0,325513	-78,2	    0,346509	-79,1
     42,1237	    0,330672	-80,8	    0,347455	-78,9
     42,1256	    0,331155	-80,2	    0,356704	-80,1
     42,1276	    0,334327	-82,7	    0,357615	-80,0
     42,1295	    0,333903	-79,6	    0,354049	-79,1
     42,1315	     0,33206	-80,6	    0,358581	-79,9
     42,1334	    0,332593	-79,4	    0,363662	-78,5
     42,1354	    0,336828	-80,6	     0,36164	-77,3
     42,1373	    0,337626	-82,0	    0,365747	-79,7
     42,1393	    0,336722	-80,1	    0,365325	-77,2
     42,1413	    0,343869	-81,4	    0,367072	-78,0
     42,1432	     0,34461	-80,8	    0,373549	-78,8
     42,1452	    0,344687	-77,9	    0,376451	-78,1
     42,1471	     0,34668	-79,0	    0,374204	-76,2
     42,1491	    0,350859	-78,5	    0,378161	-77,8
      42,151	    0,351218	-79,1	    0,381575	-77,6
      42,153	    0,355512	-77,4	    0,379335	-75,5
     42,1549	     0,35821	-80,0	    0,382075	-75,3
     42,1569	     0,35547	-76,9	    0,389676	-76,5
     42,1588	    0,359761	-75,0	    0,391112	-74,6
     42,1608	    0,360778	-76,7	    0,390008	-76,4
     42,1628	    0,362416	-78,3	    0,395817	-76,2
     42,1647	    0,368228	-76,8	    0,394515	-74,5
     42,1667	    0,371106	-76,7	    0,397495	-73,8
     42,1686	    0,370073	-74,1	    0,405174	-74,7
     42,1706	    0,371352	-74,2	    0,402207	-72,4
     42,1725	    0,378823	-76,4	    0,405204	-73,5
     42,1745	     0,37832	-75,4	    0,412474	-72,7
     42,1764	    0,382249	-73,2	    0,411925	-71,8
     42,1784	    0,384388	-74,6	    0,412529	-70,9
     42,1804	    0,388741	-77,1	    0,418014	-73,1
     42,1823	    0,385597	-72,7	    0,421562	-72,3
     42,1843	    0,387296	-72,8	    0,419787	-70,6
     42,1862	    0,390921	-74,8	    0,423511	-71,6
     42,1882	    0,391064	-75,1	     0,43013	-69,9
     42,1901	    0,395721	-72,3	    0,429826	-69,8
     42,1921	    0,395089	-72,4	     0,43474	-70,9
      42,194	    0,396644	-71,0	    0,437348	-71,2
      42,196	    0,397251	-70,9	    0,436581	-67,6
     42,1979	    0,404519	-72,5	    0,438958	-69,1
     42,1999	    0,402756	-68,8	    0,447248	-67,7
     42,2019	    0,405141	-70,0	    0,448035	-67,1
     42,2038	    0,411098	-69,6	    0,446754	-68,2
     42,2058	    0,409998	-70,8	    0,454061	-67,5
     42,2077	    0,411463	-69,1	    0,453856	-65,8
     42,2097	    0,418742	-70,3	    0,455101	-65,3
     42,2116	     0,41998	-70,2	    0,463522	-66,9
     42,2136	     0,41853	-68,2	    0,466139	-66,4
     42,2155	    0,420133	-68,7	    0,464291	-64,7
     42,2175	      0,4267	-69,4	    0,468198	-64,4
     42,2195	     0,42654	-69,7	    0,475477	-65,0
     42,2214	     0,42842	-66,9	    0,471744	-63,3
     42,2234	    0,433837	-66,9	     0,47415	-64,1
     42,2253	    0,430929	-66,8	    0,482733	-62,2
     42,2273	    0,432963	-66,2	    0,480838	-61,6
     42,2292	    0,442959	-68,0	    0,482271	-61,9
     42,2312	    0,443275	-67,3	     0,49028	-62,1
     42,2331	    0,441695	-64,5	    0,492048	-61,4
     42,2351	    0,447621	-64,3	    0,490366	-60,2
      42,237	    0,448448	-66,1	    0,494327	-60,7
      42,239	    0,450077	-65,6	    0,501208	-59,5
      42,241	    0,457071	-64,5	    0,500148	-58,3
     42,2429	    0,459204	-65,8	     0,50353	-60,2
     42,2449	    0,458208	-63,8	    0,508264	-59,3
     42,2468	    0,461169	-62,0	    0,507142	-57,4
     42,2488	    0,466537	-62,0	    0,508481	-57,5
     42,2507	    0,465248	-63,1	      0,5166	-56,9
     42,2527	     0,46572	-59,8	    0,517077	-55,5
     42,2546	    0,474274	-60,3	    0,518148	-55,7
     42,2566	    0,472391	-59,9	    0,519993	-55,6
     42,2586	    0,476212	-59,6	    0,523476	-54,5
     42,2605	    0,484077	-59,9	    0,523914	-53,5
     42,2625	    0,485061	-58,7	    0,530819	-54,0
     42,2644	    0,484743	-57,0	    0,533521	-53,9
     42,2664	    0,489237	-57,2	    0,530923	-53,0
     42,2683	    0,496614	-58,2	    0,533228	-52,5
     42,2703	    0,496854	-56,4	    0,537399	-53,2
     42,2722	    0,498589	-56,2	    0,540383	-50,9
     42,2742	    0,503359	-56,0	    0,539128	-50,7
     42,2761	    0,503361	-57,7	    0,544822	-52,2
     42,2781	    0,504633	-54,0	    0,548367	-51,5
     42,2801	    0,511474	-54,0	    0,543351	-49,7
      42,282	    0,513368	-55,1	     0,54563	-48,9
      42,284	     0,51344	-50,9	    0,553443	-48,9
     42,2859	    0,516067	-51,8	     0,54986	-47,7
     42,2879	     0,52398	-52,2	    0,550786	-47,4
     42,2898	    0,523516	-52,8	    0,558933	-46,6
     42,2918	    0,524408	-48,7	    0,560799	-46,2
     42,2937	    0,529159	-48,7	    0,557846	-46,1
     42,2957	    0,529358	-49,7	    0,559716	-45,5
     42,2977	    0,529557	-49,7	    0,564888	-44,5
     42,2996	    0,539169	-47,3	    0,563522	-44,6
     42,3016	    0,540139	-48,8	    0,562983	-43,5
     42,3035	    0,536744	-48,0	    0,569726	-44,6
     42,3055	    0,541873	-46,5	    0,571397	-43,4
     42,3074	    0,544668	-46,6	    0,566837	-44,1
     42,3094	    0,543947	-48,0	    0,574439	-43,0
     42,3113	    0,545251	-47,1	    0,576295	-42,3
     42,3133	    0,550325	-45,8	    0,570193	-42,1
     42,3153	    0,550213	-45,4	    0,572516	-41,7
     42,3172	    0,550724	-45,3	    0,577089	-41,1
     42,3192	    0,551128	-43,4	    0,576714	-39,1
     42,3211	    0,557982	-43,6	    0,577992	-39,2
     42,3231	    0,558659	-42,7	    0,581593	-39,6
      42,325	     0,55857	-41,3	     0,58503	-39,3
      42,327	    0,561331	-42,2	    0,579503	-38,1
     42,3289	    0,563461	-41,6	    0,577965	-37,8
     42,3309	    0,562203	-39,9	    0,583558	-37,3
     42,3328	    0,568647	-39,4	    0,582913	-36,9
     42,3348	     0,57096	-39,6	    0,582039	-37,2
     42,3368	    0,567271	-39,5	    0,584531	-36,5
     42,3387	    0,566893	-39,8	    0,585102	-35,6
     42,3407	    0,573943	-38,1	    0,583062	-34,7
     42,3426	    0,574926	-37,8	    0,585729	-36,0
     42,3446	    0,571168	-36,8	    0,589169	-35,6
     42,3465	    0,573903	-36,6	    0,583846	-33,8
     42,3485	    0,577292	-37,6	    0,584381	-34,7
     42,3504	    0,578469	-36,6	    0,591379	-34,1
     42,3524	    0,579977	-35,3	    0,590684	-33,0
     42,3544	      0,5821	-36,2	    0,586043	-32,3
     42,3563	    0,579869	-35,0	    0,588933	-32,6
     42,3583	    0,580524	-35,0	    0,592761	-31,4
     42,3602	    0,585138	-33,1	    0,590414	-30,5
     42,3622	    0,587626	-34,0	    0,588813	-30,7
     42,3641	    0,582437	-32,3	    0,591208	-31,2
     42,3661	    0,583146	-31,8	    0,592453	-30,1
      42,368	    0,587818	-30,4	    0,587845	-29,3
       42,37	    0,585646	-31,3	    0,588448	-29,1
     42,3719	    0,587417	-29,7	    0,593926	-28,0
     42,3739	    0,587386	-29,0	    0,592123	-27,7
     42,3759	    0,589651	-29,8	    0,587616	-28,2
     42,3778	    0,587093	-30,0	    0,591106	-28,9
     42,3798	    0,588946	-28,8	    0,593536	-27,0
     42,3817	     0,59048	-29,0	    0,590107	-27,5
     42,3837	    0,587171	-29,9	    0,590495	-27,0
     42,3856	    0,585555	-28,2	    0,593243	-27,5
     42,3876	    0,587147	-27,3	     0,59082	-25,9
     42,3895	    0,591613	-27,6	    0,588288	-25,5
     42,3915	    0,591967	-27,1	    0,593886	-26,0
     42,3935	    0,589424	-25,8	    0,595367	-25,3
     42,3954	    0,592282	-25,5	    0,587272	-24,0
     42,3974	    0,590358	-25,6	     0,58577	-25,3
     42,3993	    0,589185	-25,5	    0,592786	-24,1
     42,4013	      0,5904	-23,9	    0,591286	-22,9
     42,4032	    0,590998	-25,0	    0,587403	-22,9
     42,4052	    0,588877	-23,5	    0,588264	-22,8
     42,4071	    0,586055	-23,9	    0,590613	-21,0
     42,4091	     0,59045	-22,1	    0,588867	-21,6
      42,411	    0,590562	-21,4	    0,586173	-20,6
      42,413	    0,586111	-21,2	    0,590835	-20,9
      42,415	    0,586607	-20,0	    0,591964	-21,5
     42,4169	    0,593656	-21,4	    0,584713	-20,1
     42,4189	    0,590192	-19,8	    0,590341	-21,4
     42,4208	    0,590146	-20,0	    0,589147	-19,9
     42,4228	    0,588582	-19,8	    0,587614	-19,5
     42,4247	    0,590644	-19,5	    0,582686	-18,5
     42,4267	    0,588719	-19,7	    0,582965	-18,0
     42,4286	    0,584523	-19,6	     0,58676	-18,4
     42,4306	    0,589157	-18,5	    0,584368	-16,9
     42,4326	    0,589112	-18,2	     0,58344	-18,3
     42,4345	    0,584594	-18,2	    0,584138	-18,2
     42,4365	    0,584723	-16,9	    0,582613	-16,9
     42,4384	    0,588898	-18,1	    0,579327	-18,0
     42,4404	    0,588366	-17,0	     0,58261	-17,4
     42,4423	    0,585761	-16,4	    0,583851	-16,8
     42,4443	    0,585294	-16,9	     0,57845	-15,7
     42,4462	    0,586336	-16,4	    0,577541	-16,0
     42,4482	    0,582634	-16,8	    0,577259	-15,7
     42,4501	    0,580688	-15,1	    0,582104	-14,9
     42,4521	    0,584594	-15,7	    0,579848	-14,4
     42,4541	    0,583924	-15,0	    0,576282	-14,0
      42,456	    0,579501	-15,2	    0,575177	-14,5
      42,458	    0,577713	-15,0	    0,579094	-13,2
     42,4599	    0,584197	-13,2	      0,5742	-12,7
     42,4619	    0,583702	-13,0	    0,573381	-11,8
     42,4638	    0,578275	-12,3	    0,578042	-11,4
     42,4658	    0,579037	-12,0	    0,577087	-11,9
     42,4677	     0,58085	-12,0	    0,570334	-12,1
     42,4697	    0,578463	-12,7	    0,570568	-13,5
     42,4717	    0,571662	-11,2	    0,570878	-12,1
     42,4736	    0,573646	-11,0	    0,568516	-10,0
     42,4756	    0,576109	-11,0	    0,566301	-10,9
     42,4775	    0,573972	-11,1	    0,569326	-11,5
     42,4795	    0,569282	-10,3	    0,569841	-9,8
     42,4814	    0,569736	-9,9	     0,56273	-9,4
     42,4834	    0,572988	-10,1	    0,563543	-9,7
     42,4853	    0,565804	-8,4	    0,566983	-9,9
     42,4873	    0,565634	-9,0	    0,567509	-8,2
     42,4892	    0,571618	-8,3	    0,562062	-8,6
     42,4912	    0,568954	-8,4	    0,560813	-8,1
     42,4932	    0,566287	-8,7	    0,565548	-8,3
     42,4951	    0,565301	-7,0	    0,563795	-8,4
     42,4971	    0,566669	-6,7	    0,557906	-7,9
      42,499	    0,563706	-7,8	    0,553971	-7,1
      42,501	    0,562143	-7,1	     0,56168	-8,1
     42,5029	    0,563155	-6,2	    0,559561	-7,4
     42,5049	     0,56299	-5,4	       0,554	-6,3
     42,5068	    0,561503	-6,7	    0,552773	-6,8
     42,5088	    0,558528	-4,7	    0,557345	-7,3
     42,5108	    0,558325	-5,5	    0,557065	-5,5
     42,5127	    0,559367	-5,3	    0,548734	-6,1
     42,5147	    0,555188	-5,7	    0,549041	-6,3
     42,5166	    0,552716	-4,5	    0,553106	-5,4
     42,5186	    0,556786	-4,0	    0,550219	-5,9
     42,5205	    0,557253	-4,9	    0,546962	-5,1
     42,5225	    0,550047	-4,3	    0,547281	-4,8
     42,5244	    0,548079	-4,7	     0,54734	-5,5
     42,5264	     0,55183	-3,8	    0,545535	-3,8
     42,5283	    0,551788	-3,5	    0,541766	-3,4
     42,5303	    0,546583	-3,6	      0,5417	-3,4
     42,5323	    0,544065	-3,9	    0,544555	-3,7
     42,5342	    0,550122	-2,7	    0,540937	-3,6
     42,5362	    0,549161	-3,8	    0,539089	-3,1
     42,5381	    0,542569	-0,7	    0,540805	-1,9
     42,5401	    0,542065	-2,2	    0,540464	-2,7
      42,542	      0,5463	-2,2	    0,535639	-1,1
      42,544	    0,543861	-2,2	    0,534721	-1,1
     42,5459	    0,534723	 0,2	    0,534882	-1,7
     42,5479	    0,536142	-0,1	    0,536184	-0,9
     42,5499	     0,53989	-1,2	    0,533422	-0,3
     42,5518	    0,539809	-1,1	    0,529988	-0,2
     42,5538	    0,531224	 0,8	    0,531309	-0,5
     42,5557	    0,532305	-0,4	    0,530118	 0,6
     42,5577	    0,537932	 0,1	    0,528084	 0,3
     42,5596	    0,535473	 0,5	    0,526282	 0,2
     42,5616	    0,529786	 1,2	    0,527883	 0,4
     42,5635	    0,528666	 1,7	    0,529507	 0,4
     42,5655	    0,532626	 2,0	    0,522214	 1,1
     42,5674	    0,530129	 1,7	    0,521664	 1,4
     42,5694	    0,524178	 3,6	    0,525316	 1,8
     42,5714	    0,523872	 2,8	    0,523762	 1,8
     42,5733	    0,526872	 2,5	    0,518697	 2,6
     42,5753	    0,524719	 3,3	     0,51653	 2,9
     42,5772	    0,519383	 2,5	    0,519799	 2,1
     42,5792	    0,518649	 3,8	    0,520472	 2,2
     42,5811	    0,523191	 3,6	    0,513351	 3,2
     42,5831	    0,521289	 2,8	    0,511602	 3,1
      42,585	    0,516141	 5,1	    0,516344	 2,8
      42,587	    0,516797	 4,3	    0,515688	 3,5
      42,589	    0,519308	 4,7	    0,508091	 4,1
     42,5909	    0,513858	 5,7	     0,50556	 4,5
     42,5929	      0,5142	 4,4	    0,510924	 4,0
     42,5948	    0,511984	 5,0	    0,510237	 4,2
     42,5968	    0,512008	 5,5	    0,503555	 4,2
     42,5987	    0,510726	 4,0	      0,5029	 5,6
     42,6007	      0,5054	 6,1	    0,502725	 4,9
     42,6026	    0,504913	 7,1	    0,506383	 4,8
     42,6046	    0,506848	 7,0	    0,505118	 5,7
     42,6065	    0,507671	 4,6	    0,498325	 5,5
     42,6085	    0,500619	 4,9	    0,498053	 6,6
     42,6105	    0,500446	 7,3	    0,502742	 5,8
     42,6124	    0,503611	 7,1	    0,500995	 5,9
     42,6144	    0,502998	 6,6	    0,493713	 6,8
     42,6163	    0,495324	 8,7	    0,491496	 6,6
     42,6183	    0,496556	 8,2	     0,49714	 6,1
     42,6202	    0,499221	 7,5	    0,495444	 7,1
     42,6222	    0,497444	 9,4	    0,488712	 7,7
     42,6241	     0,49113	 9,1	    0,488373	 7,9
     42,6261	    0,489826	 8,8	    0,493022	 7,1
     42,6281	    0,495171	 9,0	    0,493016	 7,8
       42,63	    0,494459	 8,7	    0,484636	 7,8
      42,632	    0,484845	 8,5	    0,481959	 8,3
     42,6339	    0,484657	 9,5	    0,488833	 7,4
     42,6359	    0,490598	 8,9	    0,487343	 8,5
     42,6378	    0,490206	 9,2	    0,480173	 8,6
     42,6398	    0,482277	10,2	    0,479629	 9,7
     42,6417	    0,481267	10,4	    0,482364	 8,4
     42,6437	    0,480256	10,9	    0,481877	 9,7
     42,6456	    0,483526	 9,4	     0,47787	 9,6
     42,6476	    0,476742	11,0	    0,475933	10,4
     42,6496	    0,475811	11,2	    0,476989	 9,8
     42,6515	    0,480739	10,4	      0,4763	10,2
     42,6535	    0,480482	11,3	    0,472193	10,1
     42,6554	    0,473207	11,4	    0,472035	11,1
     42,6574	    0,471661	11,3	    0,471609	10,4
     42,6593	     0,47049	11,6	     0,47143	10,6
     42,6613	    0,475037	11,9	    0,471502	10,8
     42,6632	    0,473511	11,7	    0,467025	12,1
     42,6652	    0,467795	12,9	     0,46336	11,1
     42,6672	    0,466229	12,7	    0,464359	11,6
     42,6691	    0,469512	12,1	    0,467106	11,9
     42,6711	    0,468767	12,9	    0,459103	12,6
      42,673	    0,465814	12,1	    0,459418	12,5
      42,675	    0,462174	12,1	    0,459186	12,6
     42,6769	    0,462933	13,7	    0,461978	12,1
     42,6789	    0,464306	13,5	    0,461835	12,9
     42,6808	     0,46295	12,6	    0,455428	13,2
     42,6828	    0,457587	14,4	    0,453951	13,5
     42,6847	    0,456741	13,7	    0,459001	12,4
     42,6867	    0,458454	14,0	    0,456529	13,1
     42,6887	    0,458392	15,0	    0,450209	13,7
     42,6906	    0,452562	14,2	    0,448393	13,8
     42,6926	    0,449787	15,7	    0,454101	14,2
     42,6945	    0,456445	15,7	    0,452621	13,6
     42,6965	      0,4534	14,5	     0,44592	14,8
     42,6984	    0,452495	15,1	    0,445613	15,6
     42,7004	    0,445485	17,3	    0,445068	14,6
     42,7023	    0,451508	15,8	      0,4499	15,0
     42,7043	    0,450475	15,1	    0,448372	15,0
     42,7063	    0,443097	17,6	    0,439659	15,3
     42,7082	    0,441193	15,9	     0,44015	15,5
     42,7102	    0,446553	16,4	    0,444631	15,1
     42,7121	    0,445507	14,3	    0,444287	15,1
     42,7141	      0,4412	17,2	    0,440636	16,9
      42,716	    0,436751	16,5	    0,436319	16,6
      42,718	    0,435293	16,2	     0,43911	16,6
     42,7199	     0,44032	17,0	    0,439724	16,0
     42,7219	    0,439758	16,2	    0,435994	15,8
     42,7239	    0,433216	16,8	    0,434835	16,0
     42,7258	    0,431014	17,8	     0,43262	16,7
     42,7278	    0,434074	17,3	    0,433353	16,5
     42,7297	    0,434129	16,7	    0,434241	17,1
     42,7317	    0,430441	17,0	    0,433518	17,0
     42,7336	    0,426912	17,8	    0,424454	17,7
     42,7356	    0,428921	18,2	     0,42601	16,8
     42,7375	    0,428513	18,9	    0,430006	17,3
     42,7395	    0,426108	18,2	    0,428347	16,4
     42,7414	    0,423752	19,2	    0,426087	17,4
     42,7434	    0,422512	18,8	    0,421211	16,7
     42,7454	    0,422584	18,8	    0,420492	17,7
     42,7473	    0,423461	19,5	    0,424321	16,8
     42,7493	    0,421332	18,1	    0,423334	17,1
     42,7512	    0,416483	18,8	    0,415602	17,9
     42,7532	     0,41675	19,4	    0,414401	18,4
     42,7551	    0,418748	19,2	    0,418547	17,5
     42,7571	    0,418152	19,4	     0,41976	18,1
      42,759	    0,415073	18,3	    0,412878	19,2
      42,761	     0,41024	18,7	    0,410197	19,7
      42,763	    0,410434	20,8	    0,414596	18,5
     42,7649	    0,416116	19,5	     0,41479	17,6
     42,7669	    0,415189	20,2	    0,411515	18,9
     42,7688	    0,406685	21,0	    0,407649	19,4
     42,7708	    0,405696	19,9	    0,406973	19,4
     42,7727	    0,411415	19,2	    0,406552	18,2
     42,7747	    0,409995	20,3	    0,409666	19,0
     42,7766	    0,401962	20,0	     0,40763	20,1
     42,7786	    0,400374	21,0	    0,399466	20,2
     42,7805	    0,404049	20,9	    0,398411	20,2
     42,7825	    0,402216	20,4	     0,40456	19,2
     42,7845	     0,40211	21,5	    0,403547	20,4
     42,7864	     0,40065	21,6	    0,403672	20,7
     42,7884	    0,397123	21,2	    0,396679	21,3
     42,7903	    0,397436	22,6	     0,39631	21,9
     42,7923	    0,400615	22,1	    0,397816	20,9
     42,7942	    0,398599	21,4	    0,398887	21,4
     42,7962	    0,396427	23,1	    0,396417	21,0
     42,7981	    0,391317	21,7	    0,388682	22,6
     42,8001	    0,390497	23,8	    0,388288	22,6
     42,8021	    0,394376	23,0	     0,39344	22,4
      42,804	    0,393553	22,7	    0,392757	21,1
      42,806	    0,385508	24,2	    0,387802	22,4
     42,8079	    0,385912	22,9	    0,386887	22,4
     42,8099	    0,388602	22,8	    0,387288	23,1
     42,8118	    0,389286	23,5	    0,387692	22,0
     42,8138	    0,385331	24,2	    0,388768	22,3
     42,8157	    0,384756	22,4	    0,384639	22,3
     42,8177	    0,381551	24,6	    0,381584	22,9
     42,8196	    0,382727	23,6	    0,380671	22,0
     42,8216	    0,380691	24,5	      0,3858	22,0
     42,8236	     0,38094	23,0	    0,385388	21,6
     42,8255	    0,375596	24,9	    0,376967	23,3
     42,8275	    0,375475	24,4	    0,376106	23,4
     42,8294	    0,379547	24,2	    0,379311	22,7
     42,8314	    0,380747	23,6	    0,378277	23,4
     42,8333	    0,371567	24,5	    0,376156	23,9
     42,8353	    0,371868	23,9	    0,373707	24,1
     42,8372	    0,371516	23,5	    0,370499	24,1
     42,8392	    0,374005	23,3	    0,372169	23,7
     42,8412	    0,375724	25,2	    0,373666	23,3
     42,8431	     0,36669	24,7	    0,371691	24,6
     42,8451	    0,366323	26,7	    0,364686	25,0
      42,847	    0,371353	26,1	    0,364506	26,0
      42,849	    0,371448	24,6	    0,369907	24,2
     42,8509	      0,3653	25,7	    0,368784	24,0
     42,8529	    0,362593	25,3	    0,363996	25,5
     42,8548	    0,360931	27,1	    0,361922	25,4
     42,8568	    0,363833	26,9	    0,361418	26,1
     42,8587	    0,362236	26,9	     0,36194	25,3
     42,8607	    0,363194	27,0	     0,36436	24,8
     42,8627	    0,357222	27,9	    0,362542	26,1
     42,8646	    0,355779	26,9	    0,356012	26,6
     42,8666	    0,360482	26,7	    0,356052	25,9
     42,8685	    0,359042	27,4	    0,360097	25,7
     42,8705	    0,356609	25,8	     0,36095	25,1
     42,8724	    0,354745	27,6	    0,354521	26,4
     42,8744	    0,351269	27,8	    0,354069	26,5
     42,8763	    0,354753	27,1	    0,354574	26,0
     42,8783	    0,354525	26,2	    0,352287	25,4
     42,8803	    0,353391	26,1	    0,353632	25,9
     42,8822	    0,346761	27,1	    0,353852	26,6
     42,8842	       0,346	27,7	    0,349993	26,8
     42,8861	    0,350055	27,5	    0,347662	26,5
     42,8881	    0,350329	26,7	    0,346331	27,0
       42,89	    0,348946	28,2	    0,350216	25,5
      42,892	    0,347414	26,2	    0,350223	26,7
     42,8939	    0,342692	28,2	    0,342659	28,0
     42,8959	    0,342173	29,1	    0,341902	29,1
     42,8979	    0,348024	26,8	    0,343178	27,7
     42,8998	    0,345486	28,0	    0,345724	27,5
     42,9018	    0,345088	27,2	    0,345989	27,8
     42,9037	    0,339235	29,6	    0,342261	28,3
     42,9057	    0,335345	29,6	    0,337339	28,3
     42,9076	    0,340815	29,7	    0,336832	28,3
     42,9096	    0,339618	28,5	    0,341642	27,4
     42,9115	    0,335785	28,7	     0,34089	27,9
     42,9135	    0,335756	29,3	    0,335158	29,3
     42,9154	     0,33192	30,1	    0,334089	28,4
     42,9174	    0,330169	28,5	    0,335676	28,8
     42,9194	    0,337494	28,6	    0,336092	27,8
     42,9213	    0,335873	28,8	    0,336621	27,2
     42,9233	     0,32774	29,3	    0,334226	28,8
     42,9252	    0,327228	30,0	    0,328785	28,7
     42,9272	    0,330373	28,6	    0,327443	29,9
     42,9291	    0,331704	30,2	    0,326457	29,6
     42,9311	    0,331018	29,2	    0,331686	28,0
      42,933	    0,327952	29,7	    0,329687	29,4
      42,935	    0,322336	30,8	    0,324614	30,2
      42,937	    0,322516	30,7	    0,323733	31,1
     42,9389	    0,327306	29,8	    0,327554	29,3
     42,9409	    0,326443	31,3	    0,326822	29,7
     42,9428	    0,322254	31,0	    0,324578	30,6
     42,9448	    0,320088	31,7	    0,322463	30,4
     42,9467	    0,319191	30,8	    0,320818	30,8
     42,9487	    0,319505	31,4	    0,320672	31,2
     42,9506	    0,321187	30,8	    0,323078	29,5
     42,9526	    0,322185	29,6	    0,324088	29,3
     42,9545	    0,313165	31,0	     0,31963	30,7
     42,9565	    0,313857	31,8	    0,317172	30,1
     42,9585	    0,316053	30,6	    0,314197	30,1
     42,9604	    0,316006	29,0	    0,315366	30,8
     42,9624	    0,316101	29,9	    0,317809	28,9
     42,9643	     0,31262	30,6	     0,31354	30,5
     42,9663	    0,313001	30,6	     0,31389	31,3
     42,9682	    0,310102	31,4	    0,311187	30,7
     42,9702	    0,310668	32,0	    0,310304	32,3
     42,9721	    0,313536	30,1	    0,314471	30,3
     42,9741	    0,312824	31,5	    0,313201	30,5
     42,9761	    0,307768	31,7	    0,307069	31,5
      42,978	    0,306893	32,4	    0,304576	32,7
       42,98	    0,307005	33,1	    0,304313	32,6
     42,9819	    0,308238	33,0	    0,309134	31,4
     42,9839	    0,308749	33,1	    0,308762	30,0
     42,9858	    0,308336	31,5	     0,30822	32,0
     42,9878	    0,301352	33,0	    0,307531	31,4
     42,9897	    0,299615	33,9	    0,301884	31,9
     42,9917	    0,304865	31,4	     0,30541	31,0
     42,9936	    0,303338	32,9	    0,306286	30,7
     42,9956	    0,301524	32,6	    0,303165	30,6
     42,9976	    0,301839	31,4	    0,300187	33,0
     42,9995	    0,295722	34,3	    0,298452	32,7
     43,0015	    0,295406	33,5	    0,297537	32,0
     43,0034	    0,301485	33,2	    0,297462	32,9
     43,0054	    0,300259	34,4	    0,303027	31,8
     43,0073	    0,298677	31,6	    0,302152	32,3
     43,0093	    0,296151	33,6	    0,295091	34,2
     43,0112	    0,291914	35,2	    0,294843	33,4
     43,0132	    0,290606	34,6	     0,29518	33,7
     43,0152	    0,296879	34,3	    0,293593	32,2
     43,0171	    0,295194	31,7	    0,298097	33,0
     43,0191	    0,289604	33,5	    0,296996	33,1
      43,021	    0,288887	33,5	    0,289385	34,3
      43,023	    0,288338	33,6	    0,287217	33,4
     43,0249	    0,287834	34,1	     0,29243	32,1
     43,0269	    0,292527	32,6	    0,292824	32,3
     43,0288	    0,292153	33,8	    0,292143	31,9
     43,0308	    0,286522	34,4	    0,287712	33,0
     43,0327	    0,285436	33,5	    0,287591	34,2
     43,0347	     0,28452	34,4	    0,285075	33,3
     43,0367	    0,285236	35,2	    0,285596	34,0
     43,0386	    0,287374	33,0	    0,289245	33,0
     43,0406	     0,28706	34,6	     0,28748	33,9
     43,0425	    0,279518	35,6	    0,281565	35,4
     43,0445	    0,279193	36,7	    0,280866	35,4
     43,0464	     0,28113	35,3	    0,283054	34,4
     43,0484	    0,280733	34,7	      0,2821	34,6
     43,0503	    0,283817	34,1	    0,285738	33,8
     43,0523	    0,283997	33,2	    0,283564	33,9
     43,0543	    0,276146	35,1	    0,277508	35,6
     43,0562	    0,275421	35,6	    0,276236	34,6
     43,0582	     0,27568	35,1	    0,278817	33,7
     43,0601	     0,27462	36,7	    0,279251	34,0
     43,0621	    0,280178	33,4	     0,27786	34,5
      43,064	    0,280249	34,0	    0,278177	34,3
      43,066	    0,273534	36,7	    0,276599	34,4
     43,0679	    0,272398	35,7	     0,27046	36,3
     43,0699	    0,274195	36,3	    0,270169	36,3
     43,0718	    0,273341	35,4	    0,275586	35,5
     43,0738	     0,27788	35,4	    0,276927	34,7
     43,0758	    0,274172	35,2	    0,271495	36,0
     43,0777	    0,268663	35,4	    0,272487	35,9
     43,0797	    0,267869	36,1	    0,269793	36,9
     43,0816	    0,270969	35,7	    0,267841	34,8
     43,0836	    0,269607	35,8	    0,266746	35,0
     43,0855	    0,271259	35,3	    0,274574	34,1
     43,0875	    0,270361	34,3	    0,268202	34,8
     43,0894	    0,270175	36,0	    0,267188	35,7
     43,0914	    0,263779	37,4	    0,266725	36,5
     43,0934	    0,262498	37,0	    0,263771	36,0
     43,0953	    0,267237	35,9	    0,265301	36,1
     43,0973	    0,266872	37,7	    0,270971	35,3
     43,0992	    0,267393	35,3	    0,268869	35,1
     43,1012	    0,267094	35,1	     0,26214	38,1
     43,1031	    0,260659	37,3	    0,259516	36,6
     43,1051	    0,260195	37,0	    0,260611	36,4
      43,107	    0,262281	36,9	    0,261301	36,2
      43,109	    0,263146	36,2	    0,263629	35,6
     43,1109	    0,263121	35,2	    0,264954	34,8
     43,1129	    0,263893	35,4	    0,262915	35,8
     43,1149	    0,256039	36,8	    0,255198	37,9
     43,1168	    0,254628	39,0	    0,255847	37,5
     43,1188	    0,256908	37,0	    0,257208	36,4
     43,1207	    0,259424	38,3	     0,25708	36,6
     43,1227	    0,261181	36,0	    0,260465	36,4
     43,1246	    0,260757	36,0	    0,261514	35,8
     43,1266	    0,252229	37,8	    0,253287	38,2
     43,1285	    0,254311	36,6	    0,252512	38,4
     43,1305	    0,253061	38,6	    0,255518	36,5
     43,1325	    0,251427	38,7	    0,256139	36,4
     43,1344	    0,253974	36,5	    0,256158	36,1
     43,1364	    0,257214	36,4	    0,256081	35,8
     43,1383	    0,248836	37,1	    0,248973	37,5
     43,1403	    0,247989	39,3	    0,250394	38,0
     43,1422	    0,249373	37,8	    0,247494	37,8
     43,1442	    0,247754	40,2	    0,247826	38,9
     43,1461	     0,25349	37,8	    0,254408	36,6
     43,1481	    0,252086	36,8	    0,254008	36,5
       43,15	    0,246423	37,9	    0,249452	37,9
      43,152	    0,247551	37,5	    0,247715	38,4
      43,154	    0,242925	38,5	     0,24579	38,6
     43,1559	    0,243032	39,1	    0,245768	38,3
     43,1579	     0,24967	36,0	    0,244635	37,9
     43,1598	    0,248057	38,5	    0,250215	36,5
     43,1618	    0,246213	35,7	    0,245358	37,2
     43,1637	    0,246108	38,8	     0,24362	38,6
     43,1657	     0,24046	40,6	    0,240543	38,5
     43,1676	    0,239969	42,0	    0,239887	39,5
     43,1696	    0,244591	38,8	     0,23872	40,1
     43,1716	    0,243824	38,7	    0,245422	38,6
     43,1735	     0,24363	38,0	    0,244752	37,3
     43,1755	     0,24279	36,5	    0,243029	38,7
     43,1774	    0,236454	40,1	    0,243868	37,4
     43,1794	    0,238446	39,0	    0,237409	39,7
     43,1813	    0,235145	40,3	    0,235558	38,6
     43,1833	     0,24102	37,7	    0,239683	37,8
     43,1852	    0,241296	39,2	    0,239344	37,9
     43,1872	    0,240296	37,6	    0,240848	38,7
     43,1891	    0,239685	38,7	    0,240529	37,9
     43,1911	    0,232134	40,1	    0,233862	39,3
     43,1931	    0,233948	39,6	    0,234982	39,5
      43,195	    0,233857	41,0	    0,232905	38,9
      43,197	    0,233569	39,5	    0,233812	38,8
     43,1989	    0,237123	38,8	    0,239861	37,7
     43,2009	    0,237863	36,2	    0,236685	37,4
     43,2028	    0,238254	39,7	    0,231059	39,6
     43,2048	    0,230091	39,9	    0,231259	38,9
     43,2067	    0,230339	40,7	    0,229082	39,5
     43,2087	    0,229379	40,2	    0,229925	39,3
     43,2107	    0,235464	38,8	    0,234835	38,3
     43,2126	    0,233941	39,1	    0,234439	37,9
     43,2146	    0,234357	38,2	    0,234237	38,8
     43,2165	    0,233009	39,3	    0,232375	39,7
     43,2185	    0,225611	41,1	    0,231556	40,1
     43,2204	    0,226222	40,6	    0,225212	40,0
     43,2224	    0,226874	40,5	    0,225643	41,4
     43,2243	    0,225526	40,9	    0,229226	38,7
     43,2263	    0,233024	39,2	    0,227568	39,2
     43,2282	    0,230182	38,3	    0,230724	38,9
     43,2302	    0,223642	39,9	    0,229819	40,1
     43,2322	    0,222562	40,5	    0,221838	41,8
     43,2341	    0,221888	41,8	    0,223184	40,5
     43,2361	    0,222457	41,2	    0,225247	40,1
      43,238	    0,225417	39,4	    0,224345	39,6
       43,24	    0,226213	39,1	    0,228122	38,7
     43,2419	    0,226804	39,4	    0,228041	38,4
     43,2439	    0,222995	39,4	    0,221444	39,9
     43,2458	    0,223937	39,3	    0,220509	41,2
     43,2478	    0,217894	41,7	    0,217698	40,9
     43,2498	    0,218175	41,9	    0,218229	42,4
     43,2517	    0,223113	40,7	    0,223869	39,2
     43,2537	    0,221693	40,3	    0,223151	39,6
     43,2556	    0,223234	39,4	    0,222905	39,1
     43,2576	    0,221627	38,7	    0,222398	39,9
     43,2595	    0,215369	41,1	    0,221627	38,8
     43,2615	    0,217204	40,3	    0,214056	41,8
     43,2634	    0,217202	40,6	    0,214938	40,7
     43,2654	    0,216412	42,7	    0,215441	40,0
     43,2673	    0,221823	40,7	     0,21627	41,4
     43,2693	    0,219471	41,3	    0,220831	39,1
     43,2713	    0,216864	40,1	    0,220441	39,8
     43,2732	    0,218361	39,9	     0,21553	41,3
     43,2752	    0,213424	42,3	    0,215441	42,4
     43,2771	    0,212599	41,7	     0,21213	42,7
     43,2791	    0,213945	41,9	    0,211132	42,0
      43,281	    0,212934	42,6	    0,217033	39,3
      43,283	    0,216345	40,3	    0,215043	39,8
     43,2849	    0,217175	39,9	    0,216872	40,1
     43,2869	    0,212917	41,7	    0,216265	40,1
     43,2889	     0,21249	40,5	    0,211133	41,0
     43,2908	    0,211761	41,4	    0,209987	42,0
     43,2928	    0,207233	43,2	    0,209736	42,6
     43,2947	    0,207001	43,6	    0,207866	42,1
     43,2967	    0,212538	41,1	    0,213638	39,6
     43,2986	     0,21127	42,8	    0,211643	40,4
     43,3006	    0,212679	39,8	    0,210489	39,3
     43,3025	    0,212187	39,2	    0,211198	41,3
     43,3045	    0,205695	43,2	    0,204318	42,7
     43,3064	    0,204669	43,1	    0,204551	43,8
     43,3084	    0,204625	43,6	    0,206604	42,1
     43,3104	    0,205032	43,0	    0,207223	41,7
     43,3123	    0,209542	41,4	    0,211984	40,5
     43,3143	    0,208876	40,7	    0,210369	40,4
     43,3162	    0,208197	41,1	    0,208855	40,7
     43,3182	    0,207458	41,3	    0,208464	40,5
     43,3201	    0,205921	41,2	     0,20104	42,5
     43,3221	    0,200022	44,1	    0,200871	42,7
      43,324	    0,201152	43,8	    0,201317	42,2
      43,326	     0,20404	42,5	      0,2022	42,7
      43,328	    0,201515	43,6	    0,201625	42,5
     43,3299	    0,206437	40,3	    0,208418	40,1
     43,3319	    0,206701	40,3	    0,206178	39,9
     43,3338	    0,202734	41,4	     0,20414	41,3
     43,3358	    0,200502	42,3	    0,204957	41,7
     43,3377	     0,20082	42,2	    0,198186	42,3
     43,3397	    0,198578	44,6	    0,198025	44,9
     43,3416	    0,196298	44,0	    0,197918	42,5
     43,3436	    0,200671	42,0	    0,197842	42,3
     43,3456	    0,200535	41,7	    0,205296	40,5
     43,3475	    0,204022	40,0	    0,201366	40,3
     43,3495	    0,204116	42,3	    0,200253	42,9
     43,3514	    0,197655	42,2	    0,200871	42,1
     43,3534	    0,197093	43,5	    0,196101	43,4
     43,3553	    0,195817	44,9	    0,193253	44,7
     43,3573	    0,195289	45,0	    0,196114	42,2
     43,3592	    0,192027	43,7	    0,194426	43,0
     43,3612	    0,199339	42,4	    0,200897	41,0
     43,3631	    0,200026	41,3	    0,200126	41,5
     43,3651	     0,20008	40,7	    0,197321	42,9
     43,3671	     0,19344	41,8	    0,197207	41,8
      43,369	    0,194437	43,3	     0,19111	44,5
      43,371	    0,191309	44,7	    0,191119	44,6
     43,3729	    0,189171	45,2	    0,192626	43,2
     43,3749	    0,194649	44,1	    0,192602	43,2
     43,3768	    0,194364	43,3	    0,191826	43,4
     43,3788	    0,199343	41,3	    0,194518	41,1
     43,3807	    0,195895	41,0	     0,19544	42,3
     43,3827	    0,195848	41,6	     0,19327	41,8
     43,3847	    0,192772	43,1	    0,195554	41,9
     43,3866	    0,193557	42,1	    0,187298	44,5
     43,3886	    0,185947	44,1	     0,18883	44,9
     43,3905	    0,186463	44,8	    0,188916	43,4
     43,3925	    0,188624	44,9	    0,187317	42,6
     43,3944	    0,188483	44,0	    0,193287	42,2
     43,3964	    0,192027	42,6	    0,193811	41,4
     43,3983	    0,192079	42,7	    0,193078	42,1
     43,4003	    0,189259	41,7	    0,191588	41,9
     43,4022	     0,19197	42,7	     0,18587	44,7
     43,4042	    0,184892	44,9	    0,185607	44,6
     43,4062	    0,184733	43,7	    0,186241	45,2
     43,4081	    0,184914	45,0	    0,185406	44,2
     43,4101	     0,18301	44,7	    0,184582	44,5
      43,412	     0,18767	42,7	    0,189161	42,3
      43,414	    0,188364	44,1	    0,190088	42,7
     43,4159	    0,190153	42,4	    0,189931	41,7
     43,4179	    0,189915	42,8	    0,184001	44,4
     43,4198	    0,183611	44,4	    0,186283	44,2
     43,4218	    0,183051	42,8	    0,186477	43,4
     43,4238	    0,179292	45,8	    0,180454	45,4
     43,4257	    0,181768	45,7	    0,178141	45,0
     43,4277	    0,180218	45,6	    0,185735	43,3
     43,4296	    0,182455	44,8	    0,183268	43,3
     43,4316	    0,187218	42,2	    0,187253	42,7
     43,4335	    0,186725	43,6	    0,185361	41,5
     43,4355	    0,185254	43,0	    0,184711	44,7
     43,4374	    0,183924	42,3	    0,184132	42,6
     43,4394	    0,178919	44,1	    0,177769	46,7
     43,4413	    0,179888	43,5	    0,178828	44,7
     43,4433	    0,178471	44,7	    0,179113	44,3
     43,4453	    0,178302	45,4	    0,176711	44,7
     43,4472	    0,177435	45,7	    0,184445	41,5
     43,4492	    0,181243	44,6	    0,181875	42,4
     43,4511	    0,179313	44,3	    0,183021	43,2
     43,4531	    0,183905	42,6	    0,182391	42,2
      43,455	     0,18338	42,3	     0,17758	45,4
      43,457	    0,179086	43,9	    0,179317	43,7
     43,4589	    0,180507	43,5	    0,172927	45,2
     43,4609	    0,175041	46,3	    0,174385	45,6
     43,4629	    0,173535	45,2	    0,175706	43,8
     43,4648	     0,17632	46,2	      0,1741	45,2
     43,4668	    0,174605	45,9	    0,179847	42,6
     43,4687	    0,174453	45,3	    0,179943	42,8
     43,4707	    0,180037	42,6	    0,178263	43,2
     43,4726	    0,178801	42,5	    0,177076	42,5
     43,4746	    0,178866	42,4	     0,17802	42,9
     43,4765	    0,173517	44,7	    0,174076	45,3
     43,4785	    0,173718	43,8	    0,176247	45,3
     43,4804	    0,171546	46,9	     0,16995	46,6
     43,4824	    0,170491	45,1	    0,170572	46,0
     43,4844	    0,170219	45,4	    0,172073	45,5
     43,4863	    0,169552	47,3	    0,172788	44,7
     43,4883	    0,175926	44,0	      0,1764	41,6
     43,4902	     0,17424	46,1	    0,175567	43,5
     43,4922	    0,176582	43,3	    0,174582	44,1
     43,4941	     0,17692	43,5	    0,175627	44,3
     43,4961	     0,17228	43,4	    0,171127	47,1
      43,498	    0,172244	43,9	    0,172419	44,2
        43,5	    0,179389	46,6	    0,164822	46,0

