X-Data [Hz]	Laser (M - Filtered) [m/s]	Phase [Deg]	Laser (M - Filtered) [m/s]	Phase [Deg]	
	002: [07-10-24 11:06]		003: [07-10-24 11:09]	
        41,5	   0,0129361	77,0	   0,0132898	75,9
      41,502	   0,0129975	79,3	   0,0134132	76,8
     41,5039	   0,0131108	78,0	   0,0135202	75,9
     41,5059	   0,0132188	79,8	   0,0135201	79,0
     41,5078	   0,0133625	77,0	   0,0134176	78,4
     41,5098	   0,0134273	79,2	   0,0134295	79,1
     41,5117	   0,0134213	79,4	   0,0135584	75,1
     41,5137	   0,0134016	77,6	   0,0135214	78,2
     41,5156	   0,0133647	78,6	   0,0134344	78,5
     41,5176	   0,0134181	77,3	   0,0135745	77,7
     41,5196	   0,0136006	78,8	   0,0136135	79,7
     41,5215	   0,0137013	78,3	   0,0135725	75,9
     41,5235	   0,0136365	78,9	   0,0136818	77,2
     41,5254	   0,0135598	80,3	   0,0136043	78,0
     41,5274	   0,0136282	77,1	   0,0135843	77,1
     41,5293	   0,0136661	78,3	   0,0136331	79,5
     41,5313	   0,0136698	77,9	   0,0136451	77,0
     41,5332	    0,013738	78,5	   0,0137131	78,3
     41,5352	   0,0136561	77,0	   0,0138414	77,3
     41,5371	   0,0136602	76,9	   0,0137893	80,3
     41,5391	   0,0138199	79,0	    0,013818	79,8
     41,5411	   0,0139065	76,8	   0,0138158	78,2
      41,543	   0,0137876	76,9	   0,0138119	78,8
      41,545	   0,0137097	79,1	   0,0138004	78,4
     41,5469	    0,013725	78,4	   0,0138936	79,1
     41,5489	   0,0138306	78,5	   0,0138173	78,7
     41,5508	   0,0139695	77,5	   0,0138561	78,9
     41,5528	   0,0140006	80,0	   0,0139709	77,1
     41,5547	   0,0139652	78,7	   0,0140277	76,5
     41,5567	   0,0139111	79,4	   0,0139649	79,4
     41,5587	   0,0139299	78,3	   0,0139494	77,4
     41,5606	   0,0139962	77,0	   0,0140048	79,7
     41,5626	   0,0140401	79,2	    0,014075	78,4
     41,5645	   0,0140581	76,4	   0,0141552	77,7
     41,5665	   0,0141029	79,8	   0,0141585	79,0
     41,5684	   0,0141836	77,6	   0,0141742	78,8
     41,5704	   0,0141469	77,1	    0,014151	80,4
     41,5723	   0,0140778	79,0	   0,0141541	77,9
     41,5743	   0,0140997	76,7	   0,0141222	79,4
     41,5762	   0,0141059	80,7	   0,0141233	77,9
     41,5782	    0,014165	79,8	   0,0141287	77,2
     41,5802	   0,0141765	79,5	   0,0142395	79,9
     41,5821	   0,0143264	78,5	   0,0142929	79,6
     41,5841	   0,0143581	77,3	   0,0143448	80,2
      41,586	   0,0142723	79,7	   0,0143446	79,3
      41,588	   0,0142919	79,0	   0,0143654	79,0
     41,5899	   0,0143312	78,7	   0,0142574	80,7
     41,5919	   0,0143564	77,5	   0,0143688	78,1
     41,5938	   0,0143285	76,2	   0,0144378	80,5
     41,5958	   0,0143672	80,0	   0,0144806	77,6
     41,5978	   0,0144885	78,6	   0,0145142	78,3
     41,5997	   0,0145225	81,1	   0,0145206	78,9
     41,6017	   0,0144301	79,0	   0,0145906	78,3
     41,6036	   0,0145127	79,1	   0,0145342	80,3
     41,6056	   0,0145065	80,6	   0,0145299	80,3
     41,6075	   0,0145424	79,2	   0,0145689	79,7
     41,6095	    0,014575	80,8	   0,0147182	79,7
     41,6114	   0,0146153	80,2	   0,0146434	80,5
     41,6134	   0,0146103	79,9	   0,0146619	80,1
     41,6153	    0,014546	80,5	   0,0147153	79,4
     41,6173	   0,0145688	78,2	   0,0147719	79,9
     41,6193	   0,0146518	79,3	   0,0147898	80,8
     41,6212	   0,0147126	79,5	   0,0147701	78,7
     41,6232	   0,0148788	79,7	    0,014783	80,0
     41,6251	    0,014834	79,3	   0,0148552	78,9
     41,6271	   0,0147338	78,7	   0,0148811	79,0
      41,629	   0,0147409	80,5	   0,0149465	79,0
      41,631	   0,0147758	79,1	   0,0149196	78,4
     41,6329	   0,0148816	81,8	    0,014972	79,2
     41,6349	   0,0149737	81,1	   0,0150769	78,3
     41,6369	   0,0149921	79,0	   0,0150567	81,8
     41,6388	   0,0149561	79,0	   0,0150439	80,9
     41,6408	    0,014919	78,5	   0,0150086	79,4
     41,6427	   0,0149427	79,8	   0,0150995	80,0
     41,6447	   0,0150435	80,4	   0,0150954	78,5
     41,6466	   0,0150483	80,4	   0,0151483	79,8
     41,6486	   0,0151074	81,1	    0,015195	78,7
     41,6505	   0,0151482	78,1	   0,0152774	80,2
     41,6525	   0,0151196	80,8	   0,0153284	79,5
     41,6544	    0,015124	80,6	   0,0152623	77,3
     41,6564	    0,015195	81,2	   0,0152564	79,3
     41,6584	   0,0152943	81,8	    0,015303	79,7
     41,6603	   0,0153037	78,7	   0,0153432	81,3
     41,6623	   0,0153015	79,9	   0,0153875	79,7
     41,6642	   0,0153443	79,1	   0,0153471	79,4
     41,6662	   0,0153727	79,6	   0,0154047	80,3
     41,6681	   0,0153641	81,3	    0,015441	79,6
     41,6701	   0,0153615	81,1	   0,0154667	81,5
      41,672	   0,0154894	80,7	   0,0155306	81,0
      41,674	   0,0154568	79,4	   0,0156354	80,3
      41,676	    0,015435	78,3	   0,0157072	81,3
     41,6779	   0,0154388	82,2	   0,0157624	77,1
     41,6799	   0,0155272	80,7	   0,0157274	80,2
     41,6818	   0,0154859	82,2	   0,0156286	81,3
     41,6838	   0,0155951	82,9	   0,0156409	79,4
     41,6857	    0,015632	79,7	    0,015794	80,8
     41,6877	   0,0156144	80,2	   0,0158658	81,3
     41,6896	   0,0156824	79,8	   0,0158745	80,9
     41,6916	   0,0157101	79,3	   0,0157756	81,1
     41,6936	   0,0157877	79,7	   0,0156934	79,3
     41,6955	   0,0157671	80,7	   0,0158295	81,9
     41,6975	   0,0158724	80,7	   0,0158631	82,5
     41,6994	   0,0157654	79,9	   0,0159053	81,3
     41,7014	   0,0158533	81,4	   0,0159502	81,1
     41,7033	   0,0159124	81,9	   0,0160191	78,6
     41,7053	   0,0158762	80,7	   0,0159849	80,9
     41,7072	   0,0159635	82,6	   0,0160814	80,4
     41,7092	   0,0160182	79,9	   0,0160997	79,9
     41,7111	   0,0160045	77,6	   0,0160764	81,2
     41,7131	   0,0160428	80,9	    0,016155	79,8
     41,7151	   0,0160806	78,3	   0,0162109	79,8
      41,717	   0,0159605	82,5	   0,0161998	80,7
      41,719	   0,0160511	81,3	   0,0162497	79,6
     41,7209	   0,0161214	80,7	   0,0162682	82,1
     41,7229	   0,0162163	81,3	   0,0163089	81,8
     41,7248	    0,016355	79,9	   0,0164007	81,9
     41,7268	    0,016432	80,4	   0,0165038	82,3
     41,7287	   0,0163699	81,0	   0,0165289	80,0
     41,7307	   0,0163218	80,2	   0,0165898	80,9
     41,7327	   0,0163801	81,4	   0,0164902	81,1
     41,7346	   0,0164042	82,1	   0,0165267	80,9
     41,7366	   0,0164232	80,9	   0,0165308	82,0
     41,7385	   0,0164477	82,0	   0,0165851	81,2
     41,7405	   0,0164113	80,1	   0,0165436	82,8
     41,7424	   0,0164373	82,3	   0,0165977	81,4
     41,7444	   0,0165505	83,0	   0,0166586	81,6
     41,7463	   0,0166032	81,6	   0,0166892	82,4
     41,7483	   0,0166652	82,7	   0,0167624	81,0
     41,7502	   0,0167012	80,0	   0,0168457	81,9
     41,7522	   0,0166946	80,4	    0,016824	81,0
     41,7542	   0,0167627	82,6	   0,0168807	79,7
     41,7561	   0,0168024	80,7	   0,0168524	83,3
     41,7581	   0,0168244	83,5	    0,016922	81,1
       41,76	   0,0168577	82,7	   0,0169979	83,8
      41,762	   0,0169051	81,1	   0,0170333	82,7
     41,7639	    0,016916	82,6	   0,0170971	81,8
     41,7659	   0,0169733	82,0	   0,0171064	83,0
     41,7678	     0,01699	83,0	    0,017125	81,9
     41,7698	    0,017066	82,4	   0,0171774	81,5
     41,7718	   0,0167757	82,3	   0,0172833	83,2
     41,7737	   0,0171608	78,3	   0,0173182	82,2
     41,7757	   0,0170588	82,5	   0,0173389	82,5
     41,7776	    0,017203	81,8	   0,0173216	81,9
     41,7796	    0,017271	80,6	    0,017353	81,2
     41,7815	   0,0172274	84,1	   0,0173284	82,2
     41,7835	   0,0173707	83,3	   0,0174797	81,8
     41,7854	   0,0173278	81,4	   0,0175018	83,7
     41,7874	   0,0174742	81,4	   0,0174665	84,1
     41,7893	   0,0174119	83,5	   0,0175293	82,4
     41,7913	   0,0174316	81,3	   0,0176068	82,9
     41,7933	   0,0175077	81,7	    0,017604	80,9
     41,7952	   0,0174449	83,3	   0,0176522	81,3
     41,7972	   0,0175383	82,3	   0,0177241	84,5
     41,7991	   0,0174861	84,1	   0,0177214	82,5
     41,8011	   0,0176076	85,2	   0,0176873	81,8
      41,803	   0,0176308	82,7	   0,0177132	84,0
      41,805	   0,0177335	83,7	   0,0178325	82,7
     41,8069	   0,0177734	82,5	   0,0179758	82,7
     41,8089	   0,0177104	83,6	   0,0180195	82,9
     41,8109	   0,0177537	83,7	   0,0179793	82,6
     41,8128	   0,0177573	83,8	   0,0179514	84,0
     41,8148	   0,0178316	84,0	   0,0179587	82,7
     41,8167	   0,0179299	83,1	   0,0180594	82,5
     41,8187	     0,01795	83,4	   0,0181535	84,1
     41,8206	   0,0180331	83,8	   0,0181311	82,6
     41,8226	   0,0180239	83,0	   0,0182359	84,0
     41,8245	   0,0180695	84,1	   0,0182447	83,5
     41,8265	   0,0181362	83,0	   0,0182893	81,8
     41,8284	   0,0181703	84,0	   0,0183955	84,3
     41,8304	   0,0183471	82,4	    0,018455	82,9
     41,8324	   0,0183664	82,7	   0,0184934	83,5
     41,8343	   0,0183398	83,8	   0,0185334	83,8
     41,8363	   0,0183346	84,1	   0,0185961	82,3
     41,8382	   0,0183606	83,4	    0,018609	84,4
     41,8402	   0,0184627	83,7	   0,0186088	84,2
     41,8421	   0,0185245	84,1	    0,018655	83,5
     41,8441	   0,0186152	83,1	   0,0187091	85,4
      41,846	   0,0186689	84,2	   0,0187311	86,0
      41,848	   0,0186906	84,2	   0,0188173	83,6
       41,85	   0,0186696	82,9	   0,0187999	84,7
     41,8519	   0,0186867	84,3	   0,0189099	82,0
     41,8539	     0,01869	83,9	   0,0190594	82,7
     41,8558	    0,018721	84,6	   0,0190705	84,5
     41,8578	    0,018859	84,5	   0,0191206	84,4
     41,8597	   0,0188378	83,5	   0,0191557	85,8
     41,8617	   0,0189134	84,7	   0,0192031	86,0
     41,8636	   0,0188725	84,3	    0,019147	83,7
     41,8656	    0,018949	84,2	   0,0191479	83,2
     41,8675	   0,0190085	84,6	   0,0192662	82,2
     41,8695	   0,0191451	84,4	   0,0193193	83,4
     41,8715	   0,0191497	83,0	   0,0193863	85,4
     41,8734	   0,0192929	85,8	   0,0194194	86,1
     41,8754	   0,0193835	85,5	   0,0195184	86,8
     41,8773	   0,0194004	84,8	   0,0195474	86,6
     41,8793	   0,0193373	86,1	   0,0195457	84,0
     41,8812	   0,0193824	85,4	   0,0196132	83,9
     41,8832	    0,019539	85,9	   0,0196827	84,4
     41,8851	   0,0194242	85,6	   0,0197461	84,4
     41,8871	   0,0195015	85,5	   0,0197912	84,8
     41,8891	   0,0196063	87,0	   0,0198184	85,2
      41,891	   0,0196272	83,4	    0,019939	85,1
      41,893	   0,0196443	85,4	    0,019958	86,1
     41,8949	    0,019652	86,4	   0,0199845	85,2
     41,8969	   0,0197221	86,0	    0,019943	85,5
     41,8988	    0,019795	85,8	   0,0200101	85,5
     41,9008	   0,0198683	87,5	   0,0201347	84,2
     41,9027	   0,0199142	84,7	   0,0201734	85,2
     41,9047	   0,0199729	87,2	   0,0202396	85,9
     41,9066	   0,0200272	85,2	     0,02026	85,6
     41,9086	    0,020052	85,4	   0,0203412	86,4
     41,9106	    0,020101	86,4	    0,020431	86,5
     41,9125	   0,0200993	85,8	    0,020428	86,3
     41,9145	   0,0201687	86,0	   0,0204569	86,8
     41,9164	   0,0202099	86,8	   0,0204095	85,0
     41,9184	   0,0203477	86,3	   0,0205838	84,8
     41,9203	   0,0204205	86,7	   0,0207008	87,4
     41,9223	   0,0204945	87,3	   0,0207089	86,1
     41,9242	    0,020586	85,9	   0,0208802	85,4
     41,9262	   0,0206345	86,8	   0,0209618	87,0
     41,9282	   0,0205768	86,8	   0,0209749	85,5
     41,9301	   0,0205668	86,3	    0,021015	87,0
     41,9321	    0,020589	86,8	   0,0211002	86,7
      41,934	   0,0206709	86,7	   0,0210911	86,6
      41,936	   0,0207575	87,2	   0,0211188	86,5
     41,9379	   0,0209133	87,9	   0,0211585	87,0
     41,9399	   0,0209333	86,6	   0,0212523	86,7
     41,9418	   0,0209134	86,8	   0,0212755	88,5
     41,9438	   0,0210245	87,6	   0,0213366	87,3
     41,9457	   0,0210774	87,4	   0,0214608	85,9
     41,9477	   0,0211591	87,2	   0,0214846	86,9
     41,9497	   0,0212325	88,5	    0,021622	85,7
     41,9516	   0,0212211	87,3	   0,0216593	87,2
     41,9536	   0,0212705	87,1	   0,0216688	88,8
     41,9555	   0,0213476	88,4	   0,0217301	87,3
     41,9575	   0,0214536	86,2	    0,021844	88,1
     41,9594	   0,0215085	87,6	   0,0218742	88,8
     41,9614	   0,0215903	87,9	   0,0219494	85,5
     41,9633	   0,0216724	87,4	   0,0221001	87,4
     41,9653	   0,0217153	90,3	   0,0221319	87,5
     41,9673	   0,0217502	89,7	   0,0221739	86,7
     41,9692	   0,0217707	88,4	   0,0222229	89,3
     41,9712	   0,0218692	88,5	   0,0223162	89,5
     41,9731	   0,0219267	88,9	   0,0223878	87,8
     41,9751	   0,0221021	87,5	   0,0224346	89,6
      41,977	   0,0221624	88,0	   0,0224839	87,4
      41,979	   0,0221828	89,4	   0,0226076	86,9
     41,9809	   0,0222467	87,9	   0,0225716	89,3
     41,9829	   0,0222613	90,0	   0,0226594	87,4
     41,9848	   0,0222195	89,4	   0,0227258	90,4
     41,9868	    0,022404	89,2	   0,0228319	89,6
     41,9888	   0,0224368	89,9	   0,0229458	89,2
     41,9907	   0,0225367	88,9	   0,0229743	90,5
     41,9927	   0,0225879	88,0	   0,0230671	89,7
     41,9946	   0,0227086	89,8	   0,0231178	87,3
     41,9966	   0,0227396	88,1	   0,0231829	87,7
     41,9985	   0,0227278	90,8	    0,023335	89,7
     42,0005	   0,0227903	91,4	   0,0233646	88,7
     42,0024	   0,0228382	89,3	   0,0234339	90,6
     42,0044	   0,0229028	89,6	   0,0234649	91,5
     42,0064	   0,0229921	90,6	   0,0235448	89,9
     42,0083	   0,0231309	89,6	   0,0236007	89,5
     42,0103	   0,0232152	89,7	   0,0237093	91,3
     42,0122	   0,0232698	91,3	   0,0237058	89,6
     42,0142	   0,0233976	89,1	   0,0237923	91,1
     42,0161	   0,0234511	89,9	   0,0238731	90,7
     42,0181	   0,0234409	90,5	   0,0238181	90,2
       42,02	    0,023521	90,0	   0,0239593	89,4
      42,022	   0,0236075	91,8	   0,0240434	90,4
     42,0239	   0,0236669	92,2	   0,0241552	90,2
     42,0259	   0,0237691	89,7	   0,0243114	91,9
     42,0279	   0,0237502	91,3	   0,0243941	91,9
     42,0298	   0,0238868	90,3	   0,0245289	90,0
     42,0318	   0,0239838	89,4	   0,0246312	91,3
     42,0337	   0,0241402	92,4	   0,0246237	91,2
     42,0357	   0,0242311	92,9	   0,0247567	88,6
     42,0376	   0,0242181	91,2	   0,0248636	90,0
     42,0396	   0,0242694	92,5	   0,0249946	91,0
     42,0415	   0,0243657	90,1	   0,0250459	91,4
     42,0435	   0,0243991	91,0	   0,0251169	94,4
     42,0455	   0,0245115	90,9	   0,0251463	93,7
     42,0474	   0,0245565	91,4	   0,0253158	91,0
     42,0494	    0,024653	91,2	   0,0254555	92,2
     42,0513	   0,0248422	93,5	   0,0255035	92,1
     42,0533	   0,0249174	93,0	   0,0255012	92,9
     42,0552	   0,0249721	92,7	   0,0256142	93,0
     42,0572	   0,0249872	93,9	    0,025635	92,1
     42,0591	   0,0250872	92,1	   0,0257365	91,8
     42,0611	   0,0251488	92,1	   0,0258839	93,2
      42,063	   0,0252075	93,7	   0,0260346	93,7
      42,065	   0,0252444	93,7	   0,0261316	93,3
      42,067	   0,0254336	92,0	   0,0262852	94,0
     42,0689	   0,0254971	92,4	   0,0263329	93,9
     42,0709	   0,0256377	93,3	   0,0264663	92,6
     42,0728	   0,0257226	92,6	   0,0265455	93,7
     42,0748	   0,0258168	95,5	   0,0266693	92,9
     42,0767	   0,0259557	95,5	   0,0266554	93,2
     42,0787	   0,0259489	94,4	   0,0267996	95,4
     42,0806	   0,0260593	94,9	   0,0267825	95,1
     42,0826	   0,0260961	95,5	   0,0269371	95,2
     42,0846	   0,0261983	92,5	   0,0269934	97,0
     42,0865	   0,0263662	94,2	   0,0271634	93,2
     42,0885	   0,0264377	93,6	   0,0272554	93,7
     42,0904	   0,0265356	93,5	   0,0273754	95,1
     42,0924	   0,0266725	95,3	   0,0274222	94,1
     42,0943	   0,0267014	95,9	   0,0275464	92,8
     42,0963	   0,0267762	94,5	   0,0275483	96,9
     42,0982	   0,0268861	95,7	   0,0276565	96,0
     42,1002	   0,0269672	94,9	   0,0276867	95,3
     42,1021	   0,0270843	94,9	   0,0277588	95,8
     42,1041	   0,0272015	96,0	   0,0279448	96,0
     42,1061	   0,0272482	96,9	   0,0280786	96,2
      42,108	   0,0274479	94,8	   0,0282436	97,4
       42,11	   0,0275057	95,0	   0,0283156	97,2
     42,1119	   0,0276061	96,4	   0,0284603	95,2
     42,1139	   0,0277131	94,8	   0,0286257	96,3
     42,1158	   0,0277626	98,2	   0,0287328	95,8
     42,1178	   0,0277984	98,8	   0,0288244	95,6
     42,1197	   0,0279213	96,7	   0,0289675	95,9
     42,1217	   0,0280911	96,8	   0,0290482	98,4
     42,1237	   0,0282195	97,3	    0,029169	97,5
     42,1256	   0,0282975	96,7	   0,0292741	98,3
     42,1276	   0,0283989	95,9	   0,0294911	97,4
     42,1295	    0,028455	97,7	   0,0294933	97,2
     42,1315	   0,0285603	98,2	   0,0295976	97,6
     42,1334	    0,028759	97,1	   0,0297038	99,5
     42,1354	   0,0289082	98,1	   0,0298754	97,3
     42,1373	   0,0290129	97,0	   0,0300121	98,4
     42,1393	   0,0290844	97,6	   0,0301327	98,9
     42,1413	   0,0291779	100,2	   0,0301958	97,9
     42,1432	   0,0293319	100,4	   0,0303768	98,0
     42,1452	   0,0294636	99,7	   0,0304192	100,4
     42,1471	   0,0295781	101,3	   0,0305596	99,9
     42,1491	   0,0296808	98,2	   0,0307795	99,7
      42,151	   0,0297521	98,9	   0,0309244	101,3
      42,153	   0,0298636	100,0	    0,031158	99,9
     42,1549	   0,0299177	99,9	   0,0312523	99,8
     42,1569	   0,0301511	100,4	   0,0313222	101,4
     42,1588	   0,0302306	100,5	   0,0313949	100,9
     42,1608	    0,030393	100,1	   0,0315067	99,1
     42,1628	   0,0304938	99,7	   0,0315929	100,8
     42,1647	   0,0306385	102,8	   0,0317905	100,5
     42,1667	   0,0307539	103,0	    0,032006	100,2
     42,1686	   0,0308868	99,3	   0,0321492	103,5
     42,1706	   0,0309746	102,3	   0,0322405	103,3
     42,1725	   0,0311299	100,7	   0,0324197	101,8
     42,1745	   0,0311328	99,0	   0,0325455	102,9
     42,1764	   0,0311583	101,8	   0,0327934	103,5
     42,1784	   0,0312836	103,0	   0,0329758	102,7
     42,1804	     0,03145	102,3	   0,0330343	103,0
     42,1823	   0,0316496	101,6	    0,033176	103,2
     42,1843	   0,0318263	103,2	   0,0333465	102,3
     42,1862	   0,0319493	102,9	   0,0334006	103,3
     42,1882	   0,0320838	102,1	   0,0335305	105,4
     42,1901	   0,0322207	105,6	   0,0336338	103,4
     42,1921	   0,0323314	104,2	    0,033844	104,9
      42,194	   0,0324682	103,5	   0,0340208	105,2
      42,196	   0,0326255	104,0	   0,0341767	104,8
     42,1979	   0,0327792	103,5	   0,0342974	105,0
     42,1999	   0,0328735	103,7	   0,0344949	107,3
     42,2019	   0,0330397	103,3	   0,0345474	108,0
     42,2038	    0,033237	105,3	   0,0347439	104,8
     42,2058	   0,0334032	103,0	   0,0349069	105,7
     42,2077	   0,0334595	103,8	   0,0350427	106,2
     42,2097	   0,0335436	106,2	   0,0352051	106,7
     42,2116	    0,033681	105,7	   0,0353834	106,5
     42,2136	   0,0338632	106,5	   0,0355564	108,0
     42,2155	   0,0340082	108,5	   0,0356924	106,3
     42,2175	   0,0341254	106,1	   0,0357124	107,3
     42,2195	   0,0342518	106,5	   0,0358518	110,5
     42,2214	   0,0343883	108,3	    0,036058	109,0
     42,2234	   0,0345009	108,4	   0,0362113	109,3
     42,2253	   0,0346681	106,5	   0,0363779	109,5
     42,2273	   0,0348338	107,6	   0,0366256	109,2
     42,2292	   0,0349949	109,0	   0,0368235	108,4
     42,2312	   0,0352058	106,6	   0,0369871	109,8
     42,2331	   0,0352923	108,2	   0,0373048	110,4
     42,2351	   0,0355237	109,5	   0,0374548	111,8
      42,237	    0,035606	109,4	   0,0376512	110,2
      42,239	   0,0357839	108,9	   0,0377807	110,6
      42,241	    0,035907	109,3	   0,0379651	109,5
     42,2429	   0,0360299	110,7	   0,0381043	110,4
     42,2449	   0,0361218	110,1	   0,0383094	112,6
     42,2468	   0,0362804	112,7	   0,0384906	112,3
     42,2488	   0,0363282	113,2	    0,038662	111,4
     42,2507	   0,0365257	110,3	    0,038891	115,1
     42,2527	   0,0367103	111,1	   0,0389211	115,1
     42,2546	   0,0368804	111,4	   0,0390852	113,5
     42,2566	    0,037026	110,4	   0,0392579	114,0
     42,2586	   0,0372213	111,4	   0,0394157	115,1
     42,2605	   0,0374304	113,8	   0,0396094	113,9
     42,2625	   0,0375573	112,9	   0,0397136	114,7
     42,2644	   0,0377574	112,6	   0,0399052	115,9
     42,2664	   0,0378536	112,9	   0,0401228	117,1
     42,2683	   0,0380674	114,9	   0,0403293	114,6
     42,2703	    0,038269	113,7	   0,0404778	114,7
     42,2722	   0,0383971	116,1	    0,040642	117,1
     42,2742	   0,0385975	115,9	    0,040797	117,2
     42,2761	   0,0387261	114,5	   0,0409519	118,8
     42,2781	   0,0387919	116,0	    0,041026	119,4
     42,2801	    0,039058	116,3	   0,0412543	117,6
      42,282	   0,0392106	115,9	   0,0414529	117,8
      42,284	   0,0394073	116,2	   0,0416536	119,5
     42,2859	    0,039529	117,7	   0,0417015	121,4
     42,2879	   0,0396508	116,6	   0,0419404	119,6
     42,2898	     0,03977	116,9	   0,0420584	120,5
     42,2918	   0,0399726	118,6	   0,0422549	121,3
     42,2937	   0,0401827	119,2	   0,0423567	121,3
     42,2957	   0,0403021	118,8	   0,0425179	121,4
     42,2977	   0,0404418	118,9	   0,0426291	123,0
     42,2996	    0,040662	121,6	   0,0427911	122,8
     42,3016	   0,0408518	121,4	    0,042971	121,3
     42,3035	   0,0410072	121,2	   0,0431325	121,9
     42,3055	   0,0411372	121,5	   0,0432269	123,3
     42,3074	    0,041269	122,8	   0,0433323	122,9
     42,3094	   0,0414664	120,8	   0,0435025	125,1
     42,3113	     0,04152	121,8	     0,04358	125,0
     42,3133	   0,0416114	123,6	    0,043743	124,5
     42,3153	   0,0417571	124,0	   0,0438285	125,7
     42,3172	   0,0419302	122,1	   0,0440002	128,0
     42,3192	   0,0421385	124,7	   0,0441743	127,7
     42,3211	   0,0422737	125,1	   0,0443936	125,3
     42,3231	   0,0424453	123,1	    0,044451	127,1
      42,325	   0,0425915	124,0	   0,0445788	128,2
      42,327	   0,0427484	125,5	   0,0446638	127,3
     42,3289	   0,0429188	124,5	   0,0448377	127,2
     42,3309	   0,0430094	125,1	   0,0449997	129,6
     42,3328	   0,0431548	128,2	   0,0451137	128,0
     42,3348	   0,0433366	127,2	   0,0452147	128,3
     42,3368	   0,0434835	127,6	   0,0453365	128,4
     42,3387	   0,0436065	127,4	   0,0454222	131,2
     42,3407	   0,0437185	130,3	   0,0454681	131,4
     42,3426	   0,0438776	129,3	   0,0455975	131,9
     42,3446	   0,0440369	129,3	   0,0456795	131,3
     42,3465	   0,0441159	130,0	   0,0458004	131,9
     42,3485	   0,0442721	131,4	   0,0459112	132,1
     42,3504	   0,0443461	131,1	   0,0460673	134,6
     42,3524	   0,0445767	131,4	   0,0461659	135,5
     42,3544	   0,0446955	132,2	   0,0463404	133,5
     42,3563	    0,044785	131,4	   0,0463754	134,8
     42,3583	   0,0448417	130,6	   0,0464285	136,2
     42,3602	   0,0450009	132,9	   0,0464543	136,1
     42,3622	   0,0450834	134,4	   0,0466131	134,4
     42,3641	   0,0452748	130,5	   0,0466714	137,2
     42,3661	   0,0453035	133,4	   0,0467875	136,6
      42,368	   0,0453629	136,6	   0,0467872	136,1
       42,37	   0,0455658	135,2	   0,0469083	136,5
     42,3719	   0,0455976	135,3	   0,0469886	138,0
     42,3739	   0,0456602	136,5	   0,0470066	139,6
     42,3759	   0,0459522	137,9	   0,0470612	137,7
     42,3778	   0,0461238	136,2	   0,0470795	137,7
     42,3798	   0,0461877	138,3	   0,0471164	139,9
     42,3817	   0,0462393	139,4	   0,0471742	139,5
     42,3837	   0,0463007	138,4	   0,0471164	139,9
     42,3856	   0,0464003	138,6	   0,0471717	140,1
     42,3876	   0,0464399	139,6	   0,0472131	142,0
     42,3895	   0,0465143	140,0	   0,0472999	140,6
     42,3915	   0,0466661	139,6	   0,0473372	143,2
     42,3935	   0,0466901	139,7	   0,0474015	144,3
     42,3954	   0,0467865	141,3	   0,0475081	142,7
     42,3974	   0,0468216	141,3	   0,0474855	143,5
     42,3993	   0,0469087	140,1	   0,0475403	145,2
     42,4013	   0,0469453	142,5	   0,0475731	146,7
     42,4032	   0,0469556	143,3	   0,0476454	144,0
     42,4052	   0,0469949	141,8	   0,0476688	145,0
     42,4071	   0,0470766	142,1	   0,0477045	146,8
     42,4091	   0,0472186	143,9	   0,0477472	146,4
      42,411	   0,0472924	144,1	   0,0477367	146,2
      42,413	   0,0473117	143,8	   0,0477841	146,6
      42,415	   0,0473216	144,9	   0,0477342	148,7
     42,4169	    0,047342	147,0	    0,047782	146,5
     42,4189	   0,0473216	145,6	   0,0477698	146,5
     42,4208	   0,0473554	145,9	   0,0477966	149,3
     42,4228	    0,047387	146,5	   0,0478279	149,0
     42,4247	   0,0473947	148,7	   0,0477988	147,8
     42,4267	   0,0474324	147,9	   0,0478115	148,3
     42,4286	   0,0474476	149,1	   0,0478228	151,3
     42,4306	   0,0474423	151,1	   0,0478576	150,8
     42,4326	   0,0475235	149,4	   0,0477951	150,7
     42,4345	    0,047423	148,9	   0,0478111	152,5
     42,4365	   0,0475818	149,3	   0,0477926	152,4
     42,4384	   0,0476372	151,7	   0,0478145	151,8
     42,4404	   0,0476404	152,3	   0,0477365	151,5
     42,4423	   0,0476172	150,7	   0,0476744	153,4
     42,4443	   0,0476548	151,6	   0,0476117	154,9
     42,4462	    0,047624	153,1	   0,0476306	153,8
     42,4482	    0,047654	152,9	   0,0476405	153,4
     42,4501	   0,0476637	152,8	    0,047601	156,2
     42,4521	    0,047657	153,1	   0,0476448	156,2
     42,4541	   0,0475973	154,7	   0,0476211	154,3
      42,456	   0,0475938	153,0	   0,0475669	154,7
      42,458	    0,047657	153,4	   0,0474938	156,6
     42,4599	   0,0476373	155,1	   0,0473976	157,0
     42,4619	    0,047498	154,4	   0,0473714	156,0
     42,4638	   0,0475358	154,0	   0,0472438	158,2
     42,4658	   0,0475364	156,9	   0,0472681	158,2
     42,4677	    0,047531	156,7	   0,0472392	158,1
     42,4697	   0,0476255	156,5	   0,0472303	159,0
     42,4717	   0,0476735	156,6	   0,0472104	159,4
     42,4736	   0,0476351	156,9	   0,0471495	159,5
     42,4756	   0,0474893	158,8	     0,04709	157,5
     42,4775	   0,0474594	158,9	   0,0470489	158,3
     42,4795	   0,0473953	158,5	   0,0470078	161,0
     42,4814	   0,0473437	159,9	   0,0470607	159,8
     42,4834	   0,0473275	160,9	   0,0469911	159,4
     42,4853	    0,047234	160,6	   0,0468164	160,8
     42,4873	    0,047246	160,4	   0,0467688	160,9
     42,4892	   0,0472393	161,5	   0,0466711	161,6
     42,4912	   0,0471843	163,5	   0,0467037	161,2
     42,4932	   0,0471813	161,3	    0,046564	163,0
     42,4951	   0,0471582	162,3	   0,0465249	164,7
     42,4971	   0,0470619	163,4	   0,0465152	162,7
      42,499	    0,046995	163,0	   0,0464279	161,9
      42,501	    0,046902	163,3	   0,0463907	162,5
     42,5029	   0,0467935	163,4	   0,0462496	165,5
     42,5049	   0,0466902	165,2	   0,0461459	164,9
     42,5068	   0,0466812	163,4	   0,0459906	165,0
     42,5088	   0,0465732	164,4	   0,0459338	165,5
     42,5108	   0,0465339	165,3	   0,0457801	166,4
     42,5127	   0,0464341	166,3	    0,045695	166,8
     42,5147	   0,0464091	167,1	    0,045652	167,2
     42,5166	   0,0463237	164,8	    0,045599	167,2
     42,5186	   0,0462461	166,7	   0,0455084	167,6
     42,5205	   0,0461764	167,5	   0,0455147	167,6
     42,5225	   0,0460922	166,8	   0,0454585	167,9
     42,5244	   0,0459597	166,4	   0,0454197	169,0
     42,5264	   0,0459523	167,0	   0,0453183	168,8
     42,5283	   0,0458657	169,0	   0,0452208	168,4
     42,5303	   0,0457689	166,6	    0,045172	169,0
     42,5323	   0,0457405	167,6	   0,0450858	169,5
     42,5342	   0,0456501	169,3	   0,0450581	170,9
     42,5362	    0,045595	169,6	   0,0449599	168,9
     42,5381	    0,045467	169,0	   0,0448604	169,5
     42,5401	   0,0453361	169,0	   0,0447858	171,8
      42,542	   0,0452523	170,1	   0,0447205	171,6
      42,544	   0,0450888	170,2	   0,0446352	171,2
     42,5459	   0,0451026	171,0	   0,0445703	170,8
     42,5479	   0,0450428	170,5	   0,0444412	172,7
     42,5499	   0,0448985	170,9	   0,0443523	171,4
     42,5518	      0,0448	171,8	   0,0442467	172,8
     42,5538	   0,0448424	171,9	   0,0441482	172,5
     42,5557	   0,0446282	172,3	   0,0440747	172,4
     42,5577	   0,0445628	172,5	   0,0439696	173,3
     42,5596	   0,0444261	174,5	   0,0439152	171,5
     42,5616	   0,0443803	172,3	   0,0438068	171,9
     42,5635	   0,0442356	174,7	   0,0436921	173,7
     42,5655	   0,0441039	175,0	   0,0435578	174,3
     42,5674	   0,0440206	174,5	   0,0434482	174,4
     42,5694	   0,0440038	173,7	   0,0433493	174,0
     42,5714	   0,0438977	177,1	   0,0433027	174,7
     42,5733	   0,0437827	176,4	   0,0431396	174,9
     42,5753	   0,0437151	175,2	    0,043014	175,9
     42,5772	   0,0436466	175,4	   0,0430057	175,8
     42,5792	   0,0435337	174,9	   0,0429515	175,7
     42,5811	   0,0434358	178,3	   0,0428923	175,7
     42,5831	   0,0434303	178,9	   0,0427659	176,6
      42,585	   0,0432493	177,7	   0,0426683	175,7
      42,587	   0,0431383	177,2	   0,0424657	177,1
      42,589	   0,0430131	180,8	   0,0423569	177,7
     42,5909	   0,0428839	180,8	   0,0422572	177,3
     42,5929	   0,0427109	178,8	   0,0421494	177,7
     42,5948	   0,0425917	177,6	   0,0420169	178,2
     42,5968	   0,0425249	180,1	   0,0419269	178,7
     42,5987	   0,0424409	180,2	   0,0418408	178,5
     42,6007	   0,0423701	178,5	   0,0417202	178,4
     42,6026	   0,0422865	179,7	   0,0415997	178,6
     42,6046	   0,0421823	182,6	   0,0414672	180,0
     42,6065	   0,0420576	182,5	   0,0414023	178,7
     42,6085	    0,041932	180,6	   0,0412363	179,8
     42,6105	   0,0418682	180,8	   0,0411762	180,5
     42,6124	   0,0417604	182,6	   0,0411048	180,9
     42,6144	   0,0416319	182,8	   0,0409978	179,8
     42,6163	   0,0413883	182,8	    0,040898	180,1
     42,6183	   0,0412724	181,6	   0,0407999	180,8
     42,6202	   0,0411907	183,8	   0,0406764	180,9
     42,6222	     0,04112	184,4	   0,0405331	181,4
     42,6241	   0,0410318	184,0	   0,0404478	181,0
     42,6261	   0,0408707	182,2	   0,0403634	181,5
     42,6281	   0,0407709	182,6	   0,0402823	182,3
       42,63	   0,0407358	185,1	   0,0401878	182,7
      42,632	   0,0405573	184,0	   0,0401195	183,6
     42,6339	   0,0404965	183,7	   0,0399556	183,5
     42,6359	   0,0404027	183,6	   0,0398553	184,0
     42,6378	    0,040377	185,6	    0,039715	184,9
     42,6398	   0,0402281	184,9	   0,0396598	183,3
     42,6417	   0,0400807	184,2	   0,0395183	184,3
     42,6437	   0,0399545	185,0	   0,0393894	183,9
     42,6456	   0,0398471	186,7	   0,0393261	185,4
     42,6476	   0,0398141	187,1	   0,0391712	185,1
     42,6496	   0,0396741	184,3	      0,0391	184,6
     42,6515	   0,0396213	185,8	   0,0389376	183,8
     42,6535	   0,0395004	187,9	   0,0388304	186,3
     42,6554	   0,0393308	187,8	   0,0387396	185,5
     42,6574	   0,0392446	185,0	   0,0386406	185,6
     42,6593	   0,0390895	187,0	   0,0385809	186,2
     42,6613	   0,0389698	189,3	   0,0384305	187,4
     42,6632	   0,0388934	188,8	   0,0384235	187,8
     42,6652	   0,0388148	189,4	   0,0383601	185,6
     42,6672	   0,0386814	187,1	   0,0382267	185,5
     42,6691	    0,038586	188,9	   0,0381274	187,6
     42,6711	    0,038434	190,0	   0,0380284	187,2
      42,673	   0,0383207	187,2	   0,0378211	186,4
      42,675	   0,0382479	188,0	   0,0377332	186,3
     42,6769	   0,0380604	189,4	   0,0375857	189,8
     42,6789	   0,0378841	191,5	   0,0375669	189,6
     42,6808	   0,0378172	189,6	   0,0374515	186,6
     42,6828	   0,0377511	190,1	   0,0373479	187,0
     42,6847	   0,0377087	190,1	   0,0372842	188,0
     42,6867	   0,0375301	191,3	   0,0371514	189,9
     42,6887	   0,0374253	191,7	   0,0370308	189,0
     42,6906	   0,0372682	190,2	   0,0368688	188,3
     42,6926	   0,0370886	190,9	   0,0367188	188,5
     42,6945	   0,0370297	191,4	   0,0366505	190,1
     42,6965	   0,0369725	192,8	   0,0365767	190,8
     42,6984	   0,0368307	192,4	   0,0364425	190,6
     42,7004	   0,0367659	191,4	   0,0363018	189,4
     42,7023	   0,0366677	192,6	    0,036244	190,7
     42,7043	    0,036568	193,1	   0,0362085	191,7
     42,7063	   0,0364546	193,7	   0,0360736	191,8
     42,7082	   0,0363294	191,7	   0,0358849	190,5
     42,7102	   0,0362175	192,4	   0,0357974	190,5
     42,7121	   0,0360528	193,2	   0,0357283	192,4
     42,7141	   0,0359765	193,2	   0,0356552	193,4
      42,716	    0,035902	193,6	    0,035521	190,5
      42,718	   0,0357368	192,9	   0,0354371	190,7
     42,7199	   0,0356802	194,0	   0,0353487	193,1
     42,7219	   0,0355907	195,7	   0,0351842	192,8
     42,7239	    0,035449	195,7	   0,0350308	194,1
     42,7258	   0,0353735	193,8	   0,0348977	192,1
     42,7278	   0,0351264	194,5	   0,0348042	192,7
     42,7297	   0,0351321	195,3	   0,0347295	194,1
     42,7317	   0,0350063	196,1	   0,0345858	194,1
     42,7336	   0,0349521	195,0	    0,034472	192,9
     42,7356	   0,0348694	195,0	   0,0343419	194,4
     42,7375	    0,034762	195,7	   0,0342535	195,2
     42,7395	   0,0345914	196,9	   0,0342421	196,3
     42,7414	   0,0345514	197,1	   0,0341034	196,4
     42,7434	   0,0343451	194,5	    0,034023	194,6
     42,7454	   0,0342894	196,0	   0,0339255	194,9
     42,7473	   0,0341694	197,7	   0,0338915	197,3
     42,7493	     0,03411	197,9	   0,0338042	196,9
     42,7512	   0,0340394	196,2	   0,0336186	196,3
     42,7532	    0,033955	195,4	    0,033494	195,8
     42,7551	   0,0338317	198,4	   0,0334473	195,8
     42,7571	   0,0337387	197,7	   0,0333424	198,8
      42,759	   0,0336229	197,2	   0,0332264	197,7
      42,761	   0,0334675	196,2	   0,0332099	196,2
      42,763	   0,0334077	194,1	   0,0331315	196,5
     42,7649	    0,033225	197,3	   0,0329932	196,1
     42,7669	   0,0331727	198,5	   0,0328142	199,3
     42,7688	   0,0330668	197,3	    0,032832	198,6
     42,7708	   0,0330451	196,8	   0,0327012	197,5
     42,7727	   0,0328931	197,5	   0,0326087	197,0
     42,7747	   0,0327873	198,5	   0,0324475	198,9
     42,7766	   0,0326103	-159,9	   0,0324006	199,4
     42,7786	    0,032524	-160,3	   0,0323464	198,3
     42,7805	   0,0323921	-162,7	   0,0321686	197,7
     42,7825	   0,0323019	-162,4	    0,032052	199,3
     42,7845	   0,0321402	-160,3	   0,0319533	199,2
     42,7864	   0,0320868	-159,5	   0,0318373	198,7
     42,7884	   0,0319767	-161,5	   0,0317893	197,8
     42,7903	   0,0318829	-162,3	   0,0316073	199,1
     42,7923	   0,0317952	-159,9	    0,031535	197,8
     42,7942	    0,031635	-159,1	   0,0314737	-159,7
     42,7962	   0,0314659	-160,3	   0,0313339	-161,5
     42,7981	   0,0313704	-159,8	   0,0312888	-160,1
     42,8001	   0,0313854	-160,2	    0,031211	-161,9
     42,8021	   0,0313528	-158,8	   0,0311754	-160,9
      42,804	   0,0312199	-158,0	    0,031096	-158,5
      42,806	   0,0310838	-157,9	   0,0309311	-159,1
     42,8079	   0,0309346	-158,0	    0,030865	-161,0
     42,8099	   0,0308232	-157,4	   0,0307412	-160,4
     42,8118	   0,0306884	-157,4	   0,0306408	-159,6
     42,8138	   0,0305746	-155,6	   0,0305027	-157,6
     42,8157	   0,0305336	-156,6	   0,0304518	-158,8
     42,8177	   0,0304402	-157,9	   0,0303102	-158,9
     42,8196	   0,0303614	-158,6	   0,0302053	-159,5
     42,8216	   0,0302786	-156,0	    0,030154	-159,2
     42,8236	   0,0302066	-156,9	   0,0300313	-156,3
     42,8255	   0,0301083	-158,2	   0,0299521	-159,4
     42,8275	   0,0301212	-158,0	   0,0298342	-158,5
     42,8294	   0,0300409	-155,3	   0,0297906	-157,5
     42,8314	   0,0298776	-156,6	   0,0296882	-156,6
     42,8333	    0,029759	-157,0	   0,0296085	-156,0
     42,8353	   0,0296904	-157,3	   0,0294628	-157,1
     42,8372	   0,0295846	-156,6	   0,0293758	-157,6
     42,8392	   0,0294542	-156,6	   0,0292434	-155,5
     42,8412	   0,0293524	-155,3	   0,0292151	-155,5
     42,8431	    0,029375	-156,0	   0,0291168	-155,3
     42,8451	   0,0292459	-158,0	   0,0290833	-155,6
      42,847	   0,0291715	-157,1	   0,0290316	-156,5
      42,849	   0,0290531	-157,5	    0,029014	-156,8
     42,8509	   0,0289449	-154,7	   0,0289476	-157,3
     42,8529	   0,0288991	-155,6	   0,0288639	-156,1
     42,8548	   0,0288695	-156,9	   0,0287679	-155,3
     42,8568	   0,0286346	-156,4	   0,0286002	-157,5
     42,8587	   0,0285495	-154,6	    0,028487	-156,7
     42,8607	   0,0284735	-154,3	    0,028393	-156,0
     42,8627	   0,0283521	-155,7	   0,0282356	-154,6
     42,8646	   0,0283025	-155,4	   0,0281727	-155,4
     42,8666	   0,0281311	-154,8	   0,0281362	-156,6
     42,8685	     0,02809	-153,3	   0,0280293	-156,4
     42,8705	   0,0279983	-153,5	   0,0279986	-154,8
     42,8724	   0,0279235	-153,4	   0,0279202	-154,9
     42,8744	   0,0278491	-153,8	   0,0277924	-154,6
     42,8763	   0,0277114	-154,4	   0,0277199	-156,2
     42,8783	   0,0276435	-153,9	   0,0276034	-154,7
     42,8803	   0,0276471	-151,7	   0,0273893	-153,2
     42,8822	    0,027587	-151,5	   0,0272698	-152,2
     42,8842	   0,0274089	-153,3	   0,0272454	-154,5
     42,8861	   0,0273402	-154,1	   0,0272034	-154,1
     42,8881	   0,0271409	-153,3	   0,0271727	-153,9
       42,89	   0,0271088	-152,8	   0,0270244	-153,2
      42,892	   0,0270456	-152,0	   0,0269949	-152,8
     42,8939	   0,0269783	-152,9	   0,0268824	-152,4
     42,8959	   0,0268914	-153,6	   0,0268737	-154,0
     42,8979	   0,0268237	-154,0	   0,0268113	-153,8
     42,8998	   0,0267394	-152,4	    0,026799	-154,7
     42,9018	   0,0267294	-151,7	   0,0266979	-152,7
     42,9037	   0,0265976	-151,9	   0,0265763	-152,9
     42,9057	   0,0265081	-152,9	   0,0264741	-154,8
     42,9076	   0,0264848	-153,1	   0,0263686	-154,6
     42,9096	   0,0264589	-151,8	    0,026307	-153,1
     42,9115	   0,0263805	-150,9	   0,0261713	-152,2
     42,9135	   0,0261456	-151,2	    0,026074	-152,4
     42,9154	   0,0261408	-151,2	   0,0259744	-153,4
     42,9174	   0,0260538	-152,2	   0,0259019	-153,3
     42,9194	   0,0257834	-150,4	   0,0258405	-151,9
     42,9213	   0,0258555	-148,1	   0,0257672	-152,1
     42,9233	   0,0257323	-152,0	   0,0257123	-149,7
     42,9252	   0,0257908	-149,9	   0,0256729	-150,5
     42,9272	   0,0256122	-151,4	   0,0256153	-152,4
     42,9291	   0,0255141	-149,1	   0,0255081	-151,7
     42,9311	   0,0254688	-150,2	   0,0255162	-149,5
      42,933	   0,0253409	-149,6	   0,0254842	-149,0
      42,935	   0,0252474	-150,7	   0,0254075	-150,8
      42,937	   0,0250832	-152,4	   0,0252974	-151,3
     42,9389	   0,0251108	-151,0	   0,0251107	-151,2
     42,9409	   0,0250256	-149,4	   0,0250248	-151,2
     42,9428	   0,0250057	-150,1	   0,0249447	-149,4
     42,9448	   0,0248984	-151,4	   0,0249293	-150,6
     42,9467	   0,0248299	-151,8	   0,0248284	-151,6
     42,9487	   0,0247797	-150,3	   0,0247351	-151,8
     42,9506	   0,0246816	-149,0	    0,024691	-152,4
     42,9526	    0,024583	-148,2	   0,0246434	-150,1
     42,9545	   0,0244738	-148,9	   0,0245841	-149,5
     42,9565	   0,0244029	-150,2	   0,0245305	-150,5
     42,9585	    0,024413	-149,8	   0,0243611	-151,8
     42,9604	   0,0242851	-147,9	    0,024241	-150,5
     42,9624	   0,0242197	-148,3	   0,0241711	-148,2
     42,9643	   0,0241458	-148,6	   0,0241749	-148,0
     42,9663	   0,0241278	-148,8	   0,0241998	-148,4
     42,9682	   0,0239928	-149,5	   0,0240911	-150,4
     42,9702	   0,0239677	-150,2	   0,0240378	-149,1
     42,9721	   0,0239496	-147,8	   0,0239083	-148,4
     42,9741	   0,0239244	-147,7	   0,0238754	-147,9
     42,9761	   0,0238333	-148,8	   0,0237977	-147,7
      42,978	   0,0237389	-150,6	   0,0236916	-149,3
       42,98	   0,0235777	-149,7	    0,023544	-151,1
     42,9819	   0,0235359	-148,5	   0,0235189	-150,5
     42,9839	   0,0234539	-148,0	   0,0234503	-148,9
     42,9858	    0,023364	-147,2	    0,023393	-148,1
     42,9878	   0,0232889	-149,0	   0,0232717	-149,6
     42,9897	   0,0232583	-149,0	   0,0232272	-149,4
     42,9917	   0,0231931	-148,3	    0,023155	-148,9
     42,9936	   0,0230777	-148,0	    0,023088	-150,0
     42,9956	   0,0230616	-146,1	   0,0229902	-147,9
     42,9976	   0,0229512	-144,6	   0,0229548	-146,5
     42,9995	   0,0229418	-148,8	   0,0229503	-145,1
     43,0015	   0,0229852	-147,1	   0,0228403	-147,7
     43,0034	   0,0227944	-145,7	   0,0227906	-147,9
     43,0054	   0,0227143	-146,8	   0,0227702	-145,3
     43,0073	   0,0226068	-145,8	   0,0226955	-147,1
     43,0093	   0,0225211	-146,9	   0,0225613	-146,8
     43,0112	   0,0224332	-148,5	   0,0224499	-146,1
     43,0132	   0,0223459	-149,6	    0,022396	-147,9
     43,0152	   0,0222716	-146,9	   0,0223809	-148,9
     43,0171	   0,0223257	-146,2	   0,0222855	-146,9
     43,0191	   0,0222507	-147,1	    0,022243	-147,0
      43,021	   0,0221883	-146,8	   0,0222039	-147,7
      43,023	   0,0220587	-146,0	   0,0221111	-147,1
     43,0249	   0,0220219	-146,7	   0,0220888	-149,3
     43,0269	    0,021993	-145,7	   0,0220776	-147,4
     43,0288	   0,0219754	-144,4	   0,0220056	-145,2
     43,0308	   0,0218759	-144,2	   0,0218742	-144,9
     43,0327	   0,0217074	-146,5	   0,0217961	-146,4
     43,0347	   0,0216166	-145,4	   0,0217807	-145,4
     43,0367	   0,0216111	-146,2	   0,0217091	-145,9
     43,0386	   0,0216301	-143,9	    0,021648	-145,7
     43,0406	   0,0216221	-144,4	    0,021591	-146,7
     43,0425	   0,0215611	-146,5	    0,021553	-144,7
     43,0445	   0,0215121	-146,9	   0,0215031	-145,1
     43,0464	   0,0213657	-145,8	   0,0213871	-146,7
     43,0484	   0,0213016	-146,3	   0,0213243	-146,9
     43,0503	   0,0212472	-146,1	   0,0212592	-146,7
     43,0523	   0,0211802	-144,2	   0,0212463	-146,6
     43,0543	   0,0211561	-143,1	   0,0212364	-144,8
     43,0562	   0,0210223	-146,5	   0,0211388	-144,0
     43,0582	   0,0204827	-147,8	   0,0210638	-146,2
     43,0601	   0,0210561	-150,0	   0,0209824	-144,9
     43,0621	   0,0216472	-148,0	   0,0209951	-144,9
      43,064	   0,0218182	-144,5	   0,0208856	-146,0
      43,066	   0,0216312	-143,2	   0,0208411	-142,9
     43,0679	   0,0212837	-144,2	   0,0207927	-144,7
     43,0699	   0,0209976	-144,9	   0,0206112	-146,0
     43,0718	   0,0206306	-142,5	   0,0205462	-145,6
     43,0738	   0,0204704	-144,6	   0,0205378	-145,2
     43,0758	   0,0203555	-143,6	   0,0204508	-145,5
     43,0777	   0,0203586	-143,7	   0,0205019	-144,0
     43,0797	   0,0203487	-146,5	   0,0204638	-144,6
     43,0816	   0,0203019	-144,7	    0,020369	-145,2
     43,0836	   0,0202831	-143,8	   0,0202908	-144,9
     43,0855	   0,0202153	-142,5	   0,0202106	-144,5
     43,0875	   0,0201392	-142,4	   0,0201202	-143,3
     43,0894	   0,0200654	-142,7	   0,0200649	-144,1
     43,0914	   0,0199441	-143,6	   0,0199921	-141,4
     43,0934	   0,0199192	-144,7	    0,020042	-143,2
     43,0953	   0,0199565	-145,3	   0,0199829	-144,4
     43,0973	   0,0199118	-143,1	   0,0199348	-145,1
     43,0992	   0,0198279	-142,3	   0,0198108	-144,2
     43,1012	   0,0198345	-144,0	   0,0197873	-144,7
     43,1031	   0,0197429	-144,5	   0,0197658	-143,2
     43,1051	   0,0197229	-143,8	   0,0197167	-143,1
      43,107	   0,0196775	-142,5	   0,0196522	-145,2
      43,109	   0,0195335	-141,9	   0,0196105	-144,5
     43,1109	   0,0194213	-142,1	   0,0194385	-144,0
     43,1129	   0,0194144	-140,8	   0,0193616	-143,0
     43,1149	   0,0192955	-141,2	   0,0193274	-141,6
     43,1168	   0,0192495	-142,8	   0,0193537	-141,4
     43,1188	   0,0191789	-143,8	   0,0193792	-142,3
     43,1207	   0,0191703	-142,7	   0,0194037	-144,4
     43,1227	   0,0191665	-141,6	   0,0193372	-145,5
     43,1246	   0,0191402	-143,4	   0,0192409	-145,4
     43,1266	   0,0190002	-144,0	   0,0191619	-142,2
     43,1285	   0,0190091	-143,8	   0,0190233	-143,5
     43,1305	   0,0190054	-143,1	   0,0189572	-142,9
     43,1325	   0,0190058	-143,2	   0,0188668	-145,1
     43,1344	   0,0189167	-141,6	   0,0187834	-142,9
     43,1364	   0,0188964	-140,9	   0,0186512	-142,3
     43,1383	   0,0187823	-139,8	   0,0186771	-140,8
     43,1403	   0,0186084	-141,6	   0,0187583	-140,6
     43,1422	   0,0185475	-142,1	    0,018622	-142,0
     43,1442	   0,0184616	-142,4	   0,0186571	-141,9
     43,1461	    0,018533	-143,6	   0,0186294	-143,3
     43,1481	   0,0184849	-141,3	   0,0186094	-144,6
       43,15	   0,0184771	-141,4	   0,0185348	-142,9
      43,152	   0,0184223	-142,6	   0,0184023	-142,9
      43,154	   0,0184079	-141,3	   0,0183831	-142,9
     43,1559	   0,0183421	-143,9	   0,0182941	-140,6
     43,1579	   0,0182474	-140,8	   0,0183671	-142,5
     43,1598	    0,018132	-140,8	   0,0182522	-142,8
     43,1618	   0,0180624	-139,1	   0,0181768	-141,1
     43,1637	   0,0180456	-140,5	   0,0181772	-140,6
     43,1657	   0,0179978	-142,1	   0,0181563	-139,5
     43,1676	    0,017938	-142,2	   0,0180448	-141,5
     43,1696	   0,0179965	-142,8	   0,0178294	-142,4
     43,1716	   0,0178702	-141,3	    0,017859	-142,8
     43,1735	   0,0178949	-141,9	   0,0179046	-143,2
     43,1755	   0,0177901	-139,7	   0,0178838	-142,3
     43,1774	   0,0178139	-140,8	   0,0179082	-141,0
     43,1794	   0,0178088	-141,8	   0,0178409	-140,7
     43,1813	   0,0177113	-141,1	   0,0177923	-139,3
     43,1833	   0,0177091	-140,6	   0,0176881	-141,2
     43,1852	   0,0176047	-139,4	   0,0176655	-140,8
     43,1872	   0,0174691	-137,7	   0,0175427	-140,8
     43,1891	   0,0173945	-140,4	   0,0175431	-142,0
     43,1911	   0,0174276	-139,9	   0,0175135	-140,5
     43,1931	   0,0174207	-140,4	   0,0175999	-140,2
      43,195	   0,0172334	-142,0	   0,0174904	-140,6
      43,197	   0,0172728	-142,2	    0,017374	-141,0
     43,1989	   0,0172273	-140,1	   0,0173413	-141,8
     43,2009	   0,0172386	-140,1	   0,0171663	-141,7
     43,2028	   0,0172218	-138,4	   0,0170668	-140,2
     43,2048	   0,0171508	-138,6	    0,017092	-139,7
     43,2067	   0,0170312	-138,9	   0,0170461	-138,5
     43,2087	   0,0170442	-139,9	   0,0170234	-138,0
     43,2107	   0,0170323	-141,1	   0,0170762	-139,8
     43,2126	   0,0169786	-141,1	   0,0170364	-140,6
     43,2146	   0,0168868	-141,1	   0,0170494	-142,0
     43,2165	   0,0169249	-140,3	   0,0170526	-141,7
     43,2185	   0,0168638	-139,1	    0,016973	-140,7
     43,2204	   0,0168424	-138,5	   0,0168029	-139,7
     43,2224	   0,0167787	-140,4	   0,0167063	-139,5
     43,2243	   0,0167211	-139,5	   0,0167001	-138,7
     43,2263	   0,0166307	-138,6	   0,0166724	-138,4
     43,2282	   0,0165711	-137,9	   0,0166757	-140,5
     43,2302	   0,0164795	-138,0	   0,0167118	-141,3
     43,2322	   0,0165471	-138,8	   0,0166839	-139,4
     43,2341	   0,0165584	-139,4	    0,016544	-141,6
     43,2361	   0,0165178	-140,6	   0,0163962	-139,4
      43,238	    0,016469	-139,1	   0,0164472	-139,3
       43,24	   0,0164314	-140,0	   0,0163424	-140,6
     43,2419	   0,0163761	-138,6	   0,0162818	-139,2
     43,2439	   0,0163024	-138,0	   0,0162563	-140,0
     43,2458	   0,0162141	-136,7	   0,0162286	-140,1
     43,2478	   0,0161543	-137,6	   0,0162409	-136,5
     43,2498	   0,0160993	-139,3	   0,0162277	-139,1
     43,2517	   0,0160756	-139,8	   0,0161913	-138,9
     43,2537	   0,0160102	-140,1	   0,0161484	-139,7
     43,2556	   0,0160507	-140,7	    0,016246	-140,3
     43,2576	   0,0160049	-139,1	   0,0160916	-140,4
     43,2595	   0,0159387	-138,3	   0,0159368	-139,8
     43,2615	   0,0159567	-137,1	   0,0158669	-138,8
     43,2634	   0,0159412	-137,8	   0,0159072	-136,7
     43,2654	   0,0157798	-136,5	   0,0158417	-136,9
     43,2673	   0,0156844	-139,1	   0,0158123	-138,2
     43,2693	   0,0156742	-141,1	   0,0158352	-139,9
     43,2713	   0,0156772	-139,9	   0,0158067	-140,2
     43,2732	   0,0156753	-138,4	   0,0156914	-141,3
     43,2752	   0,0156873	-138,7	   0,0156681	-139,3
     43,2771	   0,0156571	-137,9	   0,0155675	-139,7
     43,2791	   0,0156036	-137,3	   0,0155627	-137,5
      43,281	   0,0156101	-138,7	   0,0156007	-136,1
      43,283	    0,015527	-138,0	   0,0155488	-138,4
     43,2849	   0,0154032	-136,2	   0,0154786	-137,9
     43,2869	   0,0153274	-137,5	   0,0154189	-138,0
     43,2889	   0,0153133	-139,0	   0,0154378	-139,3
     43,2908	   0,0153024	-138,3	   0,0153936	-140,6
     43,2928	   0,0153304	-136,8	   0,0153988	-139,0
     43,2947	   0,0152835	-137,9	   0,0153277	-138,7
     43,2967	   0,0152859	-135,8	   0,0152547	-137,1
     43,2986	   0,0152396	-137,3	   0,0151907	-138,9
     43,3006	   0,0151906	-137,3	   0,0151517	-136,6
     43,3025	   0,0151261	-136,9	   0,0151588	-138,3
     43,3045	   0,0150388	-136,4	   0,0152161	-138,4
     43,3064	   0,0150127	-136,9	   0,0151105	-140,3
     43,3084	   0,0150001	-137,6	   0,0150946	-137,9
     43,3104	   0,0148642	-139,4	   0,0149958	-138,2
     43,3123	   0,0148565	-136,6	    0,014879	-138,0
     43,3143	   0,0149294	-138,5	      0,0149	-135,3
     43,3162	   0,0148254	-138,4	   0,0148834	-138,5
     43,3182	   0,0148235	-137,0	    0,014877	-137,9
     43,3201	   0,0147669	-138,2	   0,0148577	-137,3
     43,3221	   0,0147071	-137,8	   0,0148842	-138,0
      43,324	   0,0147228	-137,7	   0,0147905	-136,2
      43,326	    0,014647	-137,3	   0,0147578	-136,9
      43,328	   0,0146322	-138,6	   0,0146629	-136,5
     43,3299	   0,0146251	-137,6	   0,0146392	-136,0
     43,3319	   0,0145881	-136,1	   0,0146538	-139,2
     43,3338	   0,0145121	-136,3	   0,0145722	-137,9
     43,3358	   0,0144924	-136,8	   0,0144911	-137,3
     43,3377	    0,014406	-134,7	    0,014421	-139,1
     43,3397	    0,014396	-135,9	   0,0143621	-135,4
     43,3416	   0,0143208	-137,8	   0,0143683	-137,0
     43,3436	   0,0143652	-135,9	   0,0144154	-137,2
     43,3456	   0,0143538	-138,0	   0,0143703	-136,8
     43,3475	   0,0142787	-136,5	   0,0143492	-138,5
     43,3495	   0,0142779	-135,9	   0,0142748	-136,2
     43,3514	   0,0142554	-137,1	   0,0141947	-137,4
     43,3534	   0,0141769	-135,7	    0,014194	-137,2
     43,3553	    0,014136	-136,8	   0,0143035	-137,5
     43,3573	   0,0141438	-136,3	   0,0142737	-136,2
     43,3592	    0,014136	-136,3	   0,0141042	-137,8
     43,3612	    0,014145	-138,3	   0,0140542	-136,2
     43,3631	   0,0140623	-136,2	   0,0139944	-134,7
     43,3651	   0,0140083	-137,6	   0,0139669	-137,0
     43,3671	   0,0140187	-136,3	   0,0140038	-138,7
      43,369	   0,0139864	-134,7	   0,0139072	-137,1
      43,371	   0,0139427	-135,2	   0,0139363	-134,8
     43,3729	   0,0138644	-135,5	   0,0139655	-137,8
     43,3749	   0,0138092	-136,6	   0,0139157	-137,7
     43,3768	   0,0137838	-134,7	   0,0139194	-136,3
     43,3788	   0,0137221	-135,5	   0,0138517	-136,3
     43,3807	   0,0137084	-134,7	   0,0137339	-136,5
     43,3827	    0,013733	-135,2	   0,0137461	-134,6
     43,3847	   0,0136791	-136,8	   0,0137249	-136,5
     43,3866	   0,0136706	-136,4	    0,013743	-137,5
     43,3886	   0,0136194	-136,9	   0,0136059	-136,5
     43,3905	   0,0135458	-136,7	   0,0135513	-138,0
     43,3925	   0,0135833	-134,2	   0,0135673	-136,6
     43,3944	   0,0135084	-135,1	   0,0136134	-134,8
     43,3964	   0,0133633	-134,6	   0,0135185	-135,1
     43,3983	   0,0134445	-136,7	    0,013453	-134,8
     43,4003	   0,0134444	-137,1	   0,0134119	-136,6
     43,4022	   0,0135267	-136,3	   0,0134147	-136,2
     43,4042	   0,0134587	-137,3	   0,0134679	-137,0
     43,4062	   0,0133251	-135,6	   0,0134887	-138,4
     43,4081	   0,0133151	-134,5	   0,0132941	-136,5
     43,4101	   0,0132626	-134,3	   0,0131864	-136,0
      43,412	    0,013297	-134,4	   0,0132237	-134,7
      43,414	   0,0132661	-135,2	   0,0132177	-133,8
     43,4159	   0,0131276	-135,6	   0,0131653	-135,2
     43,4179	   0,0130878	-137,2	   0,0131694	-135,5
     43,4198	   0,0131597	-137,8	   0,0131626	-137,3
     43,4218	    0,013185	-137,5	   0,0131155	-136,9
     43,4238	   0,0130745	-135,5	   0,0130443	-136,7
     43,4257	    0,013073	-134,8	   0,0130096	-135,5
     43,4277	   0,0130685	-133,6	   0,0130445	-134,9
     43,4296	   0,0130042	-131,7	     0,01296	-134,3
     43,4316	   0,0128224	-134,5	    0,012998	-134,2
     43,4335	   0,0128518	-135,7	   0,0130594	-134,7
     43,4355	   0,0129219	-137,6	   0,0129694	-136,7
     43,4374	   0,0129463	-135,3	   0,0128695	-137,1
     43,4394	    0,012921	-135,4	   0,0128234	-137,4
     43,4413	    0,012781	-134,9	   0,0128096	-136,6
     43,4433	   0,0126758	-132,7	   0,0127614	-135,0
     43,4453	   0,0127046	-134,7	   0,0127089	-135,6
     43,4472	   0,0127325	-134,0	   0,0127721	-133,5
     43,4492	   0,0127322	-134,3	   0,0127695	-135,2
     43,4511	   0,0126153	-134,7	   0,0127322	-135,4
     43,4531	   0,0126036	-132,8	   0,0125939	-135,3
      43,455	   0,0125789	-134,9	     0,01251	-136,3
      43,457	   0,0126398	-135,1	   0,0125296	-134,6
     43,4589	   0,0125915	-134,2	   0,0125322	-134,4
     43,4609	   0,0125203	-134,6	    0,012624	-135,2
     43,4629	   0,0124622	-135,3	   0,0125397	-135,2
     43,4648	    0,012497	-136,1	   0,0125202	-136,7
     43,4668	   0,0124898	-135,4	   0,0125113	-134,3
     43,4687	   0,0124404	-133,5	   0,0124227	-135,2
     43,4707	   0,0124002	-133,8	   0,0123271	-133,7
     43,4726	   0,0124864	-133,5	   0,0122938	-131,8
     43,4746	   0,0123985	-134,8	   0,0123183	-134,9
     43,4765	   0,0123407	-136,4	   0,0122496	-134,0
     43,4785	   0,0123104	-135,8	   0,0123288	-136,0
     43,4804	   0,0122309	-135,5	    0,012318	-134,6
     43,4824	   0,0121509	-134,3	   0,0122722	-136,0
     43,4844	   0,0121534	-132,6	   0,0121921	-135,8
     43,4863	   0,0122141	-134,1	   0,0122102	-133,9
     43,4883	   0,0122124	-132,9	   0,0121275	-132,8
     43,4902	   0,0121843	-133,9	   0,0121194	-132,6
     43,4922	    0,012056	-135,2	   0,0121424	-133,2
     43,4941	   0,0120588	-133,5	   0,0120743	-133,7
     43,4961	   0,0121134	-135,1	   0,0120665	-134,5
      43,498	   0,0121134	-135,1	   0,0120125	-133,2
        43,5	     0,01209	-134,3	    0,012068	-134,7

