X-Data [Hz]	Laser (M - Filtered) [m/s]	Phase [Deg]	Laser (M - Filtered) [m/s]	Phase [Deg]	
	002: [07-10-24 11:14]		003: [07-10-24 11:16]	
        41,5	   0,0173128	76,9	   0,0181432	79,4
      41,502	   0,0174253	78,6	   0,0182764	76,9
     41,5039	   0,0176242	79,2	   0,0183586	78,1
     41,5059	   0,0179178	79,4	   0,0183531	78,3
     41,5078	   0,0181045	78,3	   0,0184261	79,0
     41,5098	   0,0181785	77,6	    0,018472	79,0
     41,5117	   0,0182976	78,3	   0,0185243	77,6
     41,5137	   0,0183211	77,8	   0,0184501	78,7
     41,5156	   0,0183757	78,5	   0,0184482	78,2
     41,5176	   0,0183487	78,2	   0,0185153	79,9
     41,5196	   0,0183405	79,3	   0,0186099	77,2
     41,5215	    0,018464	78,4	   0,0186049	78,2
     41,5235	   0,0185336	79,8	   0,0186606	77,5
     41,5254	   0,0185452	79,4	   0,0187066	77,2
     41,5274	   0,0184769	77,7	   0,0187238	79,5
     41,5293	   0,0184751	78,9	   0,0187412	77,9
     41,5313	   0,0186492	78,8	   0,0188091	77,5
     41,5332	   0,0187169	78,9	   0,0188039	77,9
     41,5352	   0,0186705	78,5	   0,0189218	76,7
     41,5371	   0,0186486	78,4	   0,0189264	79,2
     41,5391	   0,0187178	78,1	   0,0188606	78,2
     41,5411	   0,0187421	77,6	   0,0188114	79,2
      41,543	    0,018796	79,7	   0,0189202	78,3
      41,545	   0,0188723	78,6	   0,0190322	79,2
     41,5469	   0,0189398	78,9	   0,0190706	79,5
     41,5489	   0,0188907	79,0	   0,0189911	78,7
     41,5508	   0,0189406	77,8	   0,0190472	78,2
     41,5528	   0,0189802	79,7	   0,0191714	76,9
     41,5547	    0,019013	78,4	   0,0191593	78,4
     41,5567	   0,0189744	80,2	   0,0191203	79,1
     41,5587	   0,0190988	80,7	   0,0191884	78,7
     41,5606	     0,01912	78,3	   0,0192261	78,8
     41,5626	   0,0191568	79,0	   0,0192677	78,1
     41,5645	   0,0191709	78,2	   0,0192798	79,4
     41,5665	   0,0191433	80,0	   0,0193294	78,9
     41,5684	    0,019165	79,4	   0,0193843	80,7
     41,5704	   0,0191604	78,5	   0,0194774	79,6
     41,5723	   0,0192118	79,4	   0,0194383	77,8
     41,5743	   0,0193788	78,3	    0,019367	78,1
     41,5762	   0,0194424	79,7	   0,0194829	78,4
     41,5782	   0,0193913	80,1	   0,0195388	78,8
     41,5802	   0,0193046	79,3	   0,0196588	78,6
     41,5821	    0,019324	78,1	   0,0196392	79,1
     41,5841	   0,0193909	78,6	    0,019672	77,9
      41,586	   0,0195723	80,6	   0,0197963	78,3
      41,588	   0,0196618	79,3	   0,0198339	79,5
     41,5899	   0,0196913	80,9	   0,0197726	79,5
     41,5919	   0,0196444	80,6	   0,0196863	80,8
     41,5938	   0,0196369	79,5	   0,0197101	80,1
     41,5958	   0,0196701	79,1	   0,0198086	80,2
     41,5978	   0,0197602	79,0	   0,0199153	79,6
     41,5997	   0,0196891	79,8	    0,019925	78,7
     41,6017	   0,0197176	80,1	   0,0199847	81,1
     41,6036	   0,0197278	79,4	   0,0200944	80,1
     41,6056	   0,0197472	80,3	   0,0201837	79,6
     41,6075	   0,0198935	78,8	   0,0201588	80,5
     41,6095	   0,0200127	80,8	   0,0201938	79,0
     41,6114	   0,0200401	79,5	   0,0201787	80,6
     41,6134	   0,0200053	80,5	   0,0201637	79,4
     41,6153	   0,0199886	80,5	   0,0201333	79,9
     41,6173	   0,0200433	79,1	   0,0201985	78,5
     41,6193	   0,0201056	79,6	   0,0203251	78,8
     41,6212	    0,020102	79,2	   0,0203861	80,4
     41,6232	   0,0202324	79,1	   0,0203823	79,4
     41,6251	   0,0202171	80,2	   0,0204987	80,7
     41,6271	   0,0202048	78,3	   0,0205856	80,2
      41,629	   0,0201747	80,3	   0,0204885	80,0
      41,631	   0,0202698	79,2	   0,0205561	80,1
     41,6329	   0,0203014	79,4	   0,0205611	79,6
     41,6349	   0,0204206	81,7	   0,0206594	80,4
     41,6369	   0,0205313	80,0	   0,0206303	79,4
     41,6388	   0,0204421	80,6	   0,0207557	79,6
     41,6408	   0,0204339	80,8	   0,0207764	79,2
     41,6427	   0,0205333	79,8	   0,0208142	79,3
     41,6447	   0,0205744	80,7	    0,020838	79,8
     41,6466	   0,0206239	80,2	   0,0207276	80,8
     41,6486	   0,0206867	81,8	   0,0207574	80,2
     41,6505	   0,0207265	79,2	   0,0209271	80,8
     41,6525	   0,0207554	79,7	   0,0210453	80,7
     41,6544	    0,020773	80,2	   0,0211165	81,2
     41,6564	    0,020792	79,5	   0,0211113	80,8
     41,6584	   0,0207848	81,5	   0,0211148	81,6
     41,6603	   0,0208722	80,6	    0,021055	82,6
     41,6623	   0,0209652	80,4	   0,0211197	79,5
     41,6642	   0,0209995	80,2	   0,0211795	80,1
     41,6662	   0,0210243	79,8	   0,0213173	79,6
     41,6681	   0,0211595	82,4	   0,0213384	80,6
     41,6701	   0,0212308	82,0	   0,0213098	81,2
      41,672	   0,0212726	82,4	   0,0213952	80,2
      41,674	   0,0211167	81,2	   0,0214312	80,5
      41,676	   0,0210784	80,2	   0,0214643	79,8
     41,6779	   0,0211633	80,3	   0,0214669	82,0
     41,6799	   0,0212194	80,3	   0,0215167	81,3
     41,6818	   0,0212506	81,0	   0,0215757	80,6
     41,6838	   0,0213893	81,8	   0,0216067	82,0
     41,6857	   0,0214501	81,2	   0,0216654	81,5
     41,6877	   0,0215215	82,5	   0,0217156	81,5
     41,6896	   0,0215239	80,4	   0,0217735	81,7
     41,6916	   0,0214968	79,7	   0,0218744	80,9
     41,6936	   0,0215053	81,7	   0,0219154	83,4
     41,6955	   0,0215825	81,5	    0,021911	81,5
     41,6975	   0,0216792	82,0	   0,0219876	80,7
     41,6994	    0,021698	82,6	   0,0219816	80,2
     41,7014	    0,021819	80,5	   0,0221114	79,9
     41,7033	   0,0218944	81,6	   0,0221105	82,8
     41,7053	   0,0218245	79,9	   0,0220844	81,7
     41,7072	   0,0218153	80,4	   0,0222119	81,3
     41,7092	   0,0219114	82,0	   0,0223045	82,7
     41,7111	   0,0220281	82,5	   0,0223589	80,2
     41,7131	   0,0221501	83,0	   0,0223757	81,2
     41,7151	    0,022021	82,0	   0,0224128	82,0
      41,717	   0,0220846	80,8	   0,0224346	80,6
      41,719	    0,022109	81,0	   0,0224243	81,8
     41,7209	   0,0221724	80,9	   0,0225797	80,9
     41,7229	   0,0221407	81,6	   0,0225577	82,3
     41,7248	    0,022316	82,1	   0,0226581	82,5
     41,7268	   0,0223863	82,2	   0,0225883	83,1
     41,7287	     0,02239	82,0	    0,022571	81,9
     41,7307	   0,0223521	81,8	   0,0227635	81,9
     41,7327	   0,0224307	83,8	   0,0227983	83,2
     41,7346	   0,0225618	83,0	   0,0228154	81,6
     41,7366	   0,0226314	81,8	   0,0229632	81,0
     41,7385	   0,0225902	82,9	   0,0229794	82,6
     41,7405	   0,0225959	80,5	   0,0230568	81,9
     41,7424	   0,0226022	82,2	   0,0230314	83,8
     41,7444	   0,0228201	83,2	   0,0229977	83,7
     41,7463	   0,0229513	82,0	   0,0230446	82,2
     41,7483	    0,022912	83,3	   0,0231589	83,3
     41,7502	   0,0228605	83,3	   0,0231946	81,3
     41,7522	   0,0229318	81,8	   0,0233239	80,9
     41,7542	   0,0230205	82,9	   0,0234248	82,4
     41,7561	   0,0230314	82,4	   0,0234866	83,0
     41,7581	   0,0231198	82,8	    0,023516	83,1
       41,76	    0,023181	83,4	   0,0235259	83,0
      41,762	   0,0232919	83,0	   0,0236673	81,7
     41,7639	     0,02335	84,2	   0,0237153	82,6
     41,7659	   0,0234082	82,9	   0,0238257	81,9
     41,7678	   0,0234764	82,4	   0,0238124	83,2
     41,7698	   0,0234809	83,3	   0,0239363	83,9
     41,7718	   0,0235364	82,4	   0,0239054	82,7
     41,7737	   0,0236314	83,6	   0,0238922	83,6
     41,7757	   0,0235707	84,6	   0,0238802	81,7
     41,7776	   0,0236431	82,8	   0,0239185	81,6
     41,7796	   0,0236937	83,8	   0,0240305	84,4
     41,7815	   0,0237778	82,0	   0,0242182	83,0
     41,7835	   0,0237591	82,9	   0,0243043	84,4
     41,7854	    0,023924	83,8	   0,0242822	84,6
     41,7874	   0,0239646	83,7	   0,0242915	83,2
     41,7893	   0,0239668	83,8	   0,0243871	83,7
     41,7913	   0,0240491	83,9	   0,0243731	82,5
     41,7933	   0,0241654	82,7	   0,0244932	82,9
     41,7952	   0,0242262	83,9	   0,0245792	84,7
     41,7972	   0,0241684	83,0	   0,0246235	84,0
     41,7991	   0,0242784	83,9	   0,0247651	84,0
     41,8011	   0,0242898	84,3	   0,0247722	84,0
      41,803	   0,0243696	83,9	   0,0248604	83,0
      41,805	   0,0244155	84,9	   0,0248566	83,8
     41,8069	   0,0244606	85,0	   0,0249949	83,7
     41,8089	   0,0245368	83,3	   0,0250311	83,7
     41,8109	   0,0246622	83,3	   0,0251174	83,6
     41,8128	   0,0246847	83,8	   0,0251309	83,6
     41,8148	   0,0247612	82,9	     0,02521	84,5
     41,8167	   0,0248153	85,9	   0,0252391	84,4
     41,8187	   0,0248675	83,6	   0,0252898	83,2
     41,8206	   0,0248121	84,8	   0,0252716	84,4
     41,8226	   0,0249426	84,9	   0,0253707	84,2
     41,8245	   0,0250853	83,6	   0,0254663	85,5
     41,8265	   0,0251092	83,9	   0,0255697	86,6
     41,8284	   0,0252154	84,3	   0,0256063	83,3
     41,8304	   0,0252007	83,3	   0,0256556	83,9
     41,8324	   0,0251758	85,4	   0,0258252	84,7
     41,8343	   0,0253302	85,5	   0,0258561	84,8
     41,8363	   0,0254931	84,8	   0,0259376	86,9
     41,8382	   0,0254993	85,4	   0,0259464	85,1
     41,8402	   0,0255453	84,1	   0,0260192	85,5
     41,8421	   0,0255415	85,1	   0,0260074	86,4
     41,8441	   0,0256508	86,0	   0,0261375	83,5
      41,846	   0,0257858	84,6	   0,0261566	84,4
      41,848	   0,0258422	85,6	   0,0262208	84,3
       41,85	   0,0258601	85,6	   0,0262197	84,3
     41,8519	   0,0258827	84,7	   0,0264913	85,8
     41,8539	   0,0258927	84,9	   0,0264857	85,9
     41,8558	   0,0258759	85,5	   0,0264885	85,5
     41,8578	   0,0260616	85,7	   0,0266537	86,3
     41,8597	   0,0261636	86,1	   0,0266913	86,1
     41,8617	   0,0262833	84,5	   0,0268062	84,7
     41,8636	   0,0263103	86,0	   0,0267996	85,6
     41,8656	   0,0264152	84,9	   0,0268652	84,8
     41,8675	   0,0263602	84,7	   0,0269523	84,8
     41,8695	    0,026452	86,4	   0,0270104	87,3
     41,8715	   0,0265436	85,6	   0,0271773	86,1
     41,8734	   0,0266232	85,7	   0,0272504	86,3
     41,8754	   0,0267685	86,3	   0,0272906	85,5
     41,8773	   0,0268519	85,4	   0,0273082	85,2
     41,8793	   0,0268602	85,7	    0,027386	87,2
     41,8812	   0,0269011	85,9	   0,0274271	85,8
     41,8832	   0,0269744	85,6	   0,0274251	86,0
     41,8851	   0,0270549	85,0	   0,0276012	87,8
     41,8871	   0,0271583	86,8	   0,0277488	87,2
     41,8891	   0,0272186	85,7	   0,0279382	86,6
      41,891	    0,027309	87,5	   0,0279189	87,9
      41,893	   0,0273798	87,2	   0,0279293	85,5
     41,8949	   0,0274339	87,2	   0,0280163	86,4
     41,8969	   0,0276212	87,7	    0,028054	87,4
     41,8988	   0,0276041	85,6	   0,0280747	86,3
     41,9008	   0,0276015	86,0	   0,0283063	88,3
     41,9027	   0,0276685	87,6	    0,028385	87,3
     41,9047	   0,0277192	86,5	   0,0285027	86,8
     41,9066	   0,0278912	87,4	   0,0285561	88,0
     41,9086	   0,0279422	89,0	   0,0287022	85,9
     41,9106	   0,0280907	88,1	   0,0287325	86,6
     41,9125	   0,0281979	88,1	   0,0287411	88,0
     41,9145	   0,0282292	88,4	   0,0288225	88,2
     41,9164	   0,0282757	86,7	   0,0289184	88,8
     41,9184	   0,0283517	87,1	   0,0291161	88,7
     41,9203	   0,0284191	86,8	    0,029212	87,9
     41,9223	   0,0284212	86,9	   0,0292059	88,5
     41,9242	   0,0285817	88,7	    0,029219	88,2
     41,9262	    0,028698	89,0	    0,029352	87,5
     41,9282	   0,0288048	88,6	   0,0294236	90,2
     41,9301	   0,0288575	89,4	   0,0294745	88,8
     41,9321	   0,0290533	88,0	   0,0296142	88,9
      41,934	   0,0290913	87,1	    0,029709	90,3
      41,936	   0,0291537	88,3	   0,0297679	87,8
     41,9379	   0,0292726	86,7	   0,0298632	86,9
     41,9399	   0,0293744	87,7	   0,0300404	88,1
     41,9418	   0,0294155	89,0	   0,0300758	88,5
     41,9438	   0,0294473	89,5	   0,0301585	89,5
     41,9457	    0,029529	89,0	   0,0302363	89,0
     41,9477	   0,0296079	90,3	   0,0303215	89,4
     41,9497	   0,0297544	88,3	   0,0304709	89,0
     41,9516	   0,0297558	88,6	   0,0305513	89,4
     41,9536	   0,0299064	89,3	   0,0306939	88,5
     41,9555	   0,0300213	88,6	    0,030762	89,9
     41,9575	    0,030119	90,4	   0,0309081	89,2
     41,9594	   0,0302735	89,9	   0,0309569	89,5
     41,9614	   0,0303336	90,4	   0,0310548	90,2
     41,9633	   0,0304028	90,7	   0,0311652	90,8
     41,9653	   0,0304285	88,4	   0,0313444	89,5
     41,9673	   0,0305651	87,9	   0,0314917	90,5
     41,9692	   0,0306584	90,3	   0,0315314	91,0
     41,9712	   0,0307067	88,9	   0,0315681	90,1
     41,9731	   0,0307579	89,2	   0,0316775	91,2
     41,9751	   0,0308559	91,5	   0,0317915	89,8
      41,977	   0,0310075	90,6	   0,0318136	90,4
      41,979	   0,0310877	91,5	   0,0319095	91,4
     41,9809	   0,0311127	91,5	   0,0319914	90,9
     41,9829	   0,0312663	89,3	   0,0321181	91,4
     41,9848	   0,0314025	89,9	   0,0322535	91,8
     41,9868	   0,0315525	90,8	   0,0324766	90,4
     41,9888	   0,0317191	90,2	   0,0325463	91,3
     41,9907	    0,031811	89,1	   0,0327158	90,8
     41,9927	   0,0319106	91,2	   0,0328731	90,7
     41,9946	   0,0319347	91,2	   0,0330005	91,3
     41,9966	   0,0320476	92,2	   0,0330722	92,5
     41,9985	   0,0321631	92,7	   0,0332203	91,3
     42,0005	   0,0322809	90,8	   0,0333243	93,3
     42,0024	    0,032352	91,0	   0,0334444	91,2
     42,0044	   0,0325091	91,2	   0,0335165	91,4
     42,0064	   0,0325226	91,2	   0,0336822	92,9
     42,0083	   0,0326086	92,2	   0,0337571	92,8
     42,0103	   0,0326997	92,9	   0,0338867	92,1
     42,0122	   0,0328726	91,8	   0,0339022	92,4
     42,0142	   0,0329351	92,7	   0,0340353	92,9
     42,0161	   0,0330936	92,7	   0,0341616	92,8
     42,0181	   0,0331937	92,4	   0,0343289	94,3
       42,02	   0,0333237	93,2	   0,0344408	94,8
      42,022	   0,0334147	93,9	   0,0345803	93,3
     42,0239	   0,0335642	92,4	   0,0347021	93,1
     42,0259	   0,0336959	92,4	   0,0347643	93,3
     42,0279	   0,0338426	93,4	   0,0348899	92,8
     42,0298	   0,0339614	93,9	   0,0350003	94,2
     42,0318	   0,0340679	94,0	   0,0351834	93,4
     42,0337	    0,034177	95,2	   0,0354536	94,1
     42,0357	   0,0342198	94,0	   0,0355705	95,2
     42,0376	   0,0343567	94,6	   0,0357993	94,9
     42,0396	   0,0344421	93,5	   0,0358735	94,7
     42,0415	   0,0345615	93,5	   0,0361044	94,5
     42,0435	    0,034716	95,0	   0,0361655	95,3
     42,0455	   0,0347858	94,4	   0,0363261	94,8
     42,0474	   0,0349412	93,6	   0,0363494	95,8
     42,0494	   0,0350555	94,6	   0,0364667	94,3
     42,0513	   0,0351599	95,1	    0,036566	94,9
     42,0533	   0,0352757	94,0	   0,0368303	96,2
     42,0552	   0,0354574	96,6	   0,0370042	95,7
     42,0572	   0,0356592	95,7	   0,0372351	96,6
     42,0591	   0,0358332	95,3	   0,0373931	97,8
     42,0611	   0,0359126	96,0	   0,0376057	94,8
      42,063	   0,0360895	94,5	   0,0376995	95,5
      42,065	   0,0361243	94,9	   0,0377806	96,6
      42,067	   0,0362913	97,0	    0,037954	96,5
     42,0689	   0,0364064	96,5	   0,0380435	96,9
     42,0709	   0,0366405	96,1	   0,0382225	97,3
     42,0728	   0,0367223	97,5	   0,0383241	97,1
     42,0748	   0,0368703	96,8	   0,0384806	96,6
     42,0767	   0,0369209	96,4	   0,0386989	98,5
     42,0787	   0,0370431	97,8	   0,0388399	99,4
     42,0806	   0,0371439	97,9	   0,0389224	98,2
     42,0826	   0,0374049	97,1	   0,0391275	98,9
     42,0846	   0,0375389	98,0	   0,0393138	97,0
     42,0865	   0,0376927	97,2	   0,0394848	97,4
     42,0885	   0,0378623	96,6	   0,0396934	98,3
     42,0904	   0,0379859	100,0	   0,0398403	98,2
     42,0924	    0,038092	99,9	   0,0400104	99,6
     42,0943	   0,0383161	98,4	   0,0401731	100,2
     42,0963	   0,0384385	99,4	   0,0404722	99,1
     42,0982	   0,0385559	99,8	   0,0405604	99,8
     42,1002	   0,0386956	98,6	   0,0407623	101,2
     42,1021	   0,0388609	99,2	   0,0408532	101,2
     42,1041	    0,038989	98,9	   0,0411313	99,5
     42,1061	   0,0391357	98,3	   0,0413004	100,7
      42,108	   0,0393178	99,4	   0,0415307	99,4
       42,11	    0,039435	99,6	   0,0415895	100,4
     42,1119	   0,0395394	98,9	   0,0417815	102,9
     42,1139	   0,0397687	100,8	   0,0419804	102,0
     42,1158	   0,0399258	100,7	   0,0422679	102,3
     42,1178	   0,0400706	100,5	     0,04255	102,8
     42,1197	   0,0402002	100,4	   0,0427263	102,5
     42,1217	   0,0403935	102,3	   0,0430077	101,7
     42,1237	   0,0405548	101,3	   0,0431426	103,0
     42,1256	   0,0407763	100,8	   0,0434025	102,7
     42,1276	   0,0408969	101,9	   0,0435625	102,6
     42,1295	   0,0411419	100,7	   0,0436986	103,4
     42,1315	   0,0413138	100,7	   0,0438609	103,9
     42,1334	   0,0415577	102,9	    0,044039	103,4
     42,1354	   0,0417057	102,8	   0,0442334	102,9
     42,1373	   0,0418049	103,4	   0,0444103	105,0
     42,1393	   0,0420076	104,1	   0,0445741	104,6
     42,1413	   0,0421881	103,0	   0,0447877	105,4
     42,1432	    0,042369	103,2	   0,0450027	106,0
     42,1452	   0,0425159	103,5	   0,0452293	104,8
     42,1471	   0,0427489	104,1	   0,0454749	105,4
     42,1491	   0,0428294	103,3	   0,0457267	106,4
      42,151	   0,0431245	104,8	   0,0459726	105,8
      42,153	   0,0432745	105,2	   0,0461847	105,5
     42,1549	   0,0434926	104,5	   0,0463726	106,8
     42,1569	   0,0436774	104,5	   0,0466184	106,1
     42,1588	   0,0438368	105,9	   0,0466973	107,4
     42,1608	    0,044035	105,7	   0,0471133	108,7
     42,1628	   0,0442373	107,5	   0,0472502	109,0
     42,1647	   0,0443855	107,6	   0,0474941	108,0
     42,1667	   0,0444947	107,5	   0,0475152	111,2
     42,1686	   0,0447396	106,3	   0,0479162	109,6
     42,1706	   0,0449461	107,4	    0,048141	108,6
     42,1725	   0,0451497	106,6	   0,0483914	110,4
     42,1745	   0,0452917	106,7	   0,0486243	110,1
     42,1764	   0,0455767	107,7	   0,0488651	109,8
     42,1784	   0,0457676	107,4	   0,0491252	110,4
     42,1804	   0,0459842	107,9	   0,0492794	111,0
     42,1823	   0,0461976	108,3	   0,0495506	110,5
     42,1843	   0,0464366	109,5	   0,0498489	113,5
     42,1862	   0,0465725	108,1	   0,0500671	112,8
     42,1882	   0,0467997	111,3	   0,0503305	112,0
     42,1901	   0,0468691	111,1	   0,0505073	112,6
     42,1921	   0,0470915	111,0	   0,0508366	114,2
      42,194	   0,0473235	110,5	   0,0510126	113,7
      42,196	   0,0476293	110,1	    0,051303	113,5
     42,1979	   0,0478319	110,2	    0,051494	114,2
     42,1999	   0,0480338	111,3	   0,0518015	113,1
     42,2019	   0,0482317	111,7	   0,0519423	113,3
     42,2038	   0,0483846	110,5	   0,0521222	114,1
     42,2058	   0,0485946	110,2	   0,0523422	115,9
     42,2077	   0,0488305	113,7	   0,0525737	114,9
     42,2097	   0,0490317	113,6	   0,0527784	116,8
     42,2116	   0,0492519	114,0	   0,0530591	116,8
     42,2136	   0,0493942	114,6	   0,0533144	116,3
     42,2155	   0,0496403	115,0	   0,0536883	119,2
     42,2175	   0,0498811	114,1	   0,0538848	119,6
     42,2195	   0,0501367	115,3	   0,0537893	118,3
     42,2214	   0,0504527	115,3	   0,0540758	118,6
     42,2234	   0,0506148	115,5	    0,054541	121,8
     42,2253	    0,050877	114,7	   0,0547953	119,7
     42,2273	   0,0510332	116,4	   0,0550225	119,1
     42,2292	   0,0513302	116,2	    0,055084	120,5
     42,2312	   0,0515292	115,6	   0,0544884	120,9
     42,2331	    0,051739	118,0	   0,0555192	121,9
     42,2351	   0,0519393	118,1	   0,0554093	120,8
      42,237	   0,0522001	117,5	   0,0558623	121,6
      42,239	   0,0523964	118,0	   0,0560099	121,5
      42,241	   0,0526452	119,1	   0,0561964	123,2
     42,2429	   0,0528154	119,7	   0,0563893	122,7
     42,2449	   0,0529742	120,1	   0,0567245	123,9
     42,2468	   0,0532657	121,4	   0,0568816	124,8
     42,2488	   0,0534336	119,3	   0,0571788	125,1
     42,2507	    0,053605	120,0	   0,0573359	126,7
     42,2527	   0,0537719	120,7	   0,0575625	124,2
     42,2546	   0,0539593	121,1	   0,0577146	124,4
     42,2566	   0,0542124	121,2	   0,0579592	126,4
     42,2586	   0,0543463	122,3	   0,0581105	126,4
     42,2605	   0,0546981	122,5	   0,0582628	126,0
     42,2625	   0,0548491	122,6	   0,0584129	127,1
     42,2644	   0,0551371	124,7	   0,0585375	127,5
     42,2664	   0,0553233	123,7	   0,0587082	127,0
     42,2683	   0,0554588	124,7	   0,0589694	129,7
     42,2703	   0,0556937	124,7	   0,0590831	130,0
     42,2722	   0,0559244	127,0	   0,0592671	129,4
     42,2742	   0,0560849	126,4	   0,0593423	130,4
     42,2761	   0,0562935	126,3	   0,0595895	132,3
     42,2781	   0,0563725	127,0	   0,0597474	131,9
     42,2801	   0,0566435	126,7	   0,0599836	131,4
      42,282	   0,0568094	126,1	   0,0600654	133,4
      42,284	   0,0569971	127,8	   0,0601889	131,7
     42,2859	   0,0572839	128,7	   0,0602027	132,1
     42,2879	   0,0574153	128,6	   0,0604532	133,4
     42,2898	   0,0577076	127,8	   0,0605172	133,9
     42,2918	   0,0577789	129,2	   0,0606317	133,2
     42,2937	   0,0580506	129,9	   0,0607707	133,5
     42,2957	   0,0582113	130,5	   0,0608971	136,0
     42,2977	   0,0583886	131,8	   0,0609543	136,2
     42,2996	   0,0585277	132,1	   0,0610274	136,7
     42,3016	   0,0586624	131,7	   0,0611651	137,5
     42,3035	   0,0587916	131,9	   0,0612835	137,8
     42,3055	   0,0590196	134,7	   0,0613813	136,8
     42,3074	   0,0592112	134,7	   0,0614034	137,7
     42,3094	   0,0593682	133,7	   0,0615499	139,1
     42,3113	   0,0595301	135,2	   0,0616088	139,8
     42,3133	   0,0597599	136,0	   0,0616995	138,7
     42,3153	   0,0598505	136,1	   0,0617261	140,5
     42,3172	   0,0600233	135,7	   0,0618351	139,6
     42,3192	   0,0601895	136,6	   0,0618792	139,9
     42,3211	   0,0603485	136,3	   0,0619881	141,0
     42,3231	   0,0605288	137,5	   0,0620266	141,7
      42,325	   0,0606801	138,2	   0,0621101	140,4
      42,327	   0,0608216	138,2	   0,0621673	141,4
     42,3289	   0,0608918	138,2	   0,0622066	142,9
     42,3309	   0,0609796	137,8	   0,0622909	142,4
     42,3328	   0,0610792	141,1	   0,0623598	143,1
     42,3348	   0,0611858	140,6	   0,0623833	144,6
     42,3368	   0,0612921	141,2	   0,0624157	145,4
     42,3387	   0,0613731	141,1	    0,062467	144,7
     42,3407	   0,0614602	142,2	   0,0624747	144,1
     42,3426	   0,0615547	142,7	    0,062525	146,7
     42,3446	   0,0616238	144,2	   0,0624763	147,7
     42,3465	   0,0617317	144,6	   0,0625415	146,1
     42,3485	   0,0617741	142,9	   0,0625848	147,6
     42,3504	   0,0618425	144,3	   0,0625952	147,7
     42,3524	   0,0619838	144,8	   0,0625447	148,2
     42,3544	   0,0620533	145,8	   0,0626257	148,0
     42,3563	   0,0621176	143,9	   0,0626202	148,6
     42,3583	   0,0621704	145,7	   0,0626597	146,9
     42,3602	   0,0622883	145,9	   0,0625682	147,7
     42,3622	   0,0623784	146,0	   0,0625156	149,9
     42,3641	   0,0623318	146,9	   0,0626003	149,7
     42,3661	   0,0623804	147,9	   0,0626323	150,2
      42,368	   0,0623717	148,2	   0,0625936	149,6
       42,37	   0,0624376	148,4	   0,0626554	150,9
     42,3719	   0,0625057	148,7	   0,0626146	151,3
     42,3739	   0,0624834	150,4	   0,0626012	151,4
     42,3759	    0,062545	150,0	   0,0625506	152,8
     42,3778	   0,0624945	150,7	   0,0625097	153,1
     42,3798	   0,0625094	151,1	   0,0625351	153,9
     42,3817	    0,062577	152,2	   0,0625475	153,3
     42,3837	   0,0626005	151,8	   0,0624093	154,5
     42,3856	   0,0625788	153,3	   0,0623286	155,3
     42,3876	   0,0625433	153,9	   0,0622469	154,0
     42,3895	   0,0625601	152,0	   0,0621915	155,0
     42,3915	   0,0625729	152,7	   0,0622104	156,0
     42,3935	    0,062565	153,1	   0,0621848	155,4
     42,3954	   0,0625317	155,3	   0,0621754	155,7
     42,3974	    0,062548	152,9	   0,0621593	156,8
     42,3993	   0,0624776	155,4	   0,0621217	157,1
     42,4013	   0,0624513	154,8	   0,0621157	157,0
     42,4032	   0,0624257	156,0	   0,0619923	156,6
     42,4052	   0,0624469	155,0	   0,0618746	157,9
     42,4071	   0,0624295	155,8	    0,061894	157,0
     42,4091	   0,0623531	157,5	   0,0618198	158,2
      42,411	   0,0624042	156,7	   0,0618126	159,1
      42,413	   0,0623725	156,4	   0,0617166	159,2
      42,415	   0,0622296	158,7	   0,0616782	158,6
     42,4169	   0,0622471	157,9	   0,0616009	159,4
     42,4189	   0,0621479	159,1	   0,0615376	159,7
     42,4208	    0,062025	159,1	   0,0614166	160,6
     42,4228	   0,0619487	161,0	   0,0613703	160,9
     42,4247	   0,0619786	160,5	   0,0613333	160,9
     42,4267	   0,0619165	159,9	   0,0612686	161,4
     42,4286	   0,0618324	161,6	   0,0611071	162,3
     42,4306	   0,0617588	162,4	   0,0610971	161,6
     42,4326	    0,061749	161,0	   0,0609544	163,5
     42,4345	   0,0616114	161,7	   0,0608658	164,5
     42,4365	   0,0615442	162,2	   0,0608511	163,4
     42,4384	   0,0615068	162,9	   0,0607691	163,3
     42,4404	   0,0614378	162,3	   0,0606922	165,7
     42,4423	   0,0612959	163,1	   0,0605547	164,9
     42,4443	    0,061329	162,6	   0,0605628	163,5
     42,4462	   0,0613119	164,2	   0,0604454	164,7
     42,4482	   0,0608596	163,4	   0,0603719	166,0
     42,4501	   0,0610478	164,0	   0,0601441	166,4
     42,4521	   0,0600445	166,1	   0,0582778	167,6
     42,4541	   0,0596575	164,4	   0,0595621	166,2
      42,456	   0,0598212	163,3	   0,0590992	167,5
      42,458	   0,0593767	167,1	    0,059746	165,7
     42,4599	   0,0599988	167,7	   0,0596681	166,1
     42,4619	   0,0598247	165,5	   0,0593334	167,0
     42,4638	   0,0604651	166,4	   0,0595043	167,5
     42,4658	   0,0598779	170,0	   0,0594326	166,9
     42,4677	   0,0602497	167,2	   0,0593811	167,8
     42,4697	   0,0601121	168,1	   0,0592921	167,4
     42,4717	   0,0600963	166,4	    0,059195	169,0
     42,4736	   0,0599398	169,5	   0,0591465	168,0
     42,4756	   0,0597949	169,3	   0,0591251	169,6
     42,4775	   0,0597692	168,8	   0,0589359	170,2
     42,4795	   0,0596845	169,5	   0,0589422	169,5
     42,4814	   0,0594419	170,1	   0,0586709	170,0
     42,4834	   0,0594767	170,3	   0,0585853	169,7
     42,4853	   0,0593277	169,5	    0,058469	171,6
     42,4873	    0,059275	171,7	   0,0584733	171,4
     42,4892	      0,0592	170,8	   0,0583179	171,7
     42,4912	   0,0591131	172,2	   0,0581517	171,7
     42,4932	   0,0589778	172,1	   0,0581239	172,9
     42,4951	   0,0588234	173,2	   0,0580432	173,1
     42,4971	   0,0587025	172,6	   0,0578422	172,3
      42,499	   0,0586544	172,5	    0,057817	171,9
      42,501	   0,0584728	173,4	   0,0576477	173,9
     42,5029	   0,0583266	174,7	   0,0575003	174,3
     42,5049	   0,0582287	174,7	   0,0573885	173,0
     42,5068	   0,0580618	172,7	   0,0572787	173,7
     42,5088	   0,0579321	174,0	   0,0570992	174,9
     42,5108	   0,0578249	174,1	    0,056958	175,7
     42,5127	   0,0577369	176,5	   0,0569357	173,9
     42,5147	    0,057628	172,8	   0,0568496	175,1
     42,5166	   0,0574997	174,6	   0,0566502	174,9
     42,5186	   0,0573521	176,6	   0,0565777	175,8
     42,5205	   0,0571997	174,2	   0,0564451	175,1
     42,5225	   0,0572641	174,9	   0,0562883	175,5
     42,5244	   0,0570671	176,5	   0,0562218	175,1
     42,5264	   0,0569129	177,1	   0,0561497	176,6
     42,5283	   0,0568493	177,8	   0,0559599	176,2
     42,5303	   0,0567033	176,1	   0,0559002	176,7
     42,5323	   0,0566276	175,1	   0,0558154	178,7
     42,5342	   0,0565484	177,7	   0,0556409	176,1
     42,5362	   0,0564474	178,3	   0,0555693	177,2
     42,5381	   0,0562504	176,9	   0,0554888	178,3
     42,5401	   0,0561729	178,1	    0,055349	178,7
      42,542	   0,0559604	179,3	   0,0552602	177,4
      42,544	   0,0558617	179,3	   0,0550729	177,3
     42,5459	   0,0555991	177,7	   0,0549478	179,0
     42,5479	   0,0556136	178,7	   0,0548592	179,3
     42,5499	   0,0554723	180,9	   0,0546485	178,3
     42,5518	   0,0553678	180,2	   0,0545796	178,8
     42,5538	   0,0538488	177,7	   0,0544561	181,2
     42,5557	   0,0550385	179,7	   0,0543052	180,6
     42,5577	   0,0548807	181,9	    0,054228	179,3
     42,5596	   0,0547849	180,5	   0,0540812	179,5
     42,5616	   0,0546229	181,1	   0,0539676	181,5
     42,5635	    0,054471	181,3	   0,0538602	181,6
     42,5655	   0,0542285	181,9	   0,0536492	181,5
     42,5674	   0,0541697	182,9	   0,0535083	180,8
     42,5694	   0,0539694	181,5	   0,0533082	182,6
     42,5714	   0,0539097	181,5	   0,0532801	182,0
     42,5733	   0,0538061	184,1	   0,0531901	182,1
     42,5753	    0,053608	183,1	    0,053053	181,8
     42,5772	   0,0535414	182,9	   0,0528364	183,6
     42,5792	   0,0534584	182,9	   0,0527382	183,4
     42,5811	   0,0533325	183,1	   0,0524891	182,6
     42,5831	    0,053289	184,0	   0,0523826	182,8
      42,585	   0,0529949	184,5	    0,052263	186,2
      42,587	   0,0528387	184,5	   0,0522241	185,2
      42,589	   0,0526164	186,1	   0,0521125	183,9
     42,5909	   0,0524245	186,2	   0,0519516	183,9
     42,5929	   0,0521834	185,6	   0,0517597	185,5
     42,5948	   0,0521122	185,3	   0,0516886	185,7
     42,5968	     0,05203	185,5	    0,051567	185,3
     42,5987	   0,0519005	185,9	   0,0514392	184,7
     42,6007	   0,0518521	185,8	   0,0512628	187,1
     42,6026	   0,0517862	186,7	   0,0511021	186,2
     42,6046	   0,0516809	186,4	   0,0509399	185,4
     42,6065	   0,0514846	187,5	   0,0508038	186,0
     42,6085	   0,0513613	187,4	    0,050631	188,5
     42,6105	   0,0511966	187,1	   0,0505452	188,2
     42,6124	   0,0511186	188,7	   0,0504333	186,8
     42,6144	   0,0508859	189,0	    0,050353	187,0
     42,6163	   0,0507118	188,0	   0,0500897	188,9
     42,6183	   0,0505964	187,8	   0,0499688	189,6
     42,6202	   0,0504827	188,7	   0,0498884	187,6
     42,6222	   0,0504175	188,6	   0,0498221	187,3
     42,6241	   0,0502602	189,3	   0,0496913	187,3
     42,6261	   0,0500714	188,8	   0,0496159	189,1
     42,6281	   0,0498799	189,9	   0,0494452	188,0
       42,63	   0,0497143	190,0	   0,0491947	188,1
      42,632	   0,0496206	189,8	   0,0490674	188,4
     42,6339	   0,0494556	189,5	   0,0489578	190,4
     42,6359	   0,0493345	190,7	   0,0488236	190,1
     42,6378	   0,0492389	190,9	   0,0487406	188,8
     42,6398	   0,0490812	191,9	    0,048606	188,9
     42,6417	   0,0489977	189,5	   0,0484405	191,0
     42,6437	   0,0488573	191,2	   0,0483562	191,2
     42,6456	   0,0487297	191,0	   0,0482207	190,6
     42,6476	   0,0485967	192,3	   0,0481374	190,1
     42,6496	   0,0484563	192,0	   0,0479331	192,0
     42,6515	   0,0482993	191,7	   0,0476992	192,0
     42,6535	   0,0482469	191,1	     0,04764	191,2
     42,6554	   0,0480722	193,8	   0,0475413	190,5
     42,6574	   0,0479188	192,8	   0,0474784	191,2
     42,6593	   0,0477179	193,2	   0,0473041	192,8
     42,6613	   0,0476626	193,1	   0,0471888	192,9
     42,6632	   0,0475471	193,7	   0,0470673	191,3
     42,6652	   0,0474222	193,5	   0,0470654	191,4
     42,6672	   0,0473113	192,7	   0,0469317	193,6
     42,6691	   0,0472204	192,5	   0,0467678	193,6
     42,6711	    0,047021	194,7	   0,0465917	192,8
      42,673	   0,0468735	194,9	   0,0464273	192,3
      42,675	   0,0468232	193,6	   0,0462689	193,7
     42,6769	    0,046676	194,2	   0,0461509	194,1
     42,6789	   0,0464953	193,1	   0,0458851	193,6
     42,6808	   0,0463722	195,9	   0,0457898	193,7
     42,6828	   0,0461569	195,1	   0,0457353	195,5
     42,6847	   0,0460022	194,6	   0,0456401	195,4
     42,6867	   0,0459324	193,5	   0,0455359	195,2
     42,6887	    0,045824	195,6	   0,0454589	193,2
     42,6906	   0,0457046	196,1	   0,0453346	193,8
     42,6926	   0,0455393	194,8	   0,0451698	196,9
     42,6945	   0,0454242	194,2	   0,0451203	196,3
     42,6965	   0,0451569	197,1	   0,0448881	195,2
     42,6984	     0,04507	195,7	    0,044838	194,1
     42,7004	    0,044917	196,2	   0,0446682	195,8
     42,7023	    0,044861	195,1	   0,0445277	196,2
     42,7043	   0,0447467	196,1	   0,0443365	195,5
     42,7063	   0,0446841	196,6	    0,044307	195,1
     42,7082	   0,0445369	195,9	    0,044156	195,6
     42,7102	   0,0444259	195,9	   0,0439924	196,1
     42,7121	    0,044284	196,3	     0,04388	196,7
     42,7141	   0,0441929	196,0	    0,043807	195,6
      42,716	   0,0440324	197,7	   0,0435755	196,7
      42,718	   0,0438374	197,3	   0,0435073	196,7
     42,7199	   0,0437123	195,9	   0,0432486	197,4
     42,7219	    0,043514	198,0	   0,0431605	197,8
     42,7239	   0,0434865	198,1	    0,043025	197,3
     42,7258	   0,0432843	197,5	   0,0430127	196,6
     42,7278	   0,0431896	197,4	   0,0428544	197,9
     42,7297	   0,0430802	197,1	   0,0427379	198,4
     42,7317	   0,0429848	199,3	   0,0427443	197,1
     42,7336	    0,042827	199,5	   0,0426374	197,3
     42,7356	   0,0426962	197,6	   0,0425128	198,6
     42,7375	   0,0425843	197,0	   0,0424081	198,9
     42,7395	   0,0424402	199,0	   0,0422836	198,0
     42,7414	   0,0423681	199,2	   0,0419665	197,5
     42,7434	   0,0422306	198,5	    0,041952	199,2
     42,7454	   0,0421883	198,4	   0,0417955	199,3
     42,7473	   0,0420493	198,4	   0,0416557	198,8
     42,7493	   0,0418754	-159,7	   0,0415619	198,6
     42,7512	   0,0417118	-159,3	   0,0414388	198,4
     42,7532	   0,0416149	-161,0	   0,0413811	198,8
     42,7551	   0,0415218	-160,8	   0,0411744	199,8
     42,7571	   0,0414045	-159,9	   0,0410351	199,7
      42,759	   0,0412629	-159,4	   0,0408391	198,0
      42,761	   0,0412166	-159,1	   0,0406379	199,0
      42,763	   0,0410773	-160,4	   0,0407066	-158,0
     42,7649	   0,0409397	-159,8	   0,0404229	-160,8
     42,7669	   0,0408063	-157,5	   0,0402537	-158,9
     42,7688	   0,0406489	-158,2	   0,0402302	-159,9
     42,7708	   0,0406152	-157,7	   0,0402234	-159,8
     42,7727	   0,0403967	-158,9	   0,0402372	-157,8
     42,7747	   0,0403009	-158,6	   0,0400587	-159,6
     42,7766	    0,040223	-157,4	   0,0398293	-158,9
     42,7786	   0,0400679	-156,8	   0,0397393	-159,0
     42,7805	   0,0399367	-156,5	   0,0396711	-158,1
     42,7825	   0,0398061	-157,5	   0,0395335	-157,1
     42,7845	    0,039608	-157,9	   0,0393975	-159,1
     42,7864	   0,0395401	-156,1	   0,0393387	-156,7
     42,7884	   0,0394905	-155,4	   0,0392102	-158,7
     42,7903	    0,039326	-156,8	   0,0391673	-156,3
     42,7923	   0,0392153	-157,8	   0,0389684	-157,1
     42,7942	    0,039059	-155,9	   0,0388583	-156,3
     42,7962	   0,0390542	-156,2	   0,0387149	-156,6
     42,7981	   0,0389168	-155,9	    0,038672	-157,6
     42,8001	   0,0388349	-156,7	   0,0385538	-156,1
     42,8021	    0,038677	-155,6	   0,0384749	-155,4
      42,804	   0,0385512	-155,9	   0,0383345	-157,2
      42,806	   0,0384473	-154,7	   0,0381534	-157,3
     42,8079	   0,0383809	-155,6	   0,0380768	-155,4
     42,8099	   0,0381782	-155,7	   0,0380173	-155,1
     42,8118	   0,0380925	-156,2	   0,0379267	-155,9
     42,8138	   0,0379523	-154,0	    0,037832	-156,5
     42,8157	   0,0377874	-155,3	   0,0376704	-155,9
     42,8177	    0,037657	-156,1	    0,037595	-156,0
     42,8196	    0,037578	-156,6	   0,0375262	-154,9
     42,8216	   0,0374917	-155,1	   0,0374146	-155,9
     42,8236	   0,0374387	-155,4	   0,0373166	-156,9
     42,8255	   0,0372639	-155,8	    0,037243	-157,3
     42,8275	   0,0372524	-155,8	   0,0371026	-155,2
     42,8294	   0,0370787	-155,1	   0,0369678	-155,6
     42,8314	   0,0369819	-154,9	   0,0369105	-155,5
     42,8333	   0,0368915	-154,3	    0,036778	-156,4
     42,8353	   0,0367306	-154,6	   0,0366151	-155,8
     42,8372	   0,0366191	-153,6	   0,0365013	-154,8
     42,8392	   0,0365712	-154,9	   0,0364173	-154,6
     42,8412	   0,0364803	-153,4	   0,0363645	-156,3
     42,8431	   0,0362676	-152,5	   0,0362215	-156,1
     42,8451	   0,0361159	-151,8	   0,0361297	-155,2
      42,847	   0,0360314	-154,0	   0,0359851	-153,1
      42,849	   0,0359914	-153,8	   0,0358942	-152,5
     42,8509	   0,0359493	-151,8	   0,0357825	-153,9
     42,8529	   0,0357787	-153,1	   0,0357365	-153,7
     42,8548	   0,0356522	-153,0	   0,0355743	-153,1
     42,8568	   0,0355591	-152,6	   0,0354022	-153,6
     42,8587	    0,035473	-152,2	   0,0353242	-152,8
     42,8607	   0,0353725	-152,2	   0,0351782	-153,7
     42,8627	   0,0352578	-151,3	   0,0351686	-153,0
     42,8646	   0,0351489	-151,4	   0,0350874	-152,1
     42,8666	   0,0349826	-152,0	   0,0349765	-152,6
     42,8685	   0,0349516	-152,7	   0,0348461	-151,9
     42,8705	   0,0347897	-151,9	   0,0347484	-153,5
     42,8724	   0,0347259	-151,1	   0,0345804	-153,1
     42,8744	   0,0345963	-153,2	   0,0344463	-152,4
     42,8763	   0,0346288	-153,0	   0,0342684	-150,5
     42,8783	   0,0344539	-152,3	   0,0343154	-151,1
     42,8803	   0,0344061	-151,9	   0,0341627	-152,0
     42,8822	    0,034284	-151,4	   0,0341703	-152,8
     42,8842	   0,0342081	-151,5	   0,0339895	-151,7
     42,8861	   0,0340481	-153,2	   0,0338908	-152,2
     42,8881	   0,0339093	-153,0	   0,0338745	-151,8
       42,89	   0,0338629	-152,3	   0,0337603	-151,8
      42,892	   0,0338062	-150,2	    0,033659	-152,5
     42,8939	    0,033744	-150,0	   0,0336032	-153,4
     42,8959	   0,0335943	-151,5	   0,0334762	-151,2
     42,8979	   0,0334667	-150,7	   0,0333768	-150,0
     42,8998	   0,0334116	-150,5	   0,0332953	-151,9
     42,9018	   0,0332801	-149,0	   0,0332499	-151,8
     42,9037	   0,0331679	-148,9	   0,0331152	-151,5
     42,9057	   0,0330466	-149,8	   0,0329746	-150,0
     42,9076	   0,0328982	-149,8	   0,0328422	-149,7
     42,9096	   0,0328123	-148,9	   0,0327211	-149,6
     42,9115	   0,0327501	-150,0	   0,0326938	-149,3
     42,9135	   0,0327514	-149,8	   0,0326046	-149,8
     42,9154	   0,0326813	-149,4	   0,0324938	-150,2
     42,9174	   0,0325423	-150,3	   0,0324038	-149,0
     42,9194	   0,0323803	-147,9	   0,0322936	-148,7
     42,9213	   0,0322895	-149,3	   0,0321784	-150,3
     42,9233	   0,0321716	-148,8	   0,0321961	-150,2
     42,9252	   0,0321577	-150,0	   0,0320848	-148,5
     42,9272	   0,0320249	-150,9	   0,0320203	-149,6
     42,9291	    0,031972	-150,5	   0,0319232	-149,7
     42,9311	   0,0319341	-148,3	   0,0318342	-150,0
      42,933	   0,0317706	-148,2	   0,0316535	-149,7
      42,935	    0,031707	-147,7	   0,0316498	-149,4
      42,937	   0,0315469	-149,0	    0,031577	-149,7
     42,9389	   0,0314137	-149,8	    0,031552	-149,0
     42,9409	   0,0313809	-148,1	   0,0314486	-148,8
     42,9428	   0,0313924	-148,2	   0,0313583	-150,9
     42,9448	   0,0312757	-146,9	   0,0311423	-149,7
     42,9467	   0,0312245	-147,3	   0,0310401	-148,1
     42,9487	   0,0309974	-148,5	   0,0310082	-147,3
     42,9506	   0,0308986	-147,0	   0,0309338	-149,0
     42,9526	   0,0308251	-147,1	   0,0308055	-148,4
     42,9545	   0,0306822	-146,5	   0,0307826	-149,0
     42,9565	   0,0305723	-148,1	   0,0306179	-147,1
     42,9585	   0,0304975	-147,9	   0,0305658	-147,7
     42,9604	   0,0304808	-148,1	   0,0304397	-147,2
     42,9624	    0,030402	-149,2	   0,0303767	-147,6
     42,9643	   0,0303565	-146,9	   0,0303824	-148,3
     42,9663	   0,0303523	-146,4	   0,0303338	-147,1
     42,9682	   0,0301446	-147,6	   0,0303268	-148,0
     42,9702	   0,0300002	-146,9	   0,0301214	-147,4
     42,9721	   0,0300165	-147,4	   0,0300013	-147,9
     42,9741	   0,0299493	-146,8	   0,0299474	-148,5
     42,9761	   0,0298451	-145,7	   0,0298236	-149,3
      42,978	   0,0297732	-147,0	   0,0297013	-148,2
       42,98	   0,0296408	-145,9	   0,0296401	-147,1
     42,9819	   0,0296621	-146,5	   0,0295334	-146,4
     42,9839	   0,0295087	-145,5	   0,0295287	-148,0
     42,9858	   0,0293575	-144,7	   0,0294652	-147,6
     42,9878	   0,0292737	-145,6	   0,0292941	-147,5
     42,9897	   0,0292421	-145,8	   0,0291784	-145,8
     42,9917	   0,0292201	-147,0	   0,0291005	-146,0
     42,9936	   0,0291336	-145,4	   0,0290044	-145,1
     42,9956	    0,028947	-146,6	   0,0289146	-146,0
     42,9976	   0,0289926	-146,1	   0,0289137	-146,5
     42,9995	    0,028948	-146,9	     0,02894	-147,4
     43,0015	   0,0288289	-146,7	    0,028803	-145,7
     43,0034	   0,0286686	-146,3	   0,0287839	-146,0
     43,0054	    0,028503	-146,1	   0,0286727	-146,3
     43,0073	    0,028465	-144,6	   0,0285813	-147,1
     43,0093	   0,0283678	-145,2	   0,0284744	-146,1
     43,0112	   0,0282779	-145,1	   0,0283855	-146,9
     43,0132	   0,0281663	-144,2	   0,0282323	-146,7
     43,0152	   0,0281427	-145,1	   0,0281626	-145,0
     43,0171	   0,0281305	-146,0	   0,0279942	-147,8
     43,0191	   0,0280967	-143,8	   0,0279395	-145,7
      43,021	   0,0280308	-144,8	   0,0278452	-145,4
      43,023	   0,0278588	-144,6	   0,0277478	-144,3
     43,0249	   0,0278204	-145,2	   0,0277445	-143,6
     43,0269	   0,0277436	-146,1	   0,0278007	-144,7
     43,0288	   0,0276993	-146,0	   0,0277545	-144,5
     43,0308	    0,027553	-143,8	   0,0275486	-145,5
     43,0327	   0,0274257	-144,3	   0,0275136	-146,5
     43,0347	   0,0274092	-146,0	   0,0274082	-144,2
     43,0367	   0,0274549	-145,3	   0,0274608	-144,2
     43,0386	   0,0273104	-144,8	   0,0273858	-145,1
     43,0406	   0,0272883	-144,1	   0,0272844	-145,2
     43,0425	   0,0272015	-143,7	   0,0271566	-146,5
     43,0445	   0,0269769	-142,4	   0,0270733	-145,4
     43,0464	   0,0269277	-143,8	   0,0268536	-144,2
     43,0484	   0,0268725	-144,1	   0,0268046	-143,1
     43,0503	   0,0267422	-144,0	   0,0268302	-145,4
     43,0523	    0,026725	-144,6	   0,0267761	-144,3
     43,0543	   0,0266672	-143,2	   0,0267833	-143,6
     43,0562	   0,0266072	-143,2	   0,0267526	-144,4
     43,0582	   0,0265638	-144,1	   0,0265344	-143,3
     43,0601	   0,0264268	-145,2	   0,0264032	-144,4
     43,0621	   0,0264324	-144,4	   0,0263503	-144,0
      43,064	   0,0264354	-143,5	   0,0264367	-144,9
      43,066	   0,0263348	-143,1	   0,0264277	-144,6
     43,0679	   0,0262939	-142,6	   0,0263063	-145,2
     43,0699	   0,0261447	-143,2	     0,02616	-144,3
     43,0718	   0,0259853	-143,5	   0,0261072	-143,8
     43,0738	    0,025858	-142,5	   0,0260211	-142,3
     43,0758	   0,0257842	-142,3	    0,025884	-143,2
     43,0777	   0,0257241	-141,7	   0,0258213	-143,4
     43,0797	   0,0256462	-142,1	   0,0257093	-143,9
     43,0816	   0,0256821	-143,2	   0,0256053	-142,2
     43,0836	   0,0256848	-143,7	   0,0255945	-142,1
     43,0855	   0,0256179	-144,4	   0,0255478	-142,3
     43,0875	   0,0255939	-142,9	   0,0256364	-143,1
     43,0894	   0,0255295	-143,2	   0,0255962	-143,0
     43,0914	   0,0254362	-141,8	   0,0255335	-143,2
     43,0934	   0,0252652	-141,9	   0,0254005	-144,3
     43,0953	   0,0251161	-142,9	   0,0252386	-142,8
     43,0973	   0,0250642	-142,9	   0,0251537	-142,7
     43,0992	   0,0250856	-141,7	   0,0250976	-143,1
     43,1012	   0,0250037	-141,7	   0,0250984	-142,2
     43,1031	   0,0249536	-141,0	   0,0250839	-143,1
     43,1051	   0,0248994	-141,2	   0,0249859	-142,9
      43,107	   0,0248754	-142,3	   0,0249609	-141,8
      43,109	   0,0248166	-143,2	   0,0248878	-141,9
     43,1109	   0,0247787	-142,1	   0,0246483	-141,8
     43,1129	   0,0246813	-142,5	   0,0246855	-142,0
     43,1149	    0,024617	-142,5	    0,024688	-142,9
     43,1168	    0,024553	-142,0	   0,0246094	-144,4
     43,1188	   0,0245174	-139,8	   0,0244409	-143,1
     43,1207	   0,0243731	-141,8	   0,0243382	-142,1
     43,1227	    0,024303	-140,6	    0,024207	-142,5
     43,1246	   0,0241829	-141,0	   0,0240948	-141,9
     43,1266	   0,0241087	-141,6	   0,0241407	-141,6
     43,1285	   0,0240379	-141,2	   0,0239487	-144,2
     43,1305	   0,0240623	-140,9	   0,0240919	-140,9
     43,1325	   0,0239462	-141,7	    0,024147	-141,0
     43,1344	   0,0238593	-142,6	   0,0239124	-140,3
     43,1364	   0,0238179	-142,6	   0,0238122	-140,0
     43,1383	   0,0238379	-142,8	   0,0238296	-141,5
     43,1403	   0,0237883	-140,3	   0,0237514	-142,8
     43,1422	   0,0237272	-139,8	   0,0236615	-143,4
     43,1442	    0,023693	-140,8	   0,0235993	-141,6
     43,1461	   0,0236558	-140,1	   0,0235761	-141,0
     43,1481	   0,0235942	-141,0	   0,0235417	-140,4
       43,15	   0,0235356	-141,6	   0,0234459	-139,7
      43,152	   0,0234153	-138,6	   0,0234445	-140,2
      43,154	   0,0233321	-140,0	   0,0234294	-140,3
     43,1559	   0,0231961	-140,1	   0,0233814	-140,4
     43,1579	   0,0232116	-140,3	   0,0233384	-141,0
     43,1598	    0,023143	-142,0	   0,0232049	-138,8
     43,1618	   0,0231041	-141,4	   0,0231989	-141,5
     43,1637	   0,0230869	-141,1	   0,0232092	-141,4
     43,1657	   0,0230916	-139,8	    0,023141	-141,6
     43,1676	   0,0231172	-138,8	   0,0229573	-142,0
     43,1696	   0,0229685	-138,9	   0,0228334	-142,0
     43,1716	   0,0227672	-140,5	   0,0227177	-140,0
     43,1735	   0,0226588	-140,0	   0,0226063	-138,3
     43,1755	   0,0225769	-140,3	   0,0226622	-138,9
     43,1774	   0,0226016	-140,4	   0,0226261	-140,4
     43,1794	   0,0225772	-139,7	   0,0225909	-140,6
     43,1813	   0,0225897	-139,3	   0,0225781	-141,7
     43,1833	   0,0225365	-140,9	   0,0225046	-140,7
     43,1852	   0,0225541	-140,7	   0,0225284	-140,5
     43,1872	   0,0224511	-140,2	   0,0223899	-140,4
     43,1891	   0,0223693	-139,8	   0,0222921	-140,2
     43,1911	   0,0222433	-139,0	    0,022225	-138,9
     43,1931	   0,0221805	-137,6	   0,0222953	-140,2
      43,195	   0,0220859	-137,8	   0,0222405	-140,0
      43,197	   0,0220136	-138,9	    0,022223	-140,0
     43,1989	   0,0220527	-138,5	   0,0221905	-138,4
     43,2009	   0,0218568	-140,7	   0,0220066	-139,4
     43,2028	   0,0219308	-139,9	    0,021803	-139,8
     43,2048	   0,0218349	-139,7	   0,0218076	-140,1
     43,2067	   0,0218524	-138,6	   0,0217351	-139,9
     43,2087	   0,0216967	-139,7	   0,0217475	-141,2
     43,2107	   0,0217546	-137,5	   0,0217195	-140,3
     43,2126	   0,0217447	-139,0	   0,0216696	-139,5
     43,2146	   0,0216431	-139,3	    0,021611	-138,4
     43,2165	   0,0216499	-139,5	   0,0215776	-138,1
     43,2185	    0,021533	-140,4	    0,021623	-137,7
     43,2204	   0,0214425	-136,9	   0,0216036	-139,6
     43,2224	    0,021239	-138,3	     0,02155	-140,7
     43,2243	   0,0212125	-139,2	   0,0213641	-140,1
     43,2263	   0,0212036	-139,4	   0,0212484	-140,6
     43,2282	   0,0211807	-139,8	   0,0213196	-139,1
     43,2302	   0,0210964	-138,3	   0,0212131	-138,5
     43,2322	   0,0210045	-137,7	   0,0210547	-139,0
     43,2341	   0,0210249	-136,8	   0,0209595	-137,7
     43,2361	   0,0209211	-136,4	   0,0209843	-138,2
      43,238	   0,0209491	-137,5	   0,0210165	-138,7
       43,24	   0,0208789	-139,3	   0,0211901	-138,0
     43,2419	   0,0208801	-138,9	   0,0211398	-140,2
     43,2439	   0,0207806	-140,3	   0,0209287	-139,1
     43,2458	   0,0206977	-138,8	    0,020734	-139,3
     43,2478	   0,0206689	-138,6	   0,0206375	-139,0
     43,2498	   0,0205973	-137,1	   0,0206133	-138,2
     43,2517	   0,0206006	-136,7	   0,0205929	-139,5
     43,2537	   0,0205149	-136,8	   0,0205485	-138,4
     43,2556	   0,0205646	-137,7	   0,0205646	-137,9
     43,2576	     0,02055	-138,8	   0,0205321	-138,5
     43,2595	   0,0205191	-139,9	   0,0204707	-137,1
     43,2615	   0,0204026	-138,5	   0,0204135	-138,5
     43,2634	   0,0202733	-138,2	   0,0203996	-138,7
     43,2654	   0,0201191	-137,9	    0,020259	-138,7
     43,2673	   0,0201832	-136,9	   0,0202314	-138,8
     43,2693	   0,0201046	-137,1	   0,0201347	-138,2
     43,2713	   0,0200015	-136,3	   0,0201288	-136,5
     43,2732	   0,0200049	-138,3	    0,020037	-136,0
     43,2752	   0,0200068	-138,5	   0,0200912	-136,8
     43,2771	   0,0199973	-137,0	   0,0199964	-137,7
     43,2791	   0,0199903	-137,9	   0,0199773	-138,3
      43,281	   0,0199602	-136,8	   0,0199464	-139,1
      43,283	   0,0197889	-137,4	   0,0198026	-139,8
     43,2849	   0,0197489	-138,2	   0,0197848	-137,7
     43,2869	   0,0198481	-137,9	    0,019714	-138,6
     43,2889	   0,0198442	-137,5	   0,0197152	-136,3
     43,2908	   0,0198508	-138,5	   0,0196425	-136,7
     43,2928	   0,0197074	-136,5	   0,0196699	-136,2
     43,2947	   0,0196763	-136,3	   0,0196288	-138,1
     43,2967	   0,0194478	-135,7	   0,0195524	-138,5
     43,2986	   0,0195037	-136,8	   0,0194867	-138,4
     43,3006	   0,0193998	-139,1	   0,0194978	-139,0
     43,3025	   0,0195191	-138,0	   0,0193558	-137,4
     43,3045	   0,0193938	-137,4	   0,0194152	-136,5
     43,3064	   0,0193848	-135,6	   0,0193277	-136,7
     43,3084	   0,0192712	-135,3	   0,0192237	-135,6
     43,3104	   0,0191415	-135,9	   0,0192305	-137,2
     43,3123	    0,019072	-135,1	    0,019198	-136,6
     43,3143	   0,0191064	-137,2	   0,0190931	-138,3
     43,3162	   0,0191654	-137,2	   0,0190094	-137,3
     43,3182	    0,019118	-137,6	   0,0189745	-137,4
     43,3201	   0,0190429	-137,4	   0,0190182	-136,4
     43,3221	   0,0190126	-136,8	   0,0190236	-136,9
      43,324	   0,0188886	-135,7	   0,0189955	-135,4
      43,326	   0,0188308	-135,4	   0,0190534	-137,2
      43,328	   0,0187017	-136,1	   0,0189858	-137,0
     43,3299	   0,0187948	-135,7	   0,0186986	-137,0
     43,3319	   0,0187482	-136,2	   0,0187797	-137,6
     43,3338	   0,0186469	-137,4	   0,0187222	-135,6
     43,3358	   0,0186708	-137,1	   0,0187459	-137,1
     43,3377	   0,0186137	-137,7	   0,0185984	-137,2
     43,3397	   0,0186209	-136,4	   0,0185157	-136,6
     43,3416	   0,0185344	-135,6	   0,0184575	-136,9
     43,3436	   0,0184677	-136,0	   0,0185541	-137,1
     43,3456	   0,0184071	-136,3	    0,018394	-137,5
     43,3475	   0,0184292	-136,1	   0,0184102	-136,7
     43,3495	   0,0184097	-137,6	   0,0183421	-137,7
     43,3514	   0,0183917	-136,2	     0,01831	-135,9
     43,3534	   0,0181424	-136,4	   0,0182405	-135,4
     43,3553	   0,0180809	-135,8	   0,0182108	-135,8
     43,3573	   0,0180696	-135,5	   0,0181586	-134,7
     43,3592	   0,0182652	-136,3	   0,0181565	-136,5
     43,3612	   0,0181574	-133,8	   0,0181876	-136,0
     43,3631	   0,0180395	-135,6	   0,0180165	-137,2
     43,3651	     0,01796	-137,1	    0,018063	-137,7
     43,3671	   0,0181086	-136,8	    0,018058	-135,6
      43,369	   0,0178619	-136,6	   0,0179664	-135,8
      43,371	   0,0178544	-136,8	   0,0178867	-136,0
     43,3729	   0,0179486	-136,0	   0,0178729	-135,0
     43,3749	   0,0177663	-134,2	   0,0178658	-135,6
     43,3768	   0,0177341	-134,7	   0,0177518	-135,1
     43,3788	   0,0175978	-134,7	   0,0178086	-136,0
     43,3807	   0,0176798	-135,3	   0,0177592	-137,6
     43,3827	   0,0176887	-135,8	   0,0177323	-136,2
     43,3847	   0,0178491	-135,4	   0,0176536	-136,6
     43,3866	   0,0176734	-136,3	   0,0175692	-135,0
     43,3886	   0,0175709	-134,5	    0,017606	-135,2
     43,3905	   0,0174607	-134,6	   0,0174688	-135,8
     43,3925	   0,0175081	-135,6	    0,017518	-134,8
     43,3944	   0,0174859	-134,5	   0,0174299	-136,5
     43,3964	   0,0173483	-134,5	   0,0174565	-135,6
     43,3983	   0,0173267	-135,7	    0,017332	-135,7
     43,4003	   0,0174522	-135,8	   0,0173266	-136,9
     43,4022	   0,0173812	-136,6	   0,0170683	-136,4
     43,4042	   0,0171895	-135,2	   0,0172377	-133,4
     43,4062	   0,0171276	-135,5	   0,0171581	-134,9
     43,4081	   0,0172625	-135,0	   0,0172784	-133,2
     43,4101	   0,0172264	-135,8	   0,0170488	-135,8
      43,412	   0,0171063	-134,0	   0,0170874	-134,1
      43,414	   0,0170207	-134,9	   0,0170518	-137,4
     43,4159	   0,0169496	-134,3	    0,017097	-136,5
     43,4179	   0,0169164	-133,9	   0,0170015	-136,4
     43,4198	   0,0169519	-134,5	   0,0168667	-134,8
     43,4218	   0,0168824	-134,2	   0,0169018	-134,6
     43,4238	     0,01681	-134,5	   0,0169914	-133,2
     43,4257	   0,0166809	-134,9	   0,0168426	-134,9
     43,4277	   0,0166897	-136,3	   0,0167525	-134,2
     43,4296	   0,0166999	-134,5	   0,0168453	-136,0
     43,4316	   0,0166809	-134,1	   0,0167116	-135,6
     43,4335	   0,0167192	-133,5	   0,0167215	-134,5
     43,4355	   0,0166714	-134,0	   0,0167382	-133,2
     43,4374	   0,0166399	-134,1	   0,0168027	-134,4
     43,4394	   0,0165879	-135,2	   0,0165812	-136,3
     43,4413	   0,0165837	-135,8	   0,0165098	-133,7
     43,4433	   0,0165206	-135,4	   0,0163457	-135,5
     43,4453	   0,0165053	-135,3	   0,0165365	-133,7
     43,4472	   0,0165434	-134,4	   0,0163677	-134,8
     43,4492	   0,0164085	-133,0	    0,016348	-135,0
     43,4511	   0,0162958	-133,1	   0,0164859	-134,5
     43,4531	   0,0162378	-133,8	   0,0163825	-134,4
      43,455	   0,0163565	-133,1	   0,0163025	-135,1
      43,457	   0,0163231	-134,1	   0,0162376	-133,8
     43,4589	   0,0162643	-135,0	   0,0162408	-135,7
     43,4609	   0,0162304	-134,1	   0,0163032	-133,9
     43,4629	   0,0162559	-134,5	   0,0162509	-134,3
     43,4648	   0,0161259	-133,4	   0,0162618	-134,0
     43,4668	   0,0159725	-133,6	   0,0161468	-132,9
     43,4687	   0,0160876	-134,9	   0,0160456	-133,4
     43,4707	   0,0160928	-134,5	   0,0160728	-134,4
     43,4726	   0,0160192	-132,9	   0,0160086	-136,3
     43,4746	    0,016074	-133,1	   0,0159032	-134,7
     43,4765	   0,0160754	-132,6	   0,0158708	-135,5
     43,4785	   0,0158535	-134,2	   0,0157994	-134,4
     43,4804	   0,0156694	-133,3	   0,0157226	-133,1
     43,4824	    0,015704	-134,9	   0,0157649	-133,8
     43,4844	   0,0159136	-135,5	   0,0158802	-133,2
     43,4863	   0,0159612	-135,3	   0,0157301	-135,9
     43,4883	   0,0157721	-133,0	   0,0157745	-134,9
     43,4902	    0,015666	-132,1	   0,0157025	-133,1
     43,4922	   0,0156026	-133,4	   0,0156662	-134,4
     43,4941	   0,0156462	-133,1	   0,0157473	-134,2
     43,4961	   0,0156066	-133,1	   0,0155181	-134,4
      43,498	   0,0155313	-133,5	   0,0155008	-134,4
        43,5	    0,015598	-133,7	   0,0154426	-133,6

