X-Data [Hz]	Laser (M - Filtered) [m/s]	Phase [Deg]	Laser (M - Filtered) [m/s]	Phase [Deg]	
	002: [07-10-24 09:43]		003: [07-10-24 09:46]	
        41,5	   0,0201327	78,5	    0,021933	76,2
      41,502	   0,0204023	77,8	   0,0218752	77,6
     41,5039	   0,0206076	77,3	   0,0219501	76,6
     41,5059	   0,0209534	76,6	   0,0220373	77,3
     41,5078	   0,0214623	78,9	   0,0220834	77,2
     41,5098	   0,0215665	77,8	   0,0220943	77,8
     41,5117	    0,021573	77,6	   0,0220425	76,6
     41,5137	   0,0216047	77,7	   0,0220463	77,2
     41,5156	   0,0218171	77,4	   0,0220528	77,4
     41,5176	   0,0218564	77,2	   0,0221672	76,4
     41,5196	   0,0218324	77,1	   0,0222866	77,4
     41,5215	   0,0218828	76,9	   0,0223598	77,0
     41,5235	   0,0219726	76,6	   0,0222401	77,6
     41,5254	   0,0219567	78,3	   0,0221995	76,7
     41,5274	   0,0220187	77,9	   0,0222939	76,2
     41,5293	   0,0220284	77,2	   0,0224339	77,3
     41,5313	   0,0220794	77,2	   0,0224417	77,3
     41,5332	   0,0220166	76,1	   0,0224441	77,6
     41,5352	   0,0221036	78,0	   0,0224845	75,9
     41,5371	   0,0221481	78,0	   0,0224908	78,6
     41,5391	   0,0221991	78,4	   0,0226406	78,0
     41,5411	   0,0223037	78,1	   0,0226052	78,5
      41,543	   0,0223496	77,1	   0,0226631	78,4
      41,545	   0,0223195	78,1	   0,0226712	77,0
     41,5469	   0,0223848	77,7	    0,022718	77,6
     41,5489	   0,0223599	77,9	   0,0227736	77,7
     41,5508	   0,0222978	76,7	   0,0227373	78,3
     41,5528	   0,0224467	77,8	   0,0227918	77,3
     41,5547	   0,0225763	78,4	   0,0229687	76,4
     41,5567	    0,022609	78,0	   0,0229495	78,6
     41,5587	   0,0225929	77,3	   0,0229534	77,5
     41,5606	   0,0225771	76,9	   0,0229824	78,4
     41,5626	   0,0226554	78,7	   0,0230522	77,2
     41,5645	   0,0226575	78,5	   0,0231249	77,6
     41,5665	   0,0227496	77,7	   0,0230971	77,5
     41,5684	   0,0227521	77,8	   0,0230744	77,9
     41,5704	   0,0226993	77,4	   0,0231591	79,2
     41,5723	   0,0228149	78,9	   0,0231995	78,4
     41,5743	    0,022837	77,7	   0,0232649	78,0
     41,5762	   0,0228912	79,6	    0,023251	78,5
     41,5782	   0,0229231	79,1	   0,0232542	77,9
     41,5802	   0,0229456	77,6	    0,023367	78,5
     41,5821	   0,0230243	78,6	    0,023565	77,7
     41,5841	   0,0230331	77,9	   0,0235123	78,3
      41,586	   0,0230413	78,8	    0,023388	77,5
      41,588	   0,0231244	77,6	   0,0234651	77,3
     41,5899	   0,0231172	78,0	   0,0236055	78,1
     41,5919	   0,0233199	77,8	   0,0237429	78,0
     41,5938	   0,0233098	77,7	   0,0237059	78,8
     41,5958	    0,023222	79,6	   0,0236955	77,7
     41,5978	   0,0231477	78,5	   0,0235951	79,1
     41,5997	   0,0232362	78,6	   0,0236447	78,6
     41,6017	   0,0234888	78,8	   0,0238183	78,7
     41,6036	   0,0235179	78,6	   0,0238999	78,9
     41,6056	   0,0234665	79,4	    0,023936	78,2
     41,6075	   0,0234864	78,0	    0,023898	78,2
     41,6095	   0,0235748	78,5	   0,0238979	78,5
     41,6114	   0,0236571	77,7	   0,0240996	78,3
     41,6134	    0,023708	77,7	    0,024094	79,5
     41,6153	   0,0237627	79,6	   0,0241084	77,6
     41,6173	   0,0237572	78,5	   0,0241388	77,9
     41,6193	   0,0237522	78,6	   0,0242333	78,3
     41,6212	   0,0237272	78,1	   0,0243375	78,4
     41,6232	   0,0238591	79,4	   0,0243806	79,5
     41,6251	   0,0239429	79,7	   0,0242608	78,7
     41,6271	   0,0240145	78,8	   0,0242242	79,0
      41,629	   0,0239158	79,4	   0,0243098	78,2
      41,631	   0,0239278	79,3	   0,0243851	79,4
     41,6329	   0,0240863	78,4	   0,0245072	80,0
     41,6349	    0,024163	79,1	   0,0245596	77,9
     41,6369	   0,0241949	79,1	   0,0245735	78,6
     41,6388	   0,0242002	79,7	    0,024613	77,7
     41,6408	   0,0242091	78,0	   0,0246863	78,0
     41,6427	   0,0242315	78,2	   0,0248032	79,2
     41,6447	   0,0243237	79,3	   0,0248486	78,5
     41,6466	   0,0244204	78,5	   0,0248696	79,1
     41,6486	   0,0244629	80,6	   0,0248665	78,7
     41,6505	   0,0245271	77,7	   0,0249164	79,5
     41,6525	      0,0244	78,6	   0,0249423	80,2
     41,6544	   0,0244642	79,2	   0,0249336	79,1
     41,6564	   0,0246187	79,3	    0,024957	79,9
     41,6584	   0,0246247	79,7	     0,02509	78,7
     41,6603	    0,024662	78,3	   0,0251494	78,8
     41,6623	   0,0247286	78,8	    0,025267	79,9
     41,6642	   0,0248571	78,3	   0,0252153	79,5
     41,6662	   0,0247285	78,2	   0,0253488	79,5
     41,6681	   0,0247511	80,8	    0,025344	78,5
     41,6701	   0,0248671	80,3	   0,0254165	79,3
      41,672	    0,024967	79,3	    0,025386	79,3
      41,674	   0,0250105	79,9	   0,0254124	78,8
      41,676	   0,0251201	79,0	   0,0254731	81,0
     41,6779	   0,0251411	79,6	   0,0254691	80,4
     41,6799	    0,025022	79,1	     0,02557	79,7
     41,6818	   0,0250591	80,3	   0,0256177	79,9
     41,6838	   0,0253031	79,4	   0,0257319	79,0
     41,6857	   0,0253719	78,6	   0,0257832	79,8
     41,6877	   0,0253201	80,2	   0,0258914	80,1
     41,6896	   0,0253001	80,4	    0,025894	80,2
     41,6916	   0,0254062	80,8	   0,0258957	79,3
     41,6936	   0,0255124	80,8	   0,0259269	78,6
     41,6955	   0,0255159	78,8	    0,026036	80,4
     41,6975	   0,0255895	78,9	   0,0261158	80,2
     41,6994	   0,0256136	79,5	   0,0260653	80,8
     41,7014	    0,025644	80,0	   0,0260859	80,6
     41,7033	   0,0256579	80,5	   0,0262097	79,3
     41,7053	   0,0256405	79,5	   0,0262557	79,8
     41,7072	   0,0257537	81,3	   0,0262927	79,5
     41,7092	   0,0259013	78,9	   0,0263585	78,7
     41,7111	   0,0258978	79,7	   0,0265586	79,7
     41,7131	   0,0260249	80,9	   0,0264925	80,5
     41,7151	   0,0260169	80,6	   0,0265127	80,5
      41,717	   0,0260245	80,6	   0,0265475	79,8
      41,719	   0,0260926	80,8	   0,0266863	80,8
     41,7209	   0,0261788	80,0	   0,0267472	81,3
     41,7229	   0,0262255	81,3	   0,0267611	80,4
     41,7248	   0,0262517	80,2	   0,0267896	80,8
     41,7268	   0,0263196	80,9	   0,0268238	79,6
     41,7287	   0,0264342	79,1	   0,0269157	79,3
     41,7307	   0,0264213	79,0	    0,026966	81,3
     41,7327	   0,0264696	81,5	   0,0269748	80,4
     41,7346	   0,0265414	80,9	   0,0270134	80,0
     41,7366	   0,0265195	81,3	   0,0271759	80,9
     41,7385	   0,0266778	82,4	   0,0272236	79,5
     41,7405	   0,0267254	79,1	    0,027122	81,4
     41,7424	   0,0266701	80,2	   0,0271826	79,9
     41,7444	   0,0268087	80,3	   0,0272653	80,9
     41,7463	   0,0268157	81,1	   0,0273938	80,9
     41,7483	   0,0268592	81,9	   0,0274882	80,1
     41,7502	   0,0270253	80,5	   0,0275304	81,1
     41,7522	   0,0270384	81,3	   0,0277074	79,9
     41,7542	   0,0270697	80,6	   0,0277199	80,2
     41,7561	   0,0271162	81,2	   0,0277482	81,5
     41,7581	   0,0271904	81,9	   0,0278477	81,2
       41,76	   0,0271816	80,7	   0,0278444	82,0
      41,762	   0,0272272	81,2	   0,0278925	82,1
     41,7639	   0,0273509	80,3	   0,0280119	80,3
     41,7659	   0,0273771	80,3	   0,0280099	81,5
     41,7678	   0,0275252	82,3	   0,0280268	81,2
     41,7698	   0,0276476	81,6	   0,0280611	81,5
     41,7718	   0,0277315	80,9	    0,028128	82,2
     41,7737	   0,0277505	82,1	   0,0281766	81,2
     41,7757	   0,0277851	81,1	   0,0282203	81,2
     41,7776	   0,0278015	80,9	   0,0283263	81,3
     41,7796	   0,0277559	81,6	   0,0286053	81,7
     41,7815	   0,0278646	81,6	   0,0286267	82,3
     41,7835	   0,0279592	82,0	   0,0286075	82,6
     41,7854	   0,0279766	81,2	    0,028519	82,0
     41,7874	   0,0279225	81,5	   0,0286428	80,4
     41,7893	   0,0280788	81,7	   0,0286993	80,7
     41,7913	   0,0281313	81,5	   0,0288495	82,2
     41,7933	   0,0282578	82,8	   0,0289239	82,5
     41,7952	     0,02832	82,5	   0,0290233	82,8
     41,7972	   0,0283353	82,1	   0,0291094	82,8
     41,7991	   0,0283329	82,6	   0,0291446	82,9
     41,8011	    0,028398	82,2	   0,0291866	82,0
      41,803	   0,0284751	82,2	   0,0292301	83,2
      41,805	   0,0286312	82,6	   0,0293545	81,8
     41,8069	   0,0287715	81,7	   0,0293437	82,7
     41,8089	   0,0287179	83,4	   0,0294282	82,1
     41,8109	   0,0287359	81,7	   0,0294313	82,3
     41,8128	   0,0287536	81,1	   0,0296007	82,7
     41,8148	    0,028948	82,4	   0,0295776	82,8
     41,8167	    0,029018	82,1	    0,029656	82,3
     41,8187	   0,0289417	83,5	   0,0297969	82,6
     41,8206	   0,0289954	83,8	   0,0299987	82,8
     41,8226	   0,0291191	83,3	   0,0300956	83,4
     41,8245	     0,02922	82,4	   0,0301288	81,8
     41,8265	   0,0292607	82,4	    0,030116	82,2
     41,8284	   0,0293582	82,7	   0,0301621	83,1
     41,8304	   0,0295517	82,9	   0,0302722	81,6
     41,8324	   0,0296149	82,4	   0,0302917	82,4
     41,8343	    0,029616	82,8	   0,0304111	83,6
     41,8363	   0,0297117	82,2	   0,0304581	82,2
     41,8382	   0,0297409	81,4	   0,0305478	83,5
     41,8402	   0,0297655	82,2	    0,030616	82,9
     41,8421	   0,0298845	83,6	   0,0307132	83,1
     41,8441	   0,0299489	82,6	   0,0308692	83,1
      41,846	   0,0300582	84,8	   0,0308832	83,2
      41,848	   0,0300734	83,9	   0,0309042	83,7
       41,85	   0,0301593	82,3	   0,0309485	83,3
     41,8519	   0,0302825	82,6	   0,0310102	83,0
     41,8539	   0,0302618	81,9	    0,031073	83,8
     41,8558	   0,0303997	84,5	   0,0311994	82,8
     41,8578	   0,0305327	84,6	   0,0311904	82,6
     41,8597	   0,0305601	83,7	   0,0313014	84,7
     41,8617	   0,0306252	83,8	   0,0314017	83,5
     41,8636	    0,030632	83,9	   0,0314866	84,0
     41,8656	    0,030655	83,1	   0,0316294	83,2
     41,8675	   0,0307744	83,3	   0,0317892	82,7
     41,8695	   0,0308479	83,4	   0,0318747	84,6
     41,8715	   0,0309401	83,8	   0,0319772	84,0
     41,8734	   0,0310449	85,0	   0,0321339	84,3
     41,8754	   0,0311423	84,5	   0,0321567	85,2
     41,8773	   0,0312135	83,6	   0,0321798	83,9
     41,8793	   0,0312562	84,0	   0,0322326	84,0
     41,8812	   0,0313176	83,5	   0,0322824	83,9
     41,8832	   0,0314068	84,5	   0,0323016	83,5
     41,8851	   0,0314967	84,1	   0,0324565	83,1
     41,8871	   0,0315909	84,7	   0,0325898	84,5
     41,8891	   0,0316945	84,2	   0,0327025	84,4
      41,891	   0,0317345	83,9	   0,0328024	85,6
      41,893	   0,0318581	84,8	   0,0328846	83,6
     41,8949	   0,0319969	84,8	   0,0330622	83,4
     41,8969	   0,0320934	84,6	   0,0330703	84,9
     41,8988	   0,0321742	85,0	   0,0330744	84,7
     41,9008	   0,0321782	84,4	    0,033129	86,1
     41,9027	   0,0321822	84,2	   0,0332006	85,8
     41,9047	   0,0322496	84,6	    0,033281	85,2
     41,9066	   0,0323857	84,2	   0,0334463	84,9
     41,9086	   0,0324558	83,6	   0,0335722	86,2
     41,9106	   0,0325631	85,7	   0,0336737	83,6
     41,9125	   0,0326497	85,6	   0,0337451	84,7
     41,9145	   0,0327683	85,6	   0,0337403	85,3
     41,9164	   0,0328312	86,2	   0,0338431	84,8
     41,9184	   0,0328871	84,8	   0,0341515	86,1
     41,9203	   0,0330175	84,3	   0,0342678	86,4
     41,9223	   0,0331465	85,7	   0,0343071	85,7
     41,9242	   0,0331982	84,9	   0,0343452	86,1
     41,9262	   0,0332863	86,8	   0,0344006	85,9
     41,9282	   0,0333823	87,3	   0,0344485	85,5
     41,9301	   0,0335423	85,3	   0,0345858	86,5
     41,9321	   0,0336652	86,3	   0,0347213	86,3
      41,934	   0,0337447	84,9	   0,0348931	86,9
      41,936	   0,0337881	84,6	    0,034992	86,7
     41,9379	   0,0338979	86,8	   0,0350653	86,2
     41,9399	   0,0340315	86,3	   0,0351726	86,7
     41,9418	    0,034124	86,6	   0,0352827	86,7
     41,9438	    0,034109	86,9	   0,0354431	85,8
     41,9457	   0,0341266	85,5	   0,0354303	87,3
     41,9477	   0,0342017	85,6	    0,035591	86,4
     41,9497	   0,0343321	86,4	   0,0356414	86,4
     41,9516	   0,0344458	86,0	   0,0358223	87,4
     41,9536	   0,0346438	87,1	   0,0359316	87,2
     41,9555	   0,0347624	87,7	   0,0360492	86,2
     41,9575	   0,0348732	86,4	   0,0361488	87,1
     41,9594	   0,0349503	86,7	   0,0362578	86,9
     41,9614	   0,0350257	86,2	   0,0363424	88,0
     41,9633	   0,0350712	86,5	   0,0364793	88,3
     41,9653	   0,0352192	87,4	   0,0366398	86,4
     41,9673	     0,03538	87,8	   0,0367288	87,8
     41,9692	   0,0355077	87,0	   0,0368097	88,3
     41,9712	   0,0355631	87,8	   0,0368638	86,4
     41,9731	   0,0357211	87,7	   0,0369652	87,0
     41,9751	   0,0358358	87,1	   0,0371129	87,9
      41,977	   0,0359004	87,8	    0,037197	87,2
      41,979	   0,0358886	87,3	   0,0374066	89,2
     41,9809	   0,0359771	87,4	   0,0374702	89,3
     41,9829	   0,0361422	88,4	    0,037632	87,2
     41,9848	    0,036249	88,4	    0,037749	88,1
     41,9868	   0,0363296	88,5	   0,0378715	87,8
     41,9888	   0,0364653	88,7	   0,0380115	87,5
     41,9907	   0,0366509	88,4	   0,0381134	89,3
     41,9927	   0,0367449	89,0	   0,0381866	89,1
     41,9946	   0,0369173	88,3	   0,0383446	89,4
     41,9966	    0,036957	88,7	   0,0384212	89,8
     41,9985	   0,0371339	89,0	   0,0385641	88,5
     42,0005	   0,0372864	90,0	   0,0386444	88,6
     42,0024	   0,0373764	89,1	   0,0387838	89,2
     42,0044	   0,0374799	89,4	   0,0389929	88,8
     42,0064	   0,0376262	88,7	   0,0391739	89,5
     42,0083	    0,037701	87,8	   0,0391796	90,1
     42,0103	   0,0377816	89,8	   0,0393537	89,1
     42,0122	   0,0379627	89,2	   0,0395154	90,2
     42,0142	    0,038085	88,8	    0,039731	90,7
     42,0161	   0,0382112	90,3	   0,0398379	90,2
     42,0181	   0,0382992	91,0	   0,0400295	90,2
       42,02	   0,0385461	89,7	   0,0401077	90,4
      42,022	   0,0386675	89,7	   0,0402204	90,0
     42,0239	   0,0387157	89,0	   0,0403273	90,2
     42,0259	   0,0387443	89,2	   0,0404631	91,2
     42,0279	   0,0389117	89,4	   0,0406309	90,5
     42,0298	   0,0390562	90,4	    0,040967	91,3
     42,0318	   0,0390865	89,4	   0,0410677	92,4
     42,0337	   0,0393038	91,7	   0,0412182	89,8
     42,0357	   0,0394702	92,0	   0,0413372	90,7
     42,0376	   0,0397008	90,3	   0,0414972	91,1
     42,0396	   0,0397881	91,2	   0,0416603	90,8
     42,0415	   0,0399512	89,9	   0,0418639	92,1
     42,0435	   0,0400418	90,3	   0,0419663	92,0
     42,0455	   0,0402629	91,7	   0,0421935	91,8
     42,0474	   0,0402821	91,3	   0,0422558	92,7
     42,0494	   0,0403746	92,1	     0,04244	91,6
     42,0513	   0,0404937	92,7	   0,0425865	91,4
     42,0533	   0,0406543	91,2	   0,0428078	93,1
     42,0552	   0,0407294	91,2	   0,0428719	93,1
     42,0572	   0,0407916	92,4	   0,0430579	91,4
     42,0591	   0,0410921	91,5	   0,0431934	92,7
     42,0611	   0,0412546	90,7	   0,0434529	93,5
      42,063	   0,0415181	93,4	    0,043607	92,7
      42,065	   0,0416185	92,6	   0,0438778	93,7
      42,067	   0,0417462	92,2	   0,0440895	94,6
     42,0689	   0,0418756	92,2	   0,0443243	92,7
     42,0709	   0,0420475	93,5	   0,0444629	93,6
     42,0728	   0,0422064	93,2	   0,0446339	93,7
     42,0748	   0,0423695	93,3	   0,0446303	93,6
     42,0767	   0,0425257	93,9	   0,0448657	94,9
     42,0787	    0,042753	92,3	   0,0450529	95,5
     42,0806	   0,0428325	92,9	   0,0453614	94,4
     42,0826	   0,0430376	93,4	     0,04551	95,4
     42,0846	   0,0431026	93,4	   0,0457225	94,7
     42,0865	   0,0433078	95,4	   0,0459434	93,9
     42,0885	    0,043524	94,9	   0,0461701	95,6
     42,0904	   0,0436905	93,5	   0,0463209	95,0
     42,0924	   0,0437558	94,9	    0,046429	95,0
     42,0943	   0,0439111	94,9	   0,0466956	95,8
     42,0963	   0,0441637	93,6	   0,0469658	95,7
     42,0982	   0,0443624	93,8	   0,0470943	96,2
     42,1002	   0,0445619	95,5	   0,0472867	97,1
     42,1021	   0,0447224	95,0	   0,0475441	96,5
     42,1041	   0,0448466	96,3	   0,0478148	95,6
     42,1061	   0,0450539	96,9	   0,0480333	96,2
      42,108	   0,0452409	95,2	   0,0481986	98,1
       42,11	   0,0454549	96,5	   0,0484331	96,2
     42,1119	   0,0457456	95,7	   0,0485476	97,0
     42,1139	   0,0458856	95,8	   0,0488295	98,3
     42,1158	   0,0461569	96,4	   0,0490417	97,4
     42,1178	   0,0463216	97,5	   0,0493279	98,2
     42,1197	   0,0465642	96,8	   0,0495361	99,0
     42,1217	   0,0467681	97,5	   0,0497416	98,2
     42,1237	   0,0469999	97,8	   0,0499637	98,5
     42,1256	   0,0472798	98,2	   0,0501187	99,0
     42,1276	   0,0475084	98,1	   0,0503949	98,1
     42,1295	   0,0476964	98,2	   0,0506096	98,8
     42,1315	   0,0478509	99,3	   0,0508657	98,7
     42,1334	   0,0480911	97,8	   0,0511131	99,4
     42,1354	   0,0482589	98,1	   0,0513087	99,0
     42,1373	   0,0485224	98,5	   0,0516695	100,8
     42,1393	   0,0487374	98,5	   0,0519245	100,7
     42,1413	   0,0489471	99,7	   0,0522387	99,9
     42,1432	   0,0491094	100,3	   0,0524947	100,7
     42,1452	     0,04934	99,5	   0,0528494	100,5
     42,1471	   0,0494669	99,3	   0,0530479	100,5
     42,1491	   0,0497285	100,3	   0,0531935	101,8
      42,151	   0,0499108	99,6	   0,0534683	101,7
      42,153	   0,0502411	100,0	   0,0537885	101,5
     42,1549	   0,0504515	100,9	   0,0540541	101,6
     42,1569	   0,0506626	100,2	   0,0543828	103,1
     42,1588	   0,0508877	100,3	   0,0546009	102,3
     42,1608	   0,0510491	101,1	   0,0549324	104,0
     42,1628	   0,0513903	101,7	   0,0552125	104,3
     42,1647	   0,0516123	101,3	   0,0555373	102,5
     42,1667	   0,0518743	103,1	   0,0557756	103,5
     42,1686	   0,0519989	103,6	   0,0561797	104,2
     42,1706	   0,0522861	101,6	   0,0565038	104,5
     42,1725	   0,0525426	102,5	   0,0568052	104,8
     42,1745	    0,052884	102,6	   0,0570293	105,0
     42,1764	   0,0530167	101,8	    0,057248	105,3
     42,1784	   0,0532953	103,3	   0,0575359	105,2
     42,1804	   0,0535436	104,1	   0,0579478	107,1
     42,1823	   0,0538541	104,2	   0,0582379	107,2
     42,1843	   0,0541304	104,1	   0,0585577	106,8
     42,1862	   0,0544582	106,3	   0,0588121	107,4
     42,1882	   0,0546151	105,0	   0,0591253	106,7
     42,1901	   0,0548621	105,0	   0,0594383	106,1
     42,1921	   0,0550745	106,4	   0,0598031	108,8
      42,194	   0,0552679	106,6	   0,0600904	108,5
      42,196	   0,0555523	104,9	   0,0604011	108,6
     42,1979	   0,0558183	105,6	   0,0607151	109,2
     42,1999	   0,0561471	106,1	   0,0609816	110,1
     42,2019	   0,0564987	106,3	   0,0613507	110,0
     42,2038	   0,0567273	106,5	   0,0616603	110,0
     42,2058	   0,0569785	107,7	   0,0619944	111,3
     42,2077	   0,0571653	108,3	   0,0623253	111,1
     42,2097	   0,0574562	108,1	    0,062721	111,0
     42,2116	    0,057747	109,4	   0,0630156	111,5
     42,2136	   0,0579924	109,1	   0,0634374	111,2
     42,2155	   0,0583336	108,4	   0,0637068	111,7
     42,2175	   0,0585733	109,3	   0,0641494	113,2
     42,2195	   0,0589992	109,1	   0,0644781	113,6
     42,2214	   0,0591729	109,4	   0,0647258	113,5
     42,2234	   0,0595207	110,0	   0,0651046	115,7
     42,2253	   0,0597538	110,7	   0,0653844	115,5
     42,2273	   0,0600846	110,2	   0,0656433	115,4
     42,2292	   0,0604193	110,8	   0,0660593	115,5
     42,2312	   0,0606989	112,9	    0,066309	117,3
     42,2331	   0,0609778	112,6	   0,0667659	115,8
     42,2351	   0,0613003	112,1	   0,0670247	116,3
      42,237	   0,0615454	113,7	   0,0673544	117,2
      42,239	   0,0618162	114,4	   0,0676864	118,2
      42,241	   0,0621952	112,9	   0,0679737	117,3
     42,2429	   0,0624635	114,5	    0,068321	117,7
     42,2449	   0,0627075	114,3	   0,0686057	120,3
     42,2468	   0,0629883	114,6	   0,0689309	119,2
     42,2488	   0,0633183	114,6	   0,0692138	121,0
     42,2507	   0,0636463	115,2	   0,0693924	121,7
     42,2527	   0,0639805	116,4	   0,0697627	120,9
     42,2546	    0,064309	115,7	   0,0699167	121,2
     42,2566	   0,0645436	117,6	   0,0703042	122,5
     42,2586	   0,0648467	117,6	   0,0705363	122,7
     42,2605	   0,0651817	117,9	   0,0708496	122,1
     42,2625	   0,0654696	118,0	   0,0711329	123,6
     42,2644	   0,0658017	118,5	   0,0714735	122,6
     42,2664	   0,0660197	118,9	   0,0716653	123,7
     42,2683	   0,0663246	118,8	   0,0719261	125,5
     42,2703	   0,0665364	119,6	    0,072179	125,7
     42,2722	   0,0668309	120,8	   0,0723959	125,4
     42,2742	   0,0671906	119,7	   0,0726778	126,1
     42,2761	   0,0675262	119,8	   0,0729284	126,9
     42,2781	   0,0679073	122,2	   0,0731778	127,5
     42,2801	   0,0681984	121,9	   0,0733285	127,7
      42,282	   0,0685048	122,5	   0,0736425	128,4
      42,284	   0,0687282	123,5	   0,0738616	128,0
     42,2859	   0,0691051	124,1	   0,0740317	128,5
     42,2879	    0,069377	123,8	   0,0742937	129,4
     42,2898	   0,0696666	125,2	   0,0745626	130,1
     42,2918	    0,069872	126,0	   0,0747584	130,3
     42,2937	   0,0701639	125,0	   0,0749633	130,3
     42,2957	   0,0704237	125,2	   0,0750424	131,2
     42,2977	   0,0708026	126,5	   0,0752166	132,2
     42,2996	   0,0710497	126,4	   0,0754033	132,2
     42,3016	   0,0713091	126,6	   0,0756306	133,3
     42,3035	   0,0715533	127,6	   0,0757547	134,0
     42,3055	   0,0718118	128,7	   0,0759506	134,0
     42,3074	   0,0720675	128,7	   0,0761553	134,7
     42,3094	   0,0723554	130,7	   0,0762739	135,2
     42,3113	   0,0725575	131,5	   0,0764223	134,5
     42,3133	   0,0728686	129,8	   0,0764826	134,7
     42,3153	   0,0730315	131,4	   0,0766421	135,9
     42,3172	   0,0731864	131,3	   0,0767765	136,4
     42,3192	   0,0735366	132,8	   0,0768299	136,5
     42,3211	   0,0736982	132,4	   0,0769823	136,8
     42,3231	   0,0740012	133,1	    0,077025	138,8
      42,325	   0,0741686	133,5	     0,07717	138,1
      42,327	    0,074453	133,0	   0,0772485	138,1
     42,3289	   0,0745713	133,2	   0,0773086	140,4
     42,3309	   0,0748499	135,8	   0,0774485	140,6
     42,3328	   0,0750313	135,6	    0,077509	140,1
     42,3348	   0,0752511	136,1	   0,0776059	140,7
     42,3368	   0,0753419	136,4	   0,0776207	141,9
     42,3387	   0,0755308	138,2	   0,0777908	141,4
     42,3407	   0,0756962	137,7	   0,0778954	141,6
     42,3426	    0,075885	139,0	   0,0780026	143,0
     42,3446	   0,0760812	139,4	   0,0780419	143,6
     42,3465	   0,0761678	138,7	   0,0780397	142,2
     42,3485	   0,0763685	138,5	   0,0781016	142,7
     42,3504	   0,0765688	138,5	   0,0782261	144,5
     42,3524	   0,0766957	140,9	   0,0782747	144,4
     42,3544	   0,0768241	141,5	   0,0782843	145,2
     42,3563	   0,0770048	140,5	    0,078347	146,2
     42,3583	   0,0770684	142,2	   0,0783854	146,1
     42,3602	   0,0772311	142,5	   0,0783293	146,1
     42,3622	    0,077255	142,8	   0,0783619	147,7
     42,3641	   0,0774441	144,4	   0,0783928	148,1
     42,3661	   0,0775249	144,7	   0,0784119	147,0
      42,368	   0,0776703	144,7	   0,0783684	147,8
       42,37	   0,0776993	145,3	    0,078484	148,8
     42,3719	   0,0778119	147,1	   0,0784703	149,6
     42,3739	    0,077896	147,3	   0,0783312	148,3
     42,3759	   0,0779372	146,0	   0,0783705	148,8
     42,3778	   0,0779187	147,3	   0,0783884	150,0
     42,3798	   0,0779753	147,9	   0,0783899	150,0
     42,3817	    0,078069	148,9	   0,0783959	149,8
     42,3837	   0,0781355	147,9	    0,078379	151,1
     42,3856	   0,0781617	148,5	    0,078393	151,8
     42,3876	   0,0781348	150,1	   0,0784406	150,9
     42,3895	   0,0781561	148,4	   0,0782876	152,9
     42,3915	   0,0781334	149,3	   0,0782523	153,4
     42,3935	   0,0781821	151,0	   0,0782604	152,9
     42,3954	   0,0781704	150,9	   0,0781498	152,9
     42,3974	   0,0781297	151,0	   0,0781367	153,1
     42,3993	   0,0781215	150,8	   0,0782276	155,3
     42,4013	   0,0781347	153,3	   0,0781457	155,1
     42,4032	   0,0781654	153,1	   0,0779657	154,6
     42,4052	   0,0781047	153,8	   0,0780034	155,3
     42,4071	   0,0781623	154,3	   0,0779705	156,0
     42,4091	   0,0781564	154,7	   0,0778788	155,8
      42,411	   0,0781504	155,1	   0,0778297	156,3
      42,413	   0,0781973	154,7	   0,0777649	157,3
      42,415	   0,0781198	156,4	    0,077743	156,9
     42,4169	    0,078083	156,8	   0,0777162	156,9
     42,4189	   0,0780296	155,6	   0,0776838	157,2
     42,4208	   0,0779181	156,5	   0,0775933	158,8
     42,4228	   0,0779127	156,3	   0,0774704	158,1
     42,4247	   0,0778648	157,1	   0,0774273	157,3
     42,4267	   0,0778642	157,1	   0,0772967	159,9
     42,4286	   0,0778297	157,1	   0,0771972	160,1
     42,4306	   0,0777969	157,9	   0,0771428	160,0
     42,4326	   0,0777855	157,9	   0,0770824	160,4
     42,4345	   0,0777348	158,6	   0,0770256	161,1
     42,4365	   0,0776564	158,8	   0,0769282	161,3
     42,4384	   0,0775771	160,2	   0,0769349	161,4
     42,4404	   0,0774641	160,5	   0,0768497	162,0
     42,4423	   0,0773942	161,5	   0,0766868	162,9
     42,4443	    0,077326	162,3	    0,076571	161,8
     42,4462	   0,0772375	161,7	   0,0764904	162,4
     42,4482	   0,0771851	161,8	    0,076469	163,1
     42,4501	   0,0770621	162,0	   0,0764075	163,6
     42,4521	   0,0770055	163,6	   0,0762377	162,3
     42,4541	   0,0768803	162,1	   0,0762078	162,9
      42,456	   0,0767776	162,9	   0,0760927	164,5
      42,458	    0,076631	163,8	   0,0760137	163,5
     42,4599	   0,0765739	164,0	    0,075883	163,8
     42,4619	   0,0764217	162,6	   0,0757025	165,0
     42,4638	   0,0764209	163,2	   0,0755765	164,9
     42,4658	   0,0763511	164,6	   0,0753591	165,6
     42,4677	   0,0763249	164,9	   0,0752408	164,2
     42,4697	   0,0761661	164,4	   0,0750892	166,8
     42,4717	   0,0760609	165,2	   0,0750537	167,1
     42,4736	   0,0759942	166,0	   0,0749561	166,6
     42,4756	    0,075864	167,1	   0,0747909	166,9
     42,4775	   0,0756878	166,3	    0,074755	169,2
     42,4795	    0,075565	167,4	   0,0747268	168,4
     42,4814	   0,0755436	166,9	   0,0746343	168,2
     42,4834	   0,0754096	167,8	   0,0745373	169,1
     42,4853	   0,0753163	167,6	   0,0743866	169,1
     42,4873	   0,0751352	169,6	   0,0742905	169,2
     42,4892	   0,0750857	170,5	   0,0741395	168,8
     42,4912	    0,074845	169,3	   0,0740547	169,1
     42,4932	   0,0747703	168,9	   0,0739462	170,1
     42,4951	    0,074687	170,6	   0,0738142	170,8
     42,4971	   0,0745804	170,6	   0,0736951	169,4
      42,499	   0,0744063	169,6	   0,0735967	170,6
      42,501	   0,0742598	169,9	   0,0734008	170,7
     42,5029	   0,0741588	171,2	    0,073245	170,4
     42,5049	   0,0740171	172,1	   0,0731211	171,1
     42,5068	   0,0738614	170,7	   0,0730153	171,5
     42,5088	   0,0736493	171,5	   0,0728432	171,6
     42,5108	   0,0735465	172,1	   0,0726803	171,3
     42,5127	   0,0734729	172,1	   0,0725628	173,2
     42,5147	    0,073369	172,6	   0,0724875	173,1
     42,5166	   0,0731908	171,7	     0,07236	173,2
     42,5186	    0,073137	172,2	   0,0722125	172,5
     42,5205	   0,0729891	173,1	   0,0721172	172,8
     42,5225	   0,0728625	173,0	   0,0718809	174,6
     42,5244	   0,0727578	173,9	   0,0717491	174,5
     42,5264	   0,0725562	175,0	   0,0715955	173,7
     42,5283	   0,0723424	174,9	   0,0714889	174,6
     42,5303	   0,0722601	174,2	    0,071373	175,9
     42,5323	   0,0721212	175,8	   0,0711798	176,0
     42,5342	   0,0719739	176,2	   0,0710136	175,2
     42,5362	   0,0718124	175,8	   0,0708621	175,9
     42,5381	   0,0716008	176,3	   0,0707414	176,8
     42,5401	   0,0714267	177,5	   0,0706427	176,5
      42,542	   0,0713152	177,3	   0,0705665	177,6
      42,544	   0,0712663	176,7	   0,0703991	177,1
     42,5459	   0,0711741	177,1	   0,0702704	176,9
     42,5479	   0,0709689	177,4	   0,0700673	177,9
     42,5499	   0,0707868	178,8	    0,069927	176,7
     42,5518	   0,0706277	177,8	   0,0698232	177,8
     42,5538	   0,0704299	177,8	   0,0696924	178,1
     42,5557	   0,0702657	179,0	   0,0696144	177,4
     42,5577	     0,07017	178,8	    0,069415	177,7
     42,5596	   0,0700309	177,5	    0,069233	178,5
     42,5616	   0,0698506	178,4	   0,0690823	179,8
     42,5635	   0,0697362	179,3	   0,0689171	178,5
     42,5655	   0,0695925	180,3	   0,0687259	178,5
     42,5674	   0,0694557	178,1	   0,0685947	179,9
     42,5694	   0,0693495	179,4	   0,0685003	180,0
     42,5714	   0,0691992	179,9	   0,0683337	179,4
     42,5733	   0,0690158	180,2	   0,0682401	178,9
     42,5753	   0,0689009	179,8	   0,0680217	181,3
     42,5772	   0,0688339	179,6	   0,0678672	180,8
     42,5792	   0,0687375	179,6	   0,0677555	181,0
     42,5811	   0,0684507	181,6	   0,0675754	180,8
     42,5831	   0,0682861	181,2	   0,0674497	180,4
      42,585	   0,0680267	181,6	   0,0672832	181,9
      42,587	   0,0679052	180,9	   0,0671341	181,9
      42,589	   0,0676182	182,9	    0,067048	181,7
     42,5909	   0,0674532	182,6	   0,0668661	181,4
     42,5929	   0,0673233	182,1	   0,0666139	183,7
     42,5948	   0,0670965	182,8	   0,0664976	183,6
     42,5968	   0,0669763	182,9	   0,0663363	183,3
     42,5987	   0,0667999	183,9	   0,0662131	183,2
     42,6007	   0,0667477	183,3	   0,0659741	184,7
     42,6026	   0,0665702	184,4	   0,0658903	184,5
     42,6046	   0,0664263	183,9	   0,0657935	183,6
     42,6065	   0,0662191	185,2	   0,0656311	184,2
     42,6085	   0,0661687	184,4	   0,0653729	184,4
     42,6105	   0,0659057	185,5	   0,0651876	185,5
     42,6124	   0,0657795	185,7	   0,0649037	185,3
     42,6144	   0,0656156	186,1	   0,0647847	184,4
     42,6163	   0,0654509	185,8	   0,0647592	187,1
     42,6183	    0,065213	185,6	   0,0645328	185,8
     42,6202	    0,065106	187,3	   0,0644028	186,7
     42,6222	   0,0649123	186,0	   0,0643213	186,1
     42,6241	   0,0647245	186,6	   0,0641263	187,6
     42,6261	   0,0646462	186,7	   0,0639801	187,3
     42,6281	   0,0645304	187,2	   0,0639121	185,2
       42,63	    0,064358	188,3	   0,0637782	185,3
      42,632	   0,0640922	187,6	     0,06359	187,4
     42,6339	    0,064045	187,2	   0,0633742	187,1
     42,6359	   0,0639075	188,2	   0,0632684	188,7
     42,6378	   0,0638037	188,7	    0,063228	187,6
     42,6398	   0,0635584	188,0	   0,0630061	187,1
     42,6417	   0,0633875	188,0	   0,0628127	188,3
     42,6437	   0,0632432	188,8	   0,0625995	188,8
     42,6456	   0,0631199	189,6	   0,0625016	187,6
     42,6476	    0,062913	188,1	    0,062485	188,3
     42,6496	   0,0627463	188,0	   0,0623155	189,3
     42,6515	   0,0626385	188,4	   0,0620595	189,6
     42,6535	   0,0624565	189,6	   0,0618394	187,7
     42,6554	   0,0622742	190,0	   0,0617328	188,4
     42,6574	   0,0620375	188,8	    0,061588	188,8
     42,6593	    0,061915	188,4	   0,0613991	189,2
     42,6613	   0,0618397	190,1	   0,0612986	188,3
     42,6632	   0,0616628	190,9	   0,0610938	188,2
     42,6652	    0,061511	191,2	   0,0609414	189,5
     42,6672	   0,0613075	189,5	   0,0608425	191,0
     42,6691	   0,0612014	190,7	    0,060703	189,5
     42,6711	   0,0609799	191,0	   0,0605084	189,7
      42,673	   0,0608345	190,9	   0,0602919	190,6
      42,675	   0,0606855	190,4	   0,0602264	190,8
     42,6769	   0,0604408	191,1	   0,0600899	191,4
     42,6789	   0,0603638	191,4	   0,0599975	189,9
     42,6808	   0,0601635	191,2	   0,0597505	190,4
     42,6828	   0,0599826	191,1	   0,0594809	192,2
     42,6847	   0,0599026	192,1	   0,0595446	192,1
     42,6867	   0,0597667	191,7	   0,0593565	191,2
     42,6887	   0,0596487	193,2	   0,0593771	192,0
     42,6906	   0,0595059	192,4	    0,059212	192,2
     42,6926	   0,0593028	192,9	    0,059028	192,6
     42,6945	   0,0591315	192,4	   0,0587879	191,3
     42,6965	   0,0590558	192,7	   0,0585946	192,2
     42,6984	   0,0588098	192,5	   0,0583632	193,1
     42,7004	   0,0586949	193,3	   0,0581902	193,3
     42,7023	   0,0585548	193,2	    0,058033	192,3
     42,7043	   0,0583243	193,7	   0,0579518	192,6
     42,7063	   0,0580467	193,9	   0,0577396	193,0
     42,7082	   0,0579979	194,5	   0,0575302	193,6
     42,7102	   0,0578029	193,1	   0,0573553	193,6
     42,7121	   0,0576641	194,4	   0,0572547	193,4
     42,7141	    0,057422	195,0	   0,0571852	193,6
      42,716	   0,0573952	195,5	   0,0571103	194,6
      42,718	   0,0572114	193,6	   0,0569876	194,9
     42,7199	    0,057107	194,7	   0,0568059	194,2
     42,7219	   0,0570377	195,0	   0,0566863	194,6
     42,7239	   0,0568998	195,8	   0,0566092	194,5
     42,7258	   0,0567092	195,4	   0,0563199	195,4
     42,7278	   0,0565506	194,6	   0,0562092	195,8
     42,7297	   0,0564173	195,2	   0,0560069	194,6
     42,7317	   0,0561844	196,5	   0,0558532	193,8
     42,7336	   0,0559264	196,9	   0,0556565	196,0
     42,7356	   0,0557768	196,1	    0,055527	196,4
     42,7375	   0,0556729	195,8	   0,0553454	196,0
     42,7395	   0,0555722	196,6	   0,0552451	195,2
     42,7414	   0,0553816	196,8	    0,055061	196,6
     42,7434	   0,0552874	196,7	   0,0548739	197,3
     42,7454	   0,0552224	197,4	   0,0547591	196,5
     42,7473	    0,054946	197,1	   0,0546404	196,0
     42,7493	   0,0547967	197,5	   0,0544343	196,9
     42,7512	   0,0546806	197,9	   0,0543972	196,5
     42,7532	   0,0545372	198,2	   0,0543456	198,0
     42,7551	   0,0543458	197,3	   0,0543101	196,4
     42,7571	   0,0542177	197,5	   0,0541582	197,1
      42,759	   0,0541162	198,3	   0,0540016	196,8
      42,761	   0,0539359	199,5	   0,0538937	198,9
      42,763	   0,0537319	198,0	   0,0535536	197,4
     42,7649	   0,0535765	197,9	    0,053502	196,9
     42,7669	   0,0533379	199,1	   0,0533106	197,5
     42,7688	    0,053229	199,0	   0,0531511	198,0
     42,7708	   0,0531299	-159,8	   0,0530286	198,3
     42,7727	   0,0528906	-161,1	   0,0530067	199,2
     42,7747	   0,0527634	-159,9	   0,0528505	197,7
     42,7766	   0,0526457	-160,0	   0,0526603	198,1
     42,7786	   0,0525627	-159,3	   0,0524536	198,8
     42,7805	   0,0524857	-159,0	   0,0523813	199,7
     42,7825	    0,052289	-158,8	    0,052176	198,2
     42,7845	   0,0521936	-160,2	   0,0520419	198,7
     42,7864	   0,0521716	-158,2	    0,051902	199,6
     42,7884	    0,051998	-159,1	   0,0518331	-159,5
     42,7903	   0,0517379	-157,7	   0,0516901	-160,4
     42,7923	   0,0515559	-159,1	   0,0514818	-160,5
     42,7942	   0,0513957	-159,2	   0,0514014	-160,6
     42,7962	   0,0512538	-158,7	   0,0512444	-159,4
     42,7981	   0,0511767	-158,1	    0,051088	-159,7
     42,8001	     0,05098	-158,1	   0,0508869	-159,7
     42,8021	   0,0507393	-158,5	   0,0507791	-160,2
      42,804	   0,0505925	-158,6	    0,050609	-159,6
      42,806	    0,050406	-157,9	    0,050472	-158,3
     42,8079	   0,0503927	-156,3	   0,0503859	-158,4
     42,8099	   0,0502547	-156,9	   0,0502689	-157,5
     42,8118	   0,0501069	-158,4	    0,050162	-159,1
     42,8138	   0,0499753	-157,5	   0,0500065	-158,4
     42,8157	   0,0498025	-157,4	   0,0498115	-157,6
     42,8177	   0,0496154	-156,4	   0,0497044	-157,4
     42,8196	   0,0494861	-157,3	     0,04948	-158,2
     42,8216	   0,0492702	-157,9	   0,0494224	-157,8
     42,8236	   0,0491753	-157,3	   0,0492226	-157,5
     42,8255	   0,0491391	-156,6	   0,0490957	-156,4
     42,8275	   0,0489227	-155,2	   0,0489301	-157,8
     42,8294	   0,0487742	-156,9	   0,0488305	-156,8
     42,8314	   0,0487251	-157,6	   0,0486977	-156,8
     42,8333	   0,0486786	-157,1	    0,048579	-156,7
     42,8353	   0,0484937	-154,9	   0,0483946	-155,5
     42,8372	   0,0484188	-155,4	   0,0483046	-156,2
     42,8392	   0,0482287	-156,1	   0,0481439	-156,9
     42,8412	   0,0480383	-156,6	   0,0480408	-156,3
     42,8431	   0,0478486	-156,7	   0,0479555	-156,2
     42,8451	   0,0476503	-155,2	   0,0477533	-154,7
      42,847	   0,0476423	-156,1	   0,0476408	-155,2
      42,849	   0,0476153	-155,1	   0,0475313	-156,4
     42,8509	   0,0474327	-156,6	   0,0474465	-156,1
     42,8529	   0,0472697	-155,8	   0,0472846	-154,7
     42,8548	   0,0472153	-155,7	   0,0472496	-154,8
     42,8568	   0,0470805	-154,8	   0,0470486	-154,8
     42,8587	   0,0469156	-154,6	   0,0469762	-156,3
     42,8607	   0,0467985	-156,1	     0,04682	-154,7
     42,8627	   0,0466565	-154,8	   0,0467404	-154,9
     42,8646	   0,0464336	-154,9	   0,0465663	-155,3
     42,8666	   0,0463439	-153,2	    0,046499	-155,0
     42,8685	   0,0461656	-152,7	   0,0463809	-155,5
     42,8705	   0,0459951	-154,8	   0,0461988	-155,2
     42,8724	   0,0459109	-153,8	   0,0460178	-155,4
     42,8744	   0,0458807	-154,0	   0,0459127	-153,9
     42,8763	   0,0457556	-153,2	   0,0457648	-154,1
     42,8783	   0,0456445	-153,1	   0,0456349	-155,1
     42,8803	   0,0454817	-152,5	   0,0455278	-155,0
     42,8822	   0,0453979	-153,9	   0,0454469	-154,3
     42,8842	   0,0453246	-154,6	   0,0452798	-153,8
     42,8861	   0,0451456	-153,5	   0,0451298	-153,8
     42,8881	   0,0451157	-151,7	   0,0451368	-153,4
       42,89	    0,044867	-151,5	    0,044889	-155,0
      42,892	   0,0446966	-152,3	   0,0447536	-153,3
     42,8939	   0,0445558	-152,4	   0,0446115	-153,2
     42,8959	    0,044369	-152,6	   0,0444978	-152,5
     42,8979	   0,0441728	-152,1	   0,0443133	-154,0
     42,8998	   0,0441712	-151,8	   0,0443201	-153,0
     42,9018	   0,0440102	-150,9	   0,0442032	-153,3
     42,9037	   0,0437826	-152,7	   0,0440346	-152,2
     42,9057	   0,0439683	-153,0	   0,0438765	-153,0
     42,9076	   0,0437256	-151,7	   0,0437165	-152,6
     42,9096	   0,0435631	-151,6	   0,0436992	-152,5
     42,9115	   0,0435228	-152,2	   0,0435641	-152,0
     42,9135	   0,0433682	-151,8	   0,0434213	-151,7
     42,9154	   0,0433815	-152,0	   0,0432983	-151,0
     42,9174	    0,043308	-152,3	   0,0431456	-152,3
     42,9194	   0,0430716	-151,1	   0,0430302	-151,8
     42,9213	   0,0428929	-150,6	   0,0428459	-151,5
     42,9233	   0,0426698	-151,7	   0,0427376	-151,0
     42,9252	   0,0425782	-151,7	   0,0427319	-151,2
     42,9272	   0,0425109	-151,9	   0,0426486	-151,3
     42,9291	   0,0424467	-149,3	   0,0425938	-152,1
     42,9311	    0,042344	-149,7	   0,0424206	-151,5
      42,933	   0,0421808	-149,9	    0,042254	-151,7
      42,935	   0,0420895	-150,2	   0,0421235	-150,6
      42,937	   0,0419557	-150,6	   0,0420054	-151,0
     42,9389	   0,0418252	-150,7	   0,0418128	-152,2
     42,9409	   0,0416615	-148,8	   0,0417817	-151,6
     42,9428	   0,0415484	-148,9	   0,0415876	-150,6
     42,9448	   0,0414216	-149,8	   0,0414951	-150,7
     42,9467	   0,0413569	-151,0	   0,0414551	-150,5
     42,9487	   0,0412333	-149,6	   0,0413111	-150,6
     42,9506	   0,0410958	-150,2	   0,0412402	-151,4
     42,9526	   0,0409519	-149,3	    0,041146	-150,9
     42,9545	   0,0408895	-149,5	   0,0410422	-149,6
     42,9565	   0,0406783	-150,4	   0,0409282	-149,6
     42,9585	   0,0405979	-151,4	   0,0407724	-150,0
     42,9604	   0,0405074	-149,5	   0,0406871	-149,9
     42,9624	   0,0403787	-148,9	   0,0405922	-149,5
     42,9643	   0,0402642	-149,3	   0,0404075	-148,9
     42,9663	   0,0401354	-149,7	   0,0403309	-148,8
     42,9682	   0,0400991	-148,9	   0,0402394	-149,0
     42,9702	   0,0400245	-148,9	   0,0400037	-148,6
     42,9721	   0,0399565	-148,7	   0,0398929	-149,6
     42,9741	   0,0398687	-147,8	   0,0399342	-148,6
     42,9761	    0,039804	-147,1	   0,0398028	-147,8
      42,978	    0,039631	-148,6	   0,0397233	-148,5
       42,98	    0,039466	-147,9	   0,0396652	-149,0
     42,9819	   0,0393775	-147,7	   0,0395203	-148,8
     42,9839	   0,0393079	-147,8	   0,0393718	-149,3
     42,9858	   0,0391323	-147,8	   0,0393285	-149,0
     42,9878	   0,0389891	-147,0	   0,0392361	-147,7
     42,9897	   0,0388427	-148,1	   0,0390719	-148,8
     42,9917	   0,0386904	-148,4	   0,0388597	-148,6
     42,9936	    0,038596	-147,2	   0,0387735	-149,6
     42,9956	   0,0385944	-147,2	   0,0386691	-148,9
     42,9976	   0,0384914	-147,2	   0,0385702	-148,2
     42,9995	   0,0383561	-147,5	   0,0384725	-147,5
     43,0015	    0,038301	-148,5	   0,0383997	-148,1
     43,0034	   0,0382016	-148,5	   0,0383904	-148,6
     43,0054	   0,0381077	-147,5	   0,0382072	-148,4
     43,0073	   0,0379777	-147,2	   0,0380211	-147,3
     43,0093	   0,0379455	-146,2	   0,0378956	-146,8
     43,0112	   0,0378247	-146,9	   0,0379163	-146,2
     43,0132	   0,0376824	-146,8	   0,0377734	-146,6
     43,0152	   0,0375262	-146,4	   0,0377059	-147,1
     43,0171	   0,0373751	-146,3	   0,0375752	-147,2
     43,0191	   0,0372789	-145,7	   0,0375307	-147,5
      43,021	   0,0372121	-145,4	   0,0374347	-146,4
      43,023	   0,0371633	-146,7	   0,0373343	-146,9
     43,0249	   0,0370183	-146,1	   0,0373066	-147,0
     43,0269	   0,0368981	-146,3	   0,0371529	-146,6
     43,0288	   0,0368896	-146,1	   0,0370535	-148,2
     43,0308	   0,0367306	-145,1	   0,0369198	-146,4
     43,0327	   0,0366215	-145,9	   0,0367605	-146,7
     43,0347	   0,0364927	-145,7	   0,0366146	-146,0
     43,0367	   0,0363519	-146,6	   0,0365977	-146,7
     43,0386	   0,0362426	-147,5	   0,0365347	-146,7
     43,0406	   0,0362866	-146,7	   0,0364888	-147,5
     43,0425	   0,0362206	-145,2	   0,0363111	-146,1
     43,0445	   0,0360789	-144,9	   0,0362277	-145,2
     43,0464	   0,0360216	-146,0	   0,0361419	-145,2
     43,0484	   0,0358719	-145,5	   0,0360591	-146,6
     43,0503	   0,0357577	-146,5	   0,0360109	-145,6
     43,0523	   0,0356868	-144,7	   0,0359159	-144,8
     43,0543	   0,0356003	-144,1	   0,0357493	-144,9
     43,0562	   0,0354936	-143,8	   0,0356543	-146,1
     43,0582	   0,0353967	-144,6	   0,0353995	-144,9
     43,0601	   0,0353048	-145,0	   0,0353859	-145,1
     43,0621	   0,0352038	-144,9	   0,0353513	-146,1
      43,064	   0,0351266	-145,9	   0,0353048	-146,8
      43,066	   0,0349798	-144,0	    0,035135	-145,1
     43,0679	   0,0349163	-144,6	   0,0350294	-144,7
     43,0699	   0,0348261	-145,2	   0,0349731	-145,4
     43,0718	   0,0349106	-145,8	   0,0348753	-146,2
     43,0738	   0,0347595	-145,1	   0,0347442	-145,6
     43,0758	     0,03468	-144,7	   0,0347257	-145,4
     43,0777	   0,0345072	-144,4	    0,034597	-144,4
     43,0797	   0,0343985	-143,1	   0,0345139	-143,9
     43,0816	   0,0342113	-144,5	   0,0345038	-143,2
     43,0836	   0,0340859	-143,5	   0,0344354	-143,9
     43,0855	   0,0340563	-144,8	   0,0342088	-144,5
     43,0875	   0,0340199	-144,4	   0,0341028	-145,0
     43,0894	   0,0339009	-142,9	   0,0339743	-143,4
     43,0914	   0,0338787	-143,0	    0,033925	-144,0
     43,0934	   0,0337615	-143,0	   0,0338609	-143,1
     43,0953	   0,0333741	-148,6	   0,0338615	-144,0
     43,0973	    0,034844	-148,9	   0,0337801	-145,1
     43,0992	   0,0352406	-146,4	   0,0337375	-144,9
     43,1012	   0,0351631	-148,0	   0,0336153	-144,5
     43,1031	   0,0355138	-145,5	   0,0334672	-143,9
     43,1051	   0,0349126	-142,3	   0,0333663	-144,3
      43,107	   0,0342084	-141,3	   0,0332563	-144,6
      43,109	   0,0333646	-142,6	   0,0331203	-143,5
     43,1109	   0,0329487	-143,0	   0,0330431	-144,2
     43,1129	   0,0326994	-142,2	   0,0329956	-143,4
     43,1149	   0,0325597	-142,9	   0,0329705	-142,8
     43,1168	   0,0325167	-142,2	   0,0329323	-142,1
     43,1188	   0,0324195	-142,1	   0,0327057	-143,4
     43,1207	   0,0324022	-142,5	   0,0326935	-143,2
     43,1227	   0,0323934	-142,9	   0,0325449	-143,2
     43,1246	   0,0324185	-143,6	   0,0324598	-144,2
     43,1266	   0,0323885	-143,6	   0,0324293	-142,0
     43,1285	   0,0323546	-143,0	   0,0323571	-143,3
     43,1305	   0,0321928	-143,0	   0,0323041	-143,2
     43,1325	   0,0321394	-142,9	   0,0322221	-143,2
     43,1344	   0,0320989	-143,3	   0,0320355	-143,6
     43,1364	   0,0319841	-142,6	   0,0319633	-143,0
     43,1383	   0,0318923	-142,8	   0,0319626	-142,6
     43,1403	   0,0317837	-142,1	   0,0318914	-141,8
     43,1422	   0,0317238	-141,7	   0,0316519	-141,9
     43,1442	   0,0316294	-140,9	    0,031638	-141,5
     43,1461	   0,0314925	-141,6	   0,0315782	-142,6
     43,1481	   0,0314005	-142,5	   0,0314732	-142,2
       43,15	   0,0313097	-142,1	   0,0313567	-142,0
      43,152	   0,0312681	-142,6	   0,0312723	-142,0
      43,154	   0,0311421	-141,0	    0,031209	-141,5
     43,1559	    0,031058	-141,3	   0,0311962	-141,6
     43,1579	   0,0310689	-142,1	   0,0311167	-142,5
     43,1598	   0,0310021	-142,1	   0,0310216	-143,2
     43,1618	   0,0308816	-142,1	   0,0309797	-142,1
     43,1637	   0,0307821	-142,7	    0,030937	-142,6
     43,1657	   0,0307192	-142,1	   0,0307958	-142,1
     43,1676	   0,0306818	-140,6	    0,030753	-141,3
     43,1696	   0,0305178	-140,3	   0,0306234	-140,2
     43,1716	   0,0304033	-139,6	   0,0305227	-141,3
     43,1735	   0,0303763	-141,1	   0,0304616	-142,0
     43,1755	   0,0303114	-141,4	   0,0304217	-141,4
     43,1774	   0,0303124	-140,9	   0,0303853	-141,6
     43,1794	   0,0302729	-141,5	   0,0302705	-140,3
     43,1813	   0,0302015	-140,6	   0,0302717	-140,9
     43,1833	   0,0300977	-141,1	   0,0301919	-141,8
     43,1852	   0,0299849	-141,4	   0,0300693	-141,4
     43,1872	   0,0299525	-140,9	   0,0300088	-142,9
     43,1891	   0,0298623	-141,3	   0,0298532	-141,9
     43,1911	   0,0297794	-141,2	   0,0297968	-140,5
     43,1931	   0,0296707	-140,2	   0,0297093	-139,9
      43,195	   0,0295671	-139,9	   0,0296672	-140,1
      43,197	   0,0294828	-139,1	   0,0295719	-140,7
     43,1989	   0,0294547	-139,7	   0,0294409	-141,1
     43,2009	   0,0293665	-140,3	    0,029404	-141,0
     43,2028	   0,0292422	-140,3	   0,0292993	-140,0
     43,2048	   0,0291593	-141,1	   0,0292608	-140,7
     43,2067	   0,0290401	-141,8	   0,0292175	-139,7
     43,2087	   0,0290314	-139,9	   0,0291671	-140,5
     43,2107	   0,0290183	-139,9	   0,0291438	-140,7
     43,2126	   0,0289187	-139,6	   0,0290205	-140,7
     43,2146	   0,0288149	-139,9	   0,0289639	-140,8
     43,2165	   0,0287663	-138,7	    0,028808	-140,8
     43,2185	   0,0286412	-139,8	   0,0287137	-139,4
     43,2204	   0,0286076	-140,3	    0,028612	-140,7
     43,2224	   0,0285846	-139,8	   0,0285273	-139,1
     43,2243	    0,028558	-140,2	    0,028595	-139,2
     43,2263	   0,0285086	-139,1	   0,0285991	-140,0
     43,2282	   0,0284082	-139,9	   0,0285037	-140,6
     43,2302	   0,0283204	-139,7	   0,0284343	-139,9
     43,2322	   0,0282364	-139,3	   0,0283656	-140,6
     43,2341	   0,0281381	-140,6	   0,0282476	-139,9
     43,2361	   0,0280784	-139,7	   0,0280738	-139,3
      43,238	    0,028022	-138,6	   0,0280966	-139,8
       43,24	   0,0279819	-138,8	   0,0280374	-139,4
     43,2419	    0,027929	-139,2	   0,0279746	-140,7
     43,2439	   0,0279125	-138,6	   0,0279256	-139,9
     43,2458	   0,0277869	-139,4	   0,0278825	-139,6
     43,2478	   0,0277607	-140,2	   0,0277233	-138,5
     43,2498	   0,0276756	-139,5	   0,0276531	-139,4
     43,2517	   0,0275676	-139,8	   0,0275429	-139,4
     43,2537	   0,0274673	-138,6	   0,0275177	-139,3
     43,2556	    0,027423	-139,1	   0,0274947	-139,7
     43,2576	   0,0274139	-139,3	   0,0274462	-140,0
     43,2595	   0,0273541	-138,2	    0,027335	-140,3
     43,2615	   0,0272176	-138,8	   0,0272794	-138,9
     43,2634	   0,0271214	-139,0	   0,0272357	-138,2
     43,2654	   0,0271055	-139,3	   0,0271324	-138,1
     43,2673	   0,0270542	-138,6	   0,0270771	-138,6
     43,2693	   0,0270157	-139,5	   0,0271282	-138,1
     43,2713	    0,026887	-138,3	   0,0270357	-139,1
     43,2732	   0,0268431	-138,3	   0,0269966	-139,5
     43,2752	   0,0267364	-139,6	   0,0267279	-139,1
     43,2771	   0,0266753	-138,5	    0,026612	-139,5
     43,2791	   0,0267088	-138,9	   0,0266024	-138,3
      43,281	   0,0266391	-138,2	   0,0266735	-137,9
      43,283	   0,0265888	-138,4	   0,0267158	-137,3
     43,2849	   0,0264448	-137,1	   0,0265799	-140,0
     43,2869	   0,0263646	-138,3	   0,0264325	-138,1
     43,2889	   0,0263515	-137,6	   0,0262728	-138,6
     43,2908	   0,0264044	-137,6	    0,026365	-138,7
     43,2928	   0,0262381	-138,6	   0,0262701	-138,4
     43,2947	   0,0262009	-138,6	   0,0262514	-137,7
     43,2967	   0,0261294	-138,9	   0,0262283	-138,3
     43,2986	   0,0260057	-137,8	   0,0261617	-139,7
     43,3006	   0,0259274	-137,6	   0,0260256	-139,6
     43,3025	   0,0258759	-136,4	   0,0258511	-138,3
     43,3045	   0,0257703	-136,7	   0,0259015	-138,5
     43,3064	   0,0256647	-137,8	   0,0257351	-138,3
     43,3084	   0,0257021	-138,5	   0,0257683	-136,0
     43,3104	   0,0255801	-139,2	   0,0257171	-137,1
     43,3123	   0,0255452	-139,1	   0,0256068	-137,1
     43,3143	   0,0256171	-138,4	   0,0255924	-137,3
     43,3162	   0,0255053	-137,6	   0,0254894	-138,1
     43,3182	   0,0254833	-137,0	   0,0254052	-138,5
     43,3201	    0,025372	-136,1	   0,0253515	-138,8
     43,3221	    0,025275	-136,3	   0,0254293	-137,8
      43,324	   0,0251817	-136,9	   0,0253404	-137,4
      43,326	   0,0249998	-137,7	    0,025202	-137,4
      43,328	   0,0250386	-139,3	   0,0251477	-136,6
     43,3299	   0,0251463	-138,2	   0,0251676	-136,1
     43,3319	   0,0251247	-137,9	   0,0250782	-137,6
     43,3338	   0,0249791	-136,4	   0,0249566	-137,9
     43,3358	   0,0249184	-136,0	   0,0249024	-137,8
     43,3377	    0,024836	-136,1	   0,0248624	-138,2
     43,3397	   0,0247042	-135,9	   0,0248479	-137,2
     43,3416	   0,0246781	-136,7	   0,0248152	-137,0
     43,3436	   0,0246114	-137,4	   0,0246881	-137,6
     43,3456	   0,0245999	-137,8	    0,024596	-136,0
     43,3475	   0,0245419	-138,0	   0,0245014	-136,9
     43,3495	   0,0244867	-136,4	   0,0245702	-136,8
     43,3514	   0,0243188	-137,1	   0,0245362	-137,3
     43,3534	   0,0242146	-136,2	   0,0244294	-138,2
     43,3553	   0,0243132	-136,6	   0,0243355	-136,6
     43,3573	   0,0243103	-135,7	   0,0244215	-137,1
     43,3592	   0,0242122	-136,2	   0,0243359	-137,2
     43,3612	   0,0241154	-136,3	   0,0242632	-137,0
     43,3631	   0,0241584	-137,1	   0,0240925	-137,6
     43,3651	    0,024092	-137,3	    0,024026	-136,2
     43,3671	   0,0239574	-136,6	   0,0239152	-137,1
      43,369	   0,0238534	-136,2	   0,0239692	-137,2
      43,371	   0,0237922	-135,7	   0,0238957	-135,9
     43,3729	   0,0237762	-135,1	   0,0239284	-136,7
     43,3749	   0,0237767	-135,6	   0,0238554	-136,2
     43,3768	   0,0237491	-135,8	   0,0238003	-135,7
     43,3788	   0,0236524	-136,3	   0,0237062	-136,8
     43,3807	   0,0236481	-136,8	   0,0236058	-136,4
     43,3827	   0,0235706	-137,1	   0,0235793	-136,5
     43,3847	   0,0235838	-136,9	   0,0235376	-137,1
     43,3866	   0,0235285	-136,1	   0,0235549	-135,5
     43,3886	   0,0234372	-135,3	   0,0234827	-137,3
     43,3905	   0,0232802	-134,7	   0,0233348	-136,0
     43,3925	   0,0232425	-134,8	   0,0232629	-135,9
     43,3944	   0,0232315	-135,5	   0,0232729	-136,3
     43,3964	   0,0232077	-136,1	   0,0231807	-135,0
     43,3983	   0,0231477	-136,9	   0,0231691	-136,8
     43,4003	   0,0231131	-137,9	   0,0231154	-135,7
     43,4022	   0,0230357	-136,1	   0,0229706	-136,6
     43,4042	   0,0229212	-136,0	   0,0229185	-136,7
     43,4062	    0,022947	-134,9	   0,0229372	-135,7
     43,4081	   0,0228966	-134,6	   0,0229892	-136,0
     43,4101	   0,0229154	-134,8	    0,022874	-136,6
      43,412	   0,0227935	-135,0	   0,0227891	-135,8
      43,414	   0,0227617	-135,5	   0,0226734	-135,8
     43,4159	   0,0226405	-136,7	   0,0225648	-135,7
     43,4179	   0,0226498	-135,9	   0,0225058	-136,1
     43,4198	   0,0226532	-136,3	   0,0225742	-135,9
     43,4218	   0,0225616	-135,4	    0,022606	-135,0
     43,4238	    0,022445	-134,8	   0,0226377	-136,0
     43,4257	   0,0223671	-134,6	   0,0225561	-135,5
     43,4277	   0,0223502	-133,3	    0,022539	-135,9
     43,4296	   0,0223734	-135,1	   0,0223187	-136,0
     43,4316	   0,0223356	-136,2	   0,0222296	-135,3
     43,4335	    0,022367	-135,5	   0,0222111	-133,8
     43,4355	   0,0222746	-135,8	   0,0222454	-135,0
     43,4374	   0,0221124	-135,6	   0,0221687	-136,1
     43,4394	   0,0220693	-135,0	   0,0220783	-136,2
     43,4413	    0,021989	-135,3	   0,0220736	-136,8
     43,4433	   0,0220531	-135,3	    0,022096	-136,0
     43,4453	   0,0220028	-134,6	   0,0220141	-135,8
     43,4472	   0,0219028	-135,1	   0,0218871	-135,3
     43,4492	   0,0218157	-134,9	     0,02189	-134,0
     43,4511	   0,0218238	-134,3	   0,0218595	-133,0
     43,4531	   0,0219039	-135,6	   0,0217875	-134,4
      43,455	   0,0218095	-134,2	   0,0216501	-135,4
      43,457	    0,021721	-134,4	   0,0216977	-135,8
     43,4589	   0,0216721	-135,2	   0,0216482	-136,0
     43,4609	   0,0215191	-135,5	   0,0215575	-135,8
     43,4629	   0,0215021	-135,1	   0,0214715	-135,8
     43,4648	   0,0214337	-135,3	   0,0213569	-134,2
     43,4668	   0,0213865	-134,4	    0,021325	-134,0
     43,4687	   0,0213637	-133,6	   0,0213545	-134,4
     43,4707	   0,0213904	-133,0	   0,0214031	-133,9
     43,4726	   0,0213286	-134,3	   0,0214165	-134,8
     43,4746	   0,0212735	-134,3	   0,0213624	-135,2
     43,4765	   0,0212482	-135,3	   0,0212612	-135,2
     43,4785	   0,0211687	-135,3	   0,0212351	-135,8
     43,4804	   0,0211496	-135,0	   0,0211296	-135,1
     43,4824	   0,0211369	-135,4	   0,0210006	-134,8
     43,4844	   0,0210639	-134,0	   0,0210148	-134,8
     43,4863	   0,0210059	-134,1	   0,0209845	-134,3
     43,4883	    0,020915	-132,9	   0,0209381	-134,9
     43,4902	   0,0208818	-133,7	   0,0208887	-134,9
     43,4922	   0,0209132	-133,8	   0,0208651	-134,6
     43,4941	   0,0208328	-134,0	   0,0208313	-133,4
     43,4961	   0,0208294	-133,5	   0,0206476	-133,8
      43,498	    0,020702	-134,2	   0,0206501	-133,7
        43,5	   0,0205552	-133,8	   0,0206758	-134,5

