X-Data [Hz]	Piezo (M - Filtered) [mV]	Phase [Deg]	Piezo (M - Filtered) [mV]	Phase [Deg]	
	002: [07-10-24 09:43]		003: [07-10-24 09:46]	
        41,5	     1,20752	-103,4	     1,25929	-106,8
      41,502	     1,19966	-101,2	     1,29308	-103,1
     41,5039	     1,22942	-104,3	     1,31993	-106,9
     41,5059	     1,26174	-107,5	      1,3084	-102,4
     41,5078	     1,27674	-101,1	     1,33514	-106,5
     41,5098	     1,30183	-105,1	      1,3164	-103,1
     41,5117	     1,27847	-102,2	     1,33474	-107,7
     41,5137	     1,28645	-103,3	     1,33183	-105,7
     41,5156	     1,29674	-104,1	      1,3137	-102,8
     41,5176	     1,32125	-106,2	     1,34238	-107,7
     41,5196	     1,31644	-106,5	     1,33529	-103,3
     41,5215	     1,31564	-105,1	     1,35412	-107,4
     41,5235	     1,33552	-107,6	      1,3431	-105,5
     41,5254	      1,2987	-101,9	     1,33343	-106,3
     41,5274	     1,33606	-105,2	     1,35324	-108,1
     41,5293	      1,3271	-106,5	      1,3409	-103,5
     41,5313	     1,33325	-104,2	     1,35476	-106,8
     41,5332	     1,33619	-108,5	     1,34443	-102,7
     41,5352	     1,31907	-101,9	     1,36043	-107,3
     41,5371	     1,34331	-104,6	     1,34273	-101,5
     41,5391	     1,31856	-101,2	     1,35036	-103,1
     41,5411	     1,33061	-101,9	     1,35414	-102,7
      41,543	     1,33901	-105,5	      1,3506	-101,8
      41,545	     1,34841	-105,0	     1,37971	-106,2
     41,5469	     1,36359	-106,0	     1,36368	-103,0
     41,5489	     1,33749	-102,8	     1,38476	-106,4
     41,5508	     1,35911	-107,7	     1,38018	-104,5
     41,5528	     1,35107	-104,3	     1,37525	-105,2
     41,5547	     1,37004	-104,8	     1,40443	-107,5
     41,5567	     1,36826	-105,6	     1,37376	-102,0
     41,5587	     1,36724	-104,2	      1,3844	-105,5
     41,5606	     1,37551	-107,5	     1,37403	-101,5
     41,5626	     1,36143	-101,3	     1,39121	-104,7
     41,5645	     1,37543	-105,0	     1,41165	-106,6
     41,5665	     1,38195	-105,9	     1,38789	-102,8
     41,5684	     1,37863	-103,9	     1,39581	-105,4
     41,5704	     1,38572	-106,2	     1,38866	-100,5
     41,5723	     1,36946	-101,4	     1,39288	-102,1
     41,5743	     1,39373	-104,9	     1,41813	-103,8
     41,5762	      1,3674	-100,0	     1,39689	-101,6
     41,5782	     1,37578	-101,0	     1,42498	-105,2
     41,5802	     1,38447	-105,0	     1,41742	-102,4
     41,5821	     1,37902	-100,9	     1,44406	-106,4
     41,5841	     1,40417	-106,3	     1,43321	-103,9
      41,586	     1,38764	-102,5	     1,41971	-105,9
      41,588	     1,41567	-106,1	     1,43777	-105,9
     41,5899	     1,39971	-104,7	     1,42373	-103,0
     41,5919	     1,42044	-104,9	     1,44952	-105,4
     41,5938	     1,43447	-106,2	     1,42911	-101,0
     41,5958	     1,39424	-100,6	     1,43797	-103,8
     41,5978	     1,40926	-104,4	     1,42878	-101,9
     41,5997	     1,39418	-100,9	     1,42475	-101,4
     41,6017	     1,42407	-101,9	     1,44839	-103,4
     41,6036	     1,42298	-103,0	     1,44344	-101,3
     41,6056	     1,40722	-100,2	     1,44431	-102,9
     41,6075	     1,43413	-105,4	     1,45581	-103,1
     41,6095	     1,41761	-102,0	     1,43679	-101,2
     41,6114	     1,45167	-106,2	     1,48401	-104,6
     41,6134	     1,44679	-104,9	     1,45874	-101,2
     41,6153	     1,44968	-102,7	     1,49106	-105,8
     41,6173	      1,4622	-105,5	     1,48808	-104,8
     41,6193	      1,4392	-101,2	     1,47802	-104,0
     41,6212	     1,45433	-104,5	     1,49976	-104,8
     41,6232	     1,43783	-100,5	     1,47852	-101,2
     41,6251	     1,45244	-100,4	     1,48866	-104,1
     41,6271	     1,47702	-104,5	      1,4692	-100,9
      41,629	     1,44008	-100,2	     1,47718	-103,1
      41,631	     1,45495	-101,8	      1,4878	-101,6
     41,6329	     1,45933	-102,7	     1,48161	-99,9
     41,6349	     1,46868	-100,9	      1,5173	-105,5
     41,6369	     1,48762	-104,0	     1,49922	-102,5
     41,6388	     1,45808	-100,7	     1,51976	-105,5
     41,6408	     1,50068	-105,7	     1,53004	-105,0
     41,6427	     1,49094	-104,9	     1,50969	-102,2
     41,6447	     1,48754	-102,4	     1,53185	-104,8
     41,6466	     1,50929	-105,2	     1,51318	-101,3
     41,6486	     1,47766	-99,0	     1,53039	-104,2
     41,6505	     1,51365	-105,7	     1,51863	-100,3
     41,6525	     1,48284	-102,6	     1,52008	-100,4
     41,6544	     1,48583	-100,4	     1,53551	-103,7
     41,6564	     1,51335	-103,1	     1,51739	-100,3
     41,6584	     1,48887	-100,2	     1,52727	-102,3
     41,6603	     1,53057	-105,2	     1,55449	-102,4
     41,6623	     1,50922	-103,2	     1,54199	-100,2
     41,6642	     1,54261	-104,3	     1,56036	-103,0
     41,6662	     1,53804	-105,7	     1,54885	-100,7
     41,6681	     1,50655	-99,0	     1,58061	-105,1
     41,6701	     1,53234	-101,3	     1,57783	-102,9
      41,672	     1,51939	-101,3	     1,56401	-102,5
      41,674	     1,52401	-99,8	     1,57752	-104,5
      41,676	     1,54566	-104,0	     1,55137	-99,1
     41,6779	     1,53494	-100,9	       1,563	-100,9
     41,6799	     1,55222	-104,5	     1,58234	-101,4
     41,6818	     1,54371	-102,3	      1,5732	-99,9
     41,6838	     1,56718	-103,1	       1,603	-104,0
     41,6857	     1,58304	-105,0	     1,59051	-100,9
     41,6877	     1,55132	-99,5	     1,60977	-103,0
     41,6896	     1,56404	-101,7	     1,61392	-102,5
     41,6916	        1,55	-99,6	     1,60053	-102,2
     41,6936	     1,56181	-98,7	     1,61257	-104,5
     41,6955	     1,57855	-104,1	     1,59561	-99,6
     41,6975	     1,56735	-102,0	     1,61231	-101,0
     41,6994	      1,5984	-103,8	     1,61832	-100,2
     41,7014	     1,58985	-102,8	     1,60085	-98,9
     41,7033	     1,59069	-101,1	     1,64029	-104,4
     41,7053	     1,59864	-103,8	     1,63332	-101,8
     41,7072	     1,58413	-98,8	     1,63365	-102,7
     41,7092	     1,61924	-103,3	     1,64911	-104,1
     41,7111	     1,61944	-104,0	     1,63416	-101,2
     41,7131	     1,60267	-99,2	     1,65296	-102,2
     41,7151	     1,61901	-101,6	     1,63326	-99,5
      41,717	     1,59352	-99,3	     1,64191	-101,0
      41,719	     1,60942	-99,8	     1,66536	-100,5
     41,7209	      1,6215	-101,8	     1,64989	-98,7
     41,7229	     1,61221	-98,4	     1,68198	-102,7
     41,7248	     1,63853	-102,8	      1,6761	-101,0
     41,7268	     1,62555	-100,7	     1,67757	-102,8
     41,7287	     1,65405	-103,4	     1,69048	-104,0
     41,7307	     1,66117	-104,3	     1,67074	-98,9
     41,7327	     1,63449	-98,6	     1,68112	-102,4
     41,7346	     1,65954	-101,1	     1,69923	-103,2
     41,7366	       1,634	-98,9	      1,6824	-99,8
     41,7385	     1,64204	-97,4	      1,7042	-103,3
     41,7405	     1,67206	-103,6	     1,68439	-98,6
     41,7424	     1,64664	-100,5	     1,71036	-103,5
     41,7444	     1,68755	-102,9	     1,71489	-100,9
     41,7463	     1,66699	-100,9	     1,70589	-100,3
     41,7483	     1,65355	-98,1	     1,72657	-102,7
     41,7502	     1,69947	-102,6	     1,73603	-101,8
     41,7522	     1,67675	-98,5	     1,73703	-102,1
     41,7542	     1,69196	-101,1	     1,75245	-102,8
     41,7561	     1,68291	-99,8	     1,72022	-98,3
     41,7581	     1,68129	-97,7	     1,74079	-100,4
       41,76	     1,70786	-102,6	     1,74073	-98,3
      41,762	     1,69558	-100,6	     1,73371	-97,7
     41,7639	     1,72489	-102,5	     1,77501	-102,8
     41,7659	     1,72981	-102,9	     1,76251	-99,9
     41,7678	     1,71678	-98,0	     1,76996	-101,1
     41,7698	     1,74262	-100,7	     1,78397	-101,3
     41,7718	     1,74712	-102,5	     1,74585	-97,9
     41,7737	     1,73199	-98,1	     1,76496	-100,5
     41,7757	      1,7548	-100,8	     1,77189	-99,3
     41,7776	     1,72857	-99,5	     1,77324	-99,3
     41,7796	     1,72943	-98,4	     1,80295	-99,6
     41,7815	     1,75782	-100,9	     1,79143	-97,5
     41,7835	     1,74486	-98,5	     1,78955	-97,5
     41,7854	     1,77026	-101,8	     1,80492	-99,6
     41,7874	     1,75347	-100,7	      1,8033	-101,6
     41,7893	     1,77371	-100,6	     1,82366	-102,7
     41,7913	     1,78527	-101,7	     1,80321	-97,7
     41,7933	     1,76574	-97,0	     1,81681	-98,0
     41,7952	     1,78119	-98,9	     1,83294	-98,4
     41,7972	     1,77026	-98,2	     1,82732	-97,1
     41,7991	     1,76831	-97,0	     1,82722	-98,0
     41,8011	     1,79143	-98,9	     1,85466	-99,5
      41,803	      1,7792	-98,7	     1,83596	-97,0
      41,805	     1,79204	-97,1	     1,87523	-101,0
     41,8069	      1,8207	-100,6	     1,86406	-99,2
     41,8089	     1,79834	-97,2	     1,86573	-99,6
     41,8109	     1,82832	-101,0	     1,87658	-100,4
     41,8128	     1,83279	-101,7	     1,86102	-97,3
     41,8148	      1,8296	-98,1	     1,87949	-98,8
     41,8167	     1,84731	-100,4	     1,87428	-98,2
     41,8187	     1,81046	-96,1	     1,87937	-97,3
     41,8206	     1,83054	-96,8	     1,91789	-99,2
     41,8226	     1,85759	-98,8	     1,90503	-96,9
     41,8245	     1,83756	-97,3	      1,9246	-101,1
     41,8265	     1,84874	-98,3	     1,93418	-100,3
     41,8284	     1,85467	-98,7	     1,92296	-98,1
     41,8304	     1,85784	-97,2	     1,93426	-100,6
     41,8324	     1,88914	-100,6	     1,95215	-100,2
     41,8343	      1,8768	-98,8	     1,92476	-96,9
     41,8363	     1,89861	-99,9	     1,94569	-100,0
     41,8382	     1,90858	-101,5	     1,93003	-96,7
     41,8402	     1,88905	-99,6	     1,94129	-97,5
     41,8421	     1,90599	-98,0	      1,9768	-98,6
     41,8441	     1,92256	-100,6	     1,96162	-97,3
      41,846	     1,89607	-94,7	     1,98281	-99,4
      41,848	     1,91316	-96,6	     1,99408	-98,6
       41,85	     1,91063	-99,3	     1,96864	-97,4
     41,8519	     1,94126	-99,1	     1,98629	-99,7
     41,8539	     1,95198	-100,8	     1,97511	-96,1
     41,8558	     1,91803	-95,3	     1,98235	-97,8
     41,8578	     1,94317	-96,3	     2,00384	-99,5
     41,8597	     1,96701	-99,0	     1,99096	-95,4
     41,8617	     1,93692	-95,9	     2,02776	-99,0
     41,8636	     1,95694	-96,7	     2,03226	-98,2
     41,8656	     1,95309	-98,4	     2,01232	-97,6
     41,8675	     1,95215	-97,0	     2,04324	-99,5
     41,8695	     1,98828	-99,6	     2,03858	-95,6
     41,8715	     1,98194	-98,6	     2,03723	-96,2
     41,8734	     1,98185	-95,5	     2,07842	-97,7
     41,8754	     2,00767	-97,5	     2,06866	-95,5
     41,8773	     1,98334	-96,5	     2,07993	-98,3
     41,8793	     1,99667	-95,9	     2,08991	-98,5
     41,8812	      2,0059	-98,1	     2,06565	-96,7
     41,8832	     2,00422	-95,5	     2,08725	-98,6
     41,8851	     2,04112	-98,3	     2,10729	-99,6
     41,8871	     2,03393	-97,6	     2,08072	-95,5
     41,8891	     2,03473	-96,4	     2,12449	-97,8
      41,891	     2,05492	-98,1	     2,12121	-95,4
      41,893	     2,03245	-95,3	     2,12405	-98,4
     41,8949	     2,04697	-95,1	     2,15383	-99,2
     41,8969	     2,06859	-97,5	     2,12177	-95,2
     41,8988	     2,05743	-95,4	     2,12947	-96,1
     41,9008	     2,08453	-97,9	      2,1473	-94,6
     41,9027	     2,08099	-98,0	      2,1358	-94,1
     41,9047	     2,06224	-96,0	     2,14309	-95,1
     41,9066	     2,10167	-98,0	     2,16718	-96,3
     41,9086	     2,11602	-99,0	     2,16044	-93,9
     41,9106	     2,08198	-93,7	     2,20332	-98,8
     41,9125	     2,10458	-95,2	      2,2062	-97,2
     41,9145	     2,11287	-95,6	     2,17303	-95,5
     41,9164	      2,1013	-93,5	     2,20118	-97,1
     41,9184	     2,14149	-97,7	     2,20788	-94,0
     41,9203	     2,13955	-97,7	     2,21017	-93,6
     41,9223	     2,14854	-95,2	     2,24051	-95,9
     41,9242	      2,1688	-97,7	     2,22623	-94,0
     41,9262	     2,13311	-92,9	     2,22511	-94,1
     41,9282	     2,15074	-92,9	     2,25849	-96,3
     41,9301	     2,17536	-96,3	     2,23892	-93,6
     41,9321	      2,1715	-94,0	     2,26062	-95,5
      41,934	     2,21067	-97,3	     2,26618	-93,4
      41,936	     2,21228	-98,2	      2,2684	-93,2
     41,9379	     2,18737	-92,8	     2,30825	-95,7
     41,9399	     2,21082	-94,3	     2,29907	-94,2
     41,9418	     2,21463	-94,7	     2,29169	-93,0
     41,9438	      2,2026	-92,9	     2,32895	-96,3
     41,9457	     2,24133	-96,8	     2,32448	-93,8
     41,9477	     2,23568	-96,6	      2,3247	-94,8
     41,9497	     2,23703	-94,1	     2,34503	-95,6
     41,9516	     2,25822	-96,0	     2,33018	-92,7
     41,9536	     2,23898	-92,5	     2,33506	-93,0
     41,9555	     2,25557	-92,3	     2,37885	-95,7
     41,9575	      2,2823	-95,3	      2,3795	-93,7
     41,9594	     2,26968	-94,0	     2,37776	-94,4
     41,9614	     2,29818	-95,4	     2,38149	-92,4
     41,9633	      2,3098	-95,9	      2,3813	-91,4
     41,9653	     2,28691	-92,3	     2,42478	-95,8
     41,9673	     2,30595	-92,6	     2,42728	-94,0
     41,9692	     2,32148	-94,3	     2,41547	-91,9
     41,9712	     2,30973	-92,4	     2,43384	-95,6
     41,9731	     2,35934	-94,2	     2,45247	-94,8
     41,9751	     2,35627	-94,8	     2,43191	-92,5
      41,977	     2,34672	-92,5	      2,4498	-94,3
      41,979	     2,37607	-94,3	     2,46301	-91,0
     41,9809	     2,35011	-92,9	     2,45685	-90,5
     41,9829	     2,35518	-91,2	     2,49961	-95,2
     41,9848	      2,3955	-93,8	      2,5067	-93,4
     41,9868	     2,38755	-93,0	     2,49773	-93,1
     41,9888	     2,40301	-91,8	     2,52612	-94,2
     41,9907	     2,42954	-93,6	     2,50773	-90,6
     41,9927	     2,40794	-90,6	     2,50818	-90,7
     41,9946	     2,43384	-92,1	     2,54984	-92,0
     41,9966	      2,4567	-93,0	     2,54486	-90,5
     41,9985	     2,42964	-90,9	     2,56297	-93,1
     42,0005	     2,44923	-89,6	     2,57932	-93,4
     42,0024	     2,47578	-92,8	     2,55587	-90,7
     42,0044	     2,46406	-91,0	     2,57502	-91,5
     42,0064	     2,50633	-92,9	     2,61621	-91,8
     42,0083	      2,5099	-94,5	     2,60579	-90,3
     42,0103	     2,48969	-90,2	     2,62405	-92,2
     42,0122	     2,52512	-91,8	     2,64759	-91,5
     42,0142	     2,53918	-93,2	     2,62676	-89,2
     42,0161	     2,51278	-89,3	     2,64988	-90,4
     42,0181	     2,53003	-89,1	     2,67099	-90,4
       42,02	      2,5526	-91,6	     2,66463	-89,4
      42,022	     2,54876	-90,0	     2,69949	-91,8
     42,0239	     2,58633	-92,9	     2,71259	-91,3
     42,0259	     2,58672	-92,7	     2,68307	-88,8
     42,0279	     2,58069	-91,4	     2,70512	-90,3
     42,0298	     2,60667	-90,8	     2,74202	-89,3
     42,0318	     2,62166	-92,6	     2,73434	-87,4
     42,0337	     2,59856	-87,8	     2,77545	-91,9
     42,0357	     2,62506	-87,9	     2,79123	-90,9
     42,0376	     2,64503	-90,8	     2,76558	-88,8
     42,0396	     2,63949	-88,8	     2,79605	-90,2
     42,0415	     2,68044	-91,9	     2,81251	-88,0
     42,0435	     2,68708	-91,4	     2,79942	-87,8
     42,0455	     2,67789	-88,3	     2,85023	-89,8
     42,0474	     2,69835	-89,7	     2,85483	-88,4
     42,0494	     2,68452	-88,2	     2,84784	-88,7
     42,0513	     2,69108	-87,0	     2,87206	-89,8
     42,0533	      2,7418	-90,6	     2,88051	-87,2
     42,0552	     2,73002	-90,1	     2,87421	-86,8
     42,0572	     2,72085	-87,9	     2,92235	-90,2
     42,0591	     2,77275	-89,7	     2,93464	-88,7
     42,0611	     2,78785	-91,3	     2,91558	-86,5
      42,063	     2,77537	-86,2	     2,94067	-87,7
      42,065	     2,79795	-87,8	     2,96631	-86,6
      42,067	     2,79753	-88,8	     2,96926	-85,2
     42,0689	     2,79275	-87,9	     3,02402	-88,8
     42,0709	     2,84162	-87,7	     3,02785	-87,5
     42,0728	     2,86423	-88,4	     3,01608	-86,7
     42,0748	     2,83481	-86,3	     3,03256	-87,5
     42,0767	      2,8623	-86,2	     3,03781	-85,0
     42,0787	     2,88811	-88,8	     3,03814	-84,2
     42,0806	     2,87798	-87,2	     3,09592	-87,0
     42,0826	     2,92104	-88,0	     3,11267	-85,5
     42,0846	     2,92716	-88,2	     3,10137	-85,4
     42,0865	      2,9139	-84,3	     3,13615	-87,1
     42,0885	     2,95077	-85,3	     3,13791	-84,3
     42,0904	     2,95178	-87,1	     3,14571	-84,7
     42,0924	     2,94801	-84,6	     3,16204	-85,5
     42,0943	     2,95811	-84,7	     3,19847	-84,7
     42,0963	     3,00617	-87,8	     3,20189	-84,6
     42,0982	     3,00284	-86,7	     3,22396	-84,8
     42,1002	     3,04203	-85,4	     3,23505	-82,7
     42,1021	     3,06092	-86,7	     3,23285	-83,2
     42,1041	     3,02843	-83,1	     3,29973	-85,7
     42,1061	     3,04805	-82,8	      3,3087	-84,8
      42,108	      3,0923	-86,2	      3,3117	-82,2
       42,11	      3,0915	-83,9	     3,33337	-84,9
     42,1119	     3,13456	-84,8	     3,35896	-84,2
     42,1139	     3,14955	-85,7	     3,34064	-81,3
     42,1158	     3,12747	-83,1	     3,36388	-82,8
     42,1178	     3,16085	-82,2	     3,40924	-82,4
     42,1197	     3,19279	-83,5	     3,41524	-81,0
     42,1217	     3,19503	-83,0	     3,43232	-82,3
     42,1237	     3,20139	-82,0	     3,46038	-82,5
     42,1256	      3,2593	-82,7	     3,45369	-80,5
     42,1276	     3,24225	-81,4	      3,4983	-83,0
     42,1295	     3,25748	-81,3	      3,5192	-82,5
     42,1315	     3,28785	-80,5	     3,53291	-82,0
     42,1334	     3,30788	-83,0	     3,53519	-80,8
     42,1354	     3,30094	-81,7	     3,56201	-81,7
     42,1373	     3,35877	-82,7	     3,57302	-78,9
     42,1393	     3,37214	-82,7	     3,58669	-78,8
     42,1413	     3,35219	-79,8	     3,65148	-81,1
     42,1432	     3,37939	-79,4	     3,66514	-79,9
     42,1452	     3,40954	-81,3	     3,66287	-79,4
     42,1471	     3,40832	-80,8	     3,69751	-80,0
     42,1491	     3,45321	-80,2	     3,70968	-78,1
      42,151	     3,47395	-81,7	     3,72105	-77,8
      42,153	      3,4571	-79,4	     3,77193	-79,4
     42,1549	     3,48644	-78,7	     3,79542	-79,3
     42,1569	     3,52017	-80,0	     3,78055	-76,3
     42,1588	     3,52468	-79,9	     3,80698	-77,5
     42,1608	     3,52422	-78,5	     3,85949	-76,3
     42,1628	     3,58864	-79,1	     3,86468	-75,4
     42,1647	     3,60355	-79,9	     3,91146	-78,3
     42,1667	     3,59179	-76,3	     3,93862	-77,3
     42,1686	     3,61368	-76,2	     3,93328	-75,4
     42,1706	     3,64853	-78,9	     3,96115	-75,1
     42,1725	     3,65541	-77,4	     4,02127	-76,0
     42,1745	     3,71357	-78,2	     4,03017	-75,3
     42,1764	     3,72851	-79,2	     4,02701	-74,6
     42,1784	     3,70056	-76,2	      4,0668	-75,3
     42,1804	     3,73526	-75,4	     4,08786	-72,5
     42,1823	     3,78181	-76,7	     4,10176	-72,3
     42,1843	     3,78898	-76,1	     4,16568	-74,0
     42,1862	     3,82559	-73,8	      4,1759	-72,8
     42,1882	     3,84983	-75,5	     4,17709	-73,3
     42,1901	     3,83192	-74,3	     4,21665	-74,3
     42,1921	      3,8576	-72,9	     4,24687	-71,1
      42,194	     3,88731	-73,1	     4,25818	-71,0
      42,196	     3,91247	-75,7	     4,31162	-72,0
     42,1979	     3,92052	-74,4	     4,34136	-71,2
     42,1999	     3,96993	-73,9	      4,3493	-69,8
     42,2019	     3,97906	-73,9	     4,36839	-70,0
     42,2038	     3,98575	-73,0	     4,41822	-70,4
     42,2058	     4,04211	-72,9	     4,41738	-68,2
     42,2077	      4,0653	-72,4	     4,44092	-68,2
     42,2097	     4,06708	-72,3	     4,50955	-69,6
     42,2116	     4,08997	-70,2	     4,53101	-69,0
     42,2136	     4,12589	-71,3	     4,53317	-68,3
     42,2155	     4,12826	-71,5	     4,56147	-68,2
     42,2175	     4,14012	-70,0	     4,62271	-67,0
     42,2195	      4,2183	-71,6	     4,62354	-66,1
     42,2214	     4,23451	-71,3	      4,6545	-66,5
     42,2234	     4,21881	-69,3	     4,69202	-63,9
     42,2253	     4,24273	-68,7	     4,69738	-63,7
     42,2273	     4,29908	-70,4	     4,71579	-64,0
     42,2292	     4,30593	-69,6	      4,7849	-64,8
     42,2312	     4,33285	-66,7	     4,80209	-62,7
     42,2331	     4,36867	-67,7	     4,81708	-63,9
     42,2351	     4,36851	-67,2	     4,85089	-63,8
      42,237	     4,38479	-65,4	     4,88863	-62,5
      42,239	     4,42383	-65,1	     4,89868	-61,1
      42,241	      4,4679	-67,6	     4,94239	-62,9
     42,2429	     4,47215	-64,8	     4,97951	-62,7
     42,2449	     4,50672	-65,5	     4,97409	-58,9
     42,2468	     4,54751	-65,6	     5,00059	-60,2
     42,2488	     4,53272	-64,7	     5,05408	-59,1
     42,2507	     4,56291	-63,9	     5,05857	-57,9
     42,2527	     4,62132	-64,0	     5,07878	-58,9
     42,2546	     4,64567	-64,6	     5,10621	-58,8
     42,2566	     4,64538	-61,6	     5,13126	-56,9
     42,2586	     4,69035	-62,0	     5,13748	-56,5
     42,2605	     4,70996	-62,1	     5,20176	-58,2
     42,2625	     4,71991	-61,4	     5,22133	-56,5
     42,2644	     4,78093	-61,6	      5,2172	-56,7
     42,2664	     4,80916	-61,4	     5,24522	-56,0
     42,2683	     4,79128	-60,5	     5,28665	-54,2
     42,2703	     4,81843	-59,6	     5,29356	-53,7
     42,2722	     4,86032	-58,9	     5,30211	-53,8
     42,2742	     4,88425	-60,2	     5,35443	-54,1
     42,2761	     4,90055	-59,7	     5,38784	-53,1
     42,2781	     4,95572	-57,6	     5,36384	-51,7
     42,2801	     4,99022	-58,3	     5,37682	-51,7
      42,282	     4,97667	-56,8	      5,4425	-51,6
      42,284	     4,99429	-55,6	     5,42754	-51,2
     42,2859	      5,0698	-56,2	     5,44629	-50,9
     42,2879	     5,08562	-56,5	     5,49956	-50,5
     42,2898	     5,07939	-53,8	     5,51697	-49,3
     42,2918	     5,10513	-53,2	     5,51005	-48,9
     42,2937	     5,14935	-55,0	     5,55821	-49,8
     42,2957	     5,15428	-54,3	     5,57781	-48,9
     42,2977	     5,20961	-53,2	     5,55218	-46,9
     42,2996	     5,24203	-53,6	     5,56617	-47,1
     42,3016	     5,22649	-52,7	      5,6248	-46,6
     42,3035	      5,2438	-51,4	     5,63638	-45,8
     42,3055	      5,3105	-51,5	     5,61836	-45,3
     42,3074	     5,32429	-51,5	      5,6768	-45,3
     42,3094	     5,31485	-48,2	     5,67376	-44,5
     42,3113	     5,34745	-47,7	     5,66705	-44,8
     42,3133	     5,38204	-49,9	     5,68459	-45,0
     42,3153	     5,38478	-48,0	     5,71237	-43,6
     42,3172	     5,38348	-47,7	     5,70759	-42,8
     42,3192	     5,46492	-47,2	     5,70642	-42,6
     42,3211	     5,47911	-47,8	     5,75895	-43,2
     42,3231	     5,46089	-45,9	     5,76309	-41,1
      42,325	     5,48508	-45,6	     5,73914	-41,1
      42,327	     5,54645	-47,2	     5,76012	-41,4
     42,3289	     5,53953	-46,6	     5,78194	-39,2
     42,3309	     5,56017	-43,5	     5,78098	-38,6
     42,3328	     5,59099	-44,2	     5,79403	-39,6
     42,3348	     5,57847	-43,4	     5,81556	-39,3
     42,3368	     5,58916	-42,7	     5,82348	-38,0
     42,3387	     5,64451	-41,6	     5,80113	-37,7
     42,3407	     5,66183	-42,4	     5,82051	-37,9
     42,3426	     5,63423	-40,0	     5,85527	-36,8
     42,3446	     5,65835	-39,5	     5,85066	-35,7
     42,3465	     5,70108	-41,2	      5,8414	-37,5
     42,3485	     5,70008	-41,0	     5,86371	-37,2
     42,3504	     5,70182	-40,7	     5,86131	-34,6
     42,3524	      5,7537	-38,7	     5,85685	-34,7
     42,3544	     5,77333	-38,6	     5,89513	-34,7
     42,3563	     5,74573	-38,6	     5,90612	-33,7
     42,3583	     5,75681	-36,7	     5,86308	-33,0
     42,3602	     5,81039	-37,6	     5,87094	-33,2
     42,3622	      5,8048	-37,1	     5,90905	-32,1
     42,3641	     5,79238	-34,5	     5,90519	-31,5
     42,3661	     5,82036	-34,6	     5,88082	-32,2
      42,368	     5,84912	-34,9	     5,88863	-31,7
       42,37	     5,82294	-34,2	       5,917	-30,7
     42,3719	     5,85212	-32,2	     5,90762	-29,7
     42,3739	     5,87069	-32,3	     5,89874	-31,4
     42,3759	     5,85489	-33,4	     5,91402	-31,0
     42,3778	     5,84409	-31,7	     5,89882	-29,2
     42,3798	       5,887	-31,8	     5,89347	-29,1
     42,3817	     5,90642	-31,0	     5,89552	-29,3
     42,3837	     5,86936	-31,2	     5,93367	-28,9
     42,3856	     5,88032	-30,4	     5,93197	-28,0
     42,3876	      5,8877	-29,1	     5,90093	-28,3
     42,3895	     5,90492	-31,4	     5,93119	-27,0
     42,3915	      5,8875	-30,3	     5,92512	-26,4
     42,3935	     5,90356	-28,2	     5,88929	-26,2
     42,3954	     5,91451	-28,5	     5,89384	-26,4
     42,3974	     5,89771	-28,6	     5,90549	-26,5
     42,3993	     5,88682	-28,5	      5,9089	-24,0
     42,4013	     5,91286	-26,2	     5,89783	-23,9
     42,4032	     5,93123	-26,8	     5,90284	-25,2
     42,4052	     5,88331	-25,0	     5,91451	-24,6
     42,4071	     5,89828	-24,7	     5,88648	-23,0
     42,4091	     5,93943	-25,2	     5,87607	-23,1
      42,411	     5,92482	-24,7	     5,90564	-23,7
      42,413	     5,90748	-24,3	     5,90934	-22,7
      42,415	     5,91707	-22,8	      5,8694	-22,1
     42,4169	     5,93095	-22,7	     5,86571	-22,1
     42,4189	      5,9126	-23,9	     5,90811	-22,7
     42,4208	      5,9079	-22,7	     5,88956	-21,0
     42,4228	     5,91738	-23,2	     5,85944	-21,2
     42,4247	     5,93051	-22,9	     5,86527	-22,2
     42,4267	     5,88296	-22,0	       5,867	-19,6
     42,4286	     5,88325	-21,8	     5,85145	-19,1
     42,4306	     5,92636	-22,1	     5,84892	-19,7
     42,4326	     5,92449	-22,0	     5,86195	-19,5
     42,4345	     5,87769	-20,3	     5,83362	-18,0
     42,4365	     5,88345	-20,1	     5,82737	-17,7
     42,4384	       5,912	-19,8	     5,81967	-17,7
     42,4404	     5,89577	-19,3	      5,8477	-17,8
     42,4423	     5,86773	-17,4	     5,83738	-16,8
     42,4443	     5,88536	-17,1	     5,79452	-17,3
     42,4462	     5,87656	-18,1	     5,79852	-17,0
     42,4482	     5,86109	-17,5	     5,81992	-16,5
     42,4501	     5,84272	-16,9	     5,80316	-15,6
     42,4521	      5,8715	-15,9	     5,79175	-17,3
     42,4541	     5,84575	-17,5	     5,80298	-17,1
      42,456	     5,82624	-16,4	     5,80296	-15,5
      42,458	     5,84716	-15,5	     5,75443	-15,6
     42,4599	     5,84863	-15,7	     5,74623	-15,3
     42,4619	     5,80946	-16,8	     5,77935	-15,0
     42,4638	      5,7947	-15,9	     5,76952	-15,0
     42,4658	     5,83788	-15,2	     5,71237	-13,5
     42,4677	     5,83354	-15,2	     5,70483	-14,8
     42,4697	     5,82183	-15,5	     5,73304	-13,2
     42,4717	     5,77689	-13,7	     5,72529	-12,7
     42,4736	     5,78884	-13,1	     5,68213	-12,5
     42,4756	     5,79519	-12,9	     5,68345	-12,6
     42,4775	     5,77358	-13,5	      5,7081	-10,6
     42,4795	     5,74573	-11,4	     5,69519	-11,0
     42,4814	     5,75188	-12,2	     5,66994	-11,2
     42,4834	     5,76354	-12,1	     5,68157	-10,6
     42,4853	     5,73851	-11,9	     5,67014	-10,2
     42,4873	      5,7328	-9,6	     5,65678	-9,9
     42,4892	     5,73833	-9,0	     5,64146	-10,7
     42,4912	     5,71106	-10,3	     5,64397	-10,6
     42,4932	     5,68714	-10,2	     5,63235	-9,3
     42,4951	     5,71299	-8,9	     5,61427	-8,3
     42,4971	     5,71419	-9,2	     5,62329	-10,5
      42,499	     5,66947	-9,8	     5,62591	-9,4
      42,501	     5,64766	-9,3	      5,5816	-8,4
     42,5029	     5,67728	-8,4	     5,56306	-8,6
     42,5049	     5,68111	-7,9	      5,5521	-8,0
     42,5068	     5,62604	-8,5	     5,59116	-8,5
     42,5088	     5,60233	-7,5	     5,53908	-7,5
     42,5108	      5,6435	-7,8	     5,52014	-7,7
     42,5127	     5,64016	-8,0	     5,55312	-6,9
     42,5147	     5,58473	-6,4	      5,5501	-6,9
     42,5166	     5,57111	-7,2	      5,5388	-6,7
     42,5186	     5,57894	-6,7	     5,48836	-6,7
     42,5205	     5,59919	-6,9	     5,49444	-6,7
     42,5225	      5,5865	-7,0	     5,50104	-5,2
     42,5244	     5,54027	-5,0	     5,47947	-5,0
     42,5264	     5,57457	-4,9	     5,45214	-5,6
     42,5283	     5,55284	-5,2	     5,45092	-5,2
     42,5303	     5,53356	-5,6	     5,45727	-3,8
     42,5323	     5,50331	-3,2	      5,4358	-3,3
     42,5342	      5,4986	-3,1	     5,41462	-4,4
     42,5362	     5,50146	-4,2	     5,41413	-4,1
     42,5381	     5,47584	-3,3	     5,39985	-2,5
     42,5401	     5,45714	-1,6	     5,38432	-2,6
      42,542	     5,46642	-2,0	     5,37145	-1,4
      42,544	     5,45922	-3,2	     5,38575	-2,9
     42,5459	     5,44415	-2,6	     5,36677	-2,3
     42,5479	     5,42812	-1,8	      5,3376	-1,2
     42,5499	     5,42327	-0,6	     5,33819	-3,1
     42,5518	     5,41024	-2,0	     5,35089	-2,2
     42,5538	      5,3779	-1,6	     5,31817	-1,3
     42,5557	     5,38742	-0,6	     5,29908	-1,5
     42,5577	      5,3927	-0,9	     5,28189	-1,3
     42,5596	     5,35303	-2,2	     5,30944	-1,5
     42,5616	     5,33803	-1,0	     5,29694	-0,3
     42,5635	     5,34638	-0,1	     5,24258	-0,7
     42,5655	     5,34611	 0,7	     5,22846	-0,7
     42,5674	     5,32232	-1,7	     5,26416	-0,3
     42,5694	     5,30491	-0,2	     5,25615	-0,0
     42,5714	      5,3028	 0,6	     5,20874	 0,3
     42,5733	     5,30136	 0,5	     5,19434	-0,3
     42,5753	      5,2703	 0,3	     5,22593	 1,3
     42,5772	     5,25767	 0,4	     5,20442	 1,0
     42,5792	     5,24357	 0,7	     5,18383	 1,4
     42,5811	     5,26748	 1,7	     5,15294	 1,4
     42,5831	     5,25992	 1,1	     5,15833	 0,6
      42,585	      5,1909	 2,6	     5,16499	 2,2
      42,587	     5,17582	 1,9	     5,13912	 2,3
      42,589	     5,20591	 2,8	     5,11231	 2,1
     42,5909	     5,19097	 2,4	     5,12478	 1,3
     42,5929	     5,16946	 2,1	     5,09848	 4,1
     42,5948	     5,12511	 3,9	     5,08287	 4,3
     42,5968	       5,125	 3,7	     5,06604	 3,6
     42,5987	     5,13491	 3,7	     5,07023	 3,2
     42,6007	     5,12214	 3,2	     5,05287	 5,1
     42,6026	     5,08125	 5,4	     5,04024	 5,2
     42,6046	      5,0789	 4,9	     5,02161	 3,9
     42,6065	     5,09556	 5,2	     5,01622	 4,4
     42,6085	      5,0752	 4,6	     5,01771	 4,7
     42,6105	     5,04891	 6,4	     4,99136	 6,0
     42,6124	     5,04529	 6,5	     4,96472	 5,9
     42,6144	     5,04607	 6,0	     4,96183	 4,3
     42,6163	     5,02776	 5,8	     4,96867	 6,9
     42,6183	     4,98992	 6,6	     4,93617	 6,4
     42,6202	     4,98844	 8,1	     4,92015	 7,5
     42,6222	      4,9956	 5,9	     4,91185	 6,3
     42,6241	     4,97163	 6,7	     4,91898	 7,9
     42,6261	     4,94467	 7,1	     4,90317	 7,7
     42,6281	     4,95913	 7,8	     4,86787	 5,9
       42,63	     4,95394	 8,7	     4,86943	 5,7
      42,632	     4,92335	 7,7	      4,8834	 7,5
     42,6339	     4,90694	 7,5	     4,86833	 7,4
     42,6359	     4,90182	 8,9	      4,8433	 9,3
     42,6378	     4,90523	 9,3	     4,82655	 8,0
     42,6398	     4,88428	 8,0	     4,82259	 7,3
     42,6417	     4,86391	 8,2	     4,82856	 8,4
     42,6437	     4,85294	 9,4	     4,80703	 9,1
     42,6456	     4,85734	 9,9	      4,7678	 8,3
     42,6476	     4,83167	 8,1	     4,76673	 8,8
     42,6496	     4,80819	 8,4	     4,78565	 9,3
     42,6515	      4,7893	 9,1	     4,76803	 9,7
     42,6535	     4,80818	 9,9	     4,71812	 8,3
     42,6554	     4,80359	10,0	      4,7079	 9,0
     42,6574	     4,74411	 9,3	     4,73312	 8,7
     42,6593	       4,736	 9,2	     4,71107	 9,3
     42,6613	     4,76337	10,3	     4,66867	 9,0
     42,6632	     4,75715	10,7	     4,65888	 8,7
     42,6652	      4,7511	10,9	     4,69081	 9,2
     42,6672	     4,68611	10,1	     4,68106	10,9
     42,6691	      4,7044	11,2	      4,6274	10,3
     42,6711	     4,69708	11,2	      4,6123	10,3
      42,673	     4,67349	10,7	     4,64287	10,2
      42,675	     4,65675	10,5	     4,62442	10,7
     42,6769	     4,63639	11,9	     4,61128	11,6
     42,6789	     4,63651	12,0	     4,57584	10,5
     42,6808	     4,63831	10,9	     4,56201	10,9
     42,6828	     4,61241	10,9	     4,58474	12,0
     42,6847	     4,59816	12,3	     4,58118	11,9
     42,6867	     4,58841	12,5	     4,53022	12,1
     42,6887	     4,58294	13,7	     4,52554	12,8
     42,6906	     4,57807	12,0	     4,55347	11,8
     42,6926	     4,56013	12,8	     4,53847	12,4
     42,6945	     4,53528	13,3	     4,48818	12,2
     42,6965	     4,53382	13,3	     4,46697	12,9
     42,6984	     4,52142	12,3	     4,49139	12,7
     42,7004	     4,50759	13,2	     4,48092	13,0
     42,7023	     4,49188	13,3	     4,43086	13,1
     42,7043	     4,47187	14,5	     4,41702	13,5
     42,7063	     4,48225	13,5	     4,44061	12,6
     42,7082	     4,47753	14,2	     4,42659	13,2
     42,7102	     4,41117	13,9	     4,39559	14,2
     42,7121	     4,40658	15,2	     4,37935	14,2
     42,7141	     4,43228	14,9	     4,38324	13,5
      42,716	      4,4343	15,2	     4,38678	14,2
      42,718	     4,38245	13,9	     4,38792	14,4
     42,7199	     4,36731	15,1	     4,34095	14,9
     42,7219	     4,38583	15,3	      4,3277	15,3
     42,7239	     4,38807	15,9	     4,33913	14,2
     42,7258	     4,35892	15,3	     4,33322	15,4
     42,7278	     4,33971	14,9	     4,32182	16,0
     42,7297	     4,31471	15,8	     4,27556	15,1
     42,7317	     4,32059	16,9	     4,26382	14,2
     42,7336	     4,30648	16,3	     4,29039	15,4
     42,7356	     4,29488	15,7	     4,27914	16,0
     42,7375	     4,25549	16,7	     4,22393	16,7
     42,7395	     4,25933	17,5	     4,21002	16,0
     42,7414	      4,2482	17,5	     4,23376	16,1
     42,7434	     4,26222	16,3	     4,22368	16,7
     42,7454	     4,26412	17,0	     4,19272	17,1
     42,7473	     4,20405	18,1	     4,16885	16,8
     42,7493	     4,20091	18,4	     4,18284	16,5
     42,7512	     4,22534	17,4	     4,18415	16,1
     42,7532	     4,21785	17,6	     4,17139	18,2
     42,7551	     4,15199	18,0	     4,15823	17,1
     42,7571	     4,14772	18,4	     4,13927	17,8
      42,759	      4,1824	18,2	     4,14029	16,8
      42,761	     4,17579	19,1	     4,15583	18,8
      42,763	      4,1153	18,3	     4,12701	17,4
     42,7649	     4,10402	18,5	     4,08276	17,6
     42,7669	     4,07991	19,8	      4,0759	17,9
     42,7688	     4,11292	18,9	     4,05993	18,3
     42,7708	     4,11334	20,0	     4,08803	18,0
     42,7727	     4,07154	18,6	      4,0781	19,1
     42,7747	     4,05635	20,1	     4,02951	18,4
     42,7766	     4,04047	20,7	     4,01996	18,7
     42,7786	       4,044	21,1	     4,04464	18,1
     42,7805	     4,05428	20,4	     4,04067	19,2
     42,7825	     4,03983	20,5	     3,98918	18,9
     42,7845	     3,99627	20,7	     3,97514	19,7
     42,7864	      3,9935	22,7	     3,98969	19,2
     42,7884	     4,03324	20,3	     3,99917	19,9
     42,7903	     4,00923	21,7	     3,96035	20,1
     42,7923	     3,94907	21,2	     3,93086	20,2
     42,7942	     3,93281	21,2	     3,94557	19,2
     42,7962	     3,95053	21,5	     3,93566	20,1
     42,7981	      3,9428	22,2	     3,92728	20,3
     42,8001	     3,92979	21,5	     3,90814	20,7
     42,8021	     3,90061	21,2	      3,8737	20,2
      42,804	     3,87412	22,3	     3,86981	20,7
      42,806	     3,86438	22,9	     3,89825	21,0
     42,8079	     3,90054	22,9	     3,89029	21,2
     42,8099	      3,8917	22,4	     3,87831	22,2
     42,8118	     3,82859	22,3	     3,82432	21,5
     42,8138	     3,81715	23,5	     3,82137	22,2
     42,8157	     3,85155	22,6	     3,84465	21,9
     42,8177	     3,83498	23,3	     3,83971	21,9
     42,8196	     3,80467	22,6	     3,78386	22,6
     42,8216	     3,78824	22,1	     3,77726	22,9
     42,8236	     3,77161	23,6	     3,78353	22,2
     42,8255	      3,7719	24,0	     3,78235	22,9
     42,8275	     3,78934	24,1	     3,75955	22,6
     42,8294	     3,78012	22,2	     3,74405	23,7
     42,8314	     3,72345	23,3	     3,73303	23,0
     42,8333	     3,71959	23,8	     3,73297	23,1
     42,8353	     3,75806	24,6	     3,73497	24,2
     42,8372	     3,75416	24,0	     3,73025	23,7
     42,8392	     3,74075	23,0	     3,67799	23,8
     42,8412	     3,67909	24,0	     3,67745	24,1
     42,8431	      3,6572	24,0	     3,66843	24,1
     42,8451	     3,68496	24,6	     3,69018	24,6
      42,847	     3,69203	23,6	     3,68517	24,4
      42,849	     3,69596	24,1	     3,63441	24,2
     42,8509	     3,64014	23,4	     3,62742	24,4
     42,8529	     3,62919	24,2	     3,65856	24,4
     42,8548	     3,63117	24,7	      3,6564	24,3
     42,8568	     3,62528	25,6	     3,61895	25,6
     42,8587	      3,6464	24,5	      3,5992	24,4
     42,8607	     3,58156	24,6	     3,60369	24,9
     42,8627	     3,57202	25,7	     3,59928	24,4
     42,8646	     3,59413	25,1	     3,59557	23,9
     42,8666	     3,58887	26,7	     3,57761	25,2
     42,8685	     3,58611	26,5	     3,56783	24,8
     42,8705	     3,53762	25,1	     3,53629	24,9
     42,8724	     3,52873	26,3	     3,52861	24,5
     42,8744	     3,53662	26,4	     3,55723	25,1
     42,8763	     3,52729	27,2	     3,54085	25,2
     42,8783	     3,53796	26,0	     3,49133	25,5
     42,8803	     3,51761	26,6	     3,48162	25,7
     42,8822	     3,47773	27,0	     3,49535	25,0
     42,8842	     3,47885	26,2	     3,49339	25,6
     42,8861	     3,51176	25,8	     3,48038	26,2
     42,8881	     3,50612	27,7	     3,46859	27,0
       42,89	      3,4889	27,5	     3,43901	25,1
      42,892	     3,42981	27,8	     3,43202	26,6
     42,8939	      3,4166	27,8	     3,45739	26,1
     42,8959	     3,41857	28,2	     3,44799	26,9
     42,8979	      3,4325	27,0	     3,38863	26,9
     42,8998	      3,4235	27,2	     3,38913	27,7
     42,9018	     3,41186	28,0	     3,40925	26,0
     42,9037	      3,3587	28,2	     3,40624	26,9
     42,9057	     3,35996	28,1	     3,37699	27,3
     42,9076	     3,39251	27,7	     3,36367	28,1
     42,9096	     3,38688	27,6	     3,35893	28,1
     42,9115	     3,35115	27,5	     3,34565	28,0
     42,9135	     3,33733	27,9	     3,36907	27,3
     42,9154	     3,33552	28,8	     3,36317	28,3
     42,9174	     3,33204	28,3	      3,3063	28,3
     42,9194	     3,35099	27,7	     3,30289	28,8
     42,9213	     3,34248	28,4	     3,30545	27,8
     42,9233	     3,27026	29,0	     3,30394	28,0
     42,9252	     3,25816	28,9	     3,31147	27,8
     42,9272	     3,25917	29,0	     3,28264	28,9
     42,9291	     3,29669	30,3	     3,27205	28,4
     42,9311	      3,2798	29,2	     3,26473	28,2
      42,933	     3,26879	29,2	     3,24977	27,9
      42,935	       3,255	29,1	     3,27625	28,6
      42,937	     3,22116	30,3	     3,25591	28,4
     42,9389	     3,20876	30,1	     3,20525	28,4
     42,9409	     3,24878	30,3	      3,1986	29,1
     42,9428	     3,23286	29,9	     3,22102	28,4
     42,9448	     3,18691	30,4	     3,21314	28,3
     42,9467	     3,17466	29,5	     3,19865	29,5
     42,9487	     3,18381	30,8	      3,1855	29,7
     42,9506	     3,18248	30,2	     3,16133	28,7
     42,9526	     3,18738	29,6	     3,15544	29,2
     42,9545	     3,18706	29,4	     3,18969	29,2
     42,9565	      3,1233	30,1	      3,1807	29,5
     42,9585	     3,11432	29,2	     3,13291	30,7
     42,9604	     3,14535	30,6	     3,11888	30,7
     42,9624	     3,13789	30,7	     3,11674	31,0
     42,9643	      3,1176	29,9	      3,1225	30,3
     42,9663	     3,10585	29,6	     3,12433	30,2
     42,9682	     3,09134	30,6	     3,11399	30,9
     42,9702	     3,08274	31,9	     3,09731	31,3
     42,9721	     3,07618	32,0	     3,05828	30,7
     42,9741	     3,11611	31,1	     3,06249	31,5
     42,9761	     3,11226	31,8	     3,09791	31,0
      42,978	     3,05235	31,2	     3,09073	30,2
       42,98	      3,0383	32,3	     3,06685	31,0
     42,9819	     3,05659	32,4	     3,05324	31,3
     42,9839	     3,05274	32,2	     3,03304	30,5
     42,9858	     3,04667	31,1	      3,0269	30,5
     42,9878	     3,03345	31,9	     3,05522	31,4
     42,9897	     2,97882	32,6	      3,0395	30,5
     42,9917	     2,97215	32,3	     3,01866	31,0
     42,9936	     3,00761	32,5	     2,97249	31,0
     42,9956	     3,00369	32,2	     2,95896	31,6
     42,9976	     3,00517	32,0	     2,99072	30,7
     42,9995	     2,96839	31,8	      2,9933	31,4
     43,0015	      2,9614	30,8	     2,96155	32,1
     43,0034	     2,93618	32,2	     2,94455	32,1
     43,0054	     2,93766	33,3	     2,92909	32,4
     43,0073	     2,97041	31,6	     2,94479	31,8
     43,0093	     2,96881	32,7	      2,9448	32,0
     43,0112	     2,92266	32,6	     2,95101	32,3
     43,0132	     2,91176	32,8	     2,92517	33,4
     43,0152	      2,8991	34,2	     2,91866	33,0
     43,0171	      2,8862	34,2	     2,89173	32,9
     43,0191	      2,9176	32,9	     2,88524	32,6
      43,021	     2,91487	33,0	     2,92412	32,3
      43,023	     2,85789	33,5	     2,91364	31,9
     43,0249	     2,84977	34,1	     2,89188	33,1
     43,0269	     2,86507	33,9	     2,85541	33,5
     43,0288	     2,86175	34,3	     2,84984	32,0
     43,0308	      2,8797	33,6	     2,88318	32,2
     43,0327	     2,86878	32,9	     2,86754	31,9
     43,0347	     2,81979	33,9	     2,85995	32,7
     43,0367	     2,81285	33,0	     2,82019	33,8
     43,0386	     2,78868	33,2	     2,81323	34,1
     43,0406	      2,7982	34,0	     2,81572	32,0
     43,0425	     2,83869	33,6	       2,805	33,5
     43,0445	     2,83325	34,0	     2,83131	33,6
     43,0464	     2,79078	33,4	     2,82636	33,7
     43,0484	     2,77833	33,7	     2,77842	34,1
     43,0503	     2,76346	34,2	     2,77419	34,9
     43,0523	      2,7591	35,9	     2,78462	34,2
     43,0543	     2,79736	34,4	     2,78441	34,0
     43,0562	     2,79057	34,7	     2,76819	32,8
     43,0582	     2,73727	34,9	     2,76516	34,5
     43,0601	     2,73158	34,2	     2,76074	34,1
     43,0621	      2,7202	35,8	     2,71825	34,4
      43,064	      2,7114	34,9	     2,71283	33,7
      43,066	     2,74423	34,7	     2,73386	33,7
     43,0679	     2,74444	34,0	     2,73954	34,5
     43,0699	     2,69526	34,5	     2,73384	33,7
     43,0718	     2,69466	33,9	     2,67982	34,5
     43,0738	     2,68674	35,7	     2,67218	35,1
     43,0758	     2,68239	35,9	     2,67298	35,0
     43,0777	     2,70998	34,2	     2,70149	34,3
     43,0797	     2,70757	35,5	     2,69502	34,5
     43,0816	     2,66527	34,4	      2,6913	36,5
     43,0836	     2,66016	35,3	     2,68643	35,7
     43,0855	     2,62662	35,8	     2,63349	36,2
     43,0875	     2,62338	36,4	     2,62608	35,4
     43,0894	     2,66494	36,5	     2,65248	35,3
     43,0914	     2,65639	36,7	     2,64805	34,5
     43,0934	     2,64727	35,4	     2,64949	36,1
     43,0953	   0,0480674	-64,9	      2,6469	35,5
     43,0973	      2,6661	32,1	     2,60723	35,2
     43,0992	     2,70347	34,1	     2,59327	35,6
     43,1012	     2,72579	31,9	     2,62807	33,9
     43,1031	     2,76512	34,2	     2,61336	34,7
     43,1051	     2,73736	36,1	     2,60133	35,4
      43,107	     2,68767	36,8	     2,59185	35,5
      43,109	     2,57627	37,5	     2,57704	36,5
     43,1109	     2,54517	37,0	     2,54462	35,9
     43,1129	     2,54945	38,0	     2,54607	36,6
     43,1149	     2,54019	37,2	     2,58924	35,5
     43,1168	     2,56215	36,1	     2,58789	36,3
     43,1188	      2,5514	36,4	     2,54954	36,6
     43,1207	      2,5151	37,1	     2,55429	36,7
     43,1227	     2,51424	37,0	     2,51171	36,9
     43,1246	     2,50699	36,3	     2,50508	36,1
     43,1266	     2,52574	36,5	     2,54133	36,3
     43,1285	     2,52193	37,2	     2,53626	35,2
     43,1305	     2,53171	35,5	     2,52099	36,5
     43,1325	     2,53406	35,3	     2,51362	36,6
     43,1344	       2,489	36,2	     2,47257	36,4
     43,1364	     2,48222	36,9	     2,46871	37,3
     43,1383	     2,48257	37,6	     2,50724	35,7
     43,1403	     2,47719	38,1	     2,50356	36,7
     43,1422	      2,5058	36,6	     2,48509	37,5
     43,1442	      2,5001	37,6	     2,48284	37,7
     43,1461	     2,45177	37,8	     2,43802	38,1
     43,1481	     2,44557	36,8	     2,43651	38,5
       43,15	     2,43131	38,6	     2,45217	36,8
      43,152	     2,41964	38,1	     2,44119	36,7
      43,154	     2,45822	37,9	     2,46348	37,2
     43,1559	     2,44756	37,5	     2,46107	37,1
     43,1579	     2,44965	36,6	     2,41313	38,1
     43,1598	     2,41985	36,9	      2,3993	37,3
     43,1618	     2,41401	36,7	     2,39859	38,7
     43,1637	     2,38772	37,8	     2,41229	36,5
     43,1657	     2,38282	38,6	     2,40287	37,0
     43,1676	     2,41828	38,6	     2,41711	37,6
     43,1696	     2,40405	39,2	      2,4148	38,5
     43,1716	     2,40358	38,6	     2,36484	39,2
     43,1735	     2,35844	38,7	       2,361	38,6
     43,1755	     2,35475	38,3	      2,3746	37,5
     43,1774	     2,35819	39,7	      2,3669	37,4
     43,1794	     2,35397	39,0	     2,39592	37,9
     43,1813	      2,3898	38,0	     2,39426	37,0
     43,1833	     2,37923	37,7	     2,36314	38,2
     43,1852	     2,35567	37,3	     2,35381	38,4
     43,1872	     2,36283	37,4	     2,32027	37,3
     43,1891	     2,31923	39,0	     2,30691	38,4
     43,1911	     2,30932	39,4	     2,34817	37,8
     43,1931	     2,34459	39,2	      2,3399	38,5
      43,195	      2,3294	39,6	     2,33537	38,2
      43,197	     2,33526	39,0	     2,32593	38,8
     43,1989	     2,33867	38,4	     2,28141	39,7
     43,2009	     2,28315	39,4	     2,27965	39,5
     43,2028	     2,27935	39,1	     2,29698	38,9
     43,2048	     2,27002	39,4	     2,28516	38,3
     43,2067	     2,25778	38,8	      2,3187	38,4
     43,2087	     2,29784	38,8	     2,31471	37,7
     43,2107	     2,29631	39,0	     2,28418	39,1
     43,2126	     2,27774	38,7	     2,28006	39,1
     43,2146	     2,27714	38,4	      2,2447	39,5
     43,2165	     2,27069	39,5	     2,23319	39,7
     43,2185	     2,22364	40,7	     2,25919	39,1
     43,2204	     2,22091	40,0	     2,25618	37,9
     43,2224	     2,24854	40,1	     2,24922	38,9
     43,2243	     2,23843	39,9	     2,26198	40,0
     43,2263	     2,26785	39,0	     2,22037	40,4
     43,2282	     2,22179	39,3	     2,21866	39,9
     43,2302	     2,22046	39,1	     2,22626	39,0
     43,2322	     2,22048	39,3	     2,21631	38,7
     43,2341	     2,18928	40,1	     2,24103	38,3
     43,2361	     2,18723	40,8	     2,22651	38,8
      43,238	      2,2278	40,3	     2,20395	40,1
       43,24	      2,2228	40,2	     2,20554	40,3
     43,2419	     2,21303	38,9	     2,16983	39,6
     43,2439	     2,21269	39,6	      2,1749	40,4
     43,2458	      2,1677	40,8	     2,16561	40,8
     43,2478	       2,164	39,9	      2,1908	39,7
     43,2498	     2,17005	40,9	     2,17767	39,1
     43,2517	     2,15342	40,6	     2,19405	39,1
     43,2537	      2,1878	39,6	     2,19061	39,0
     43,2556	     2,19034	39,4	     2,15347	40,8
     43,2576	     2,15788	39,3	     2,13704	39,8
     43,2595	     2,15875	40,3	     2,13411	39,6
     43,2615	     2,15099	39,6	     2,12734	40,8
     43,2634	     2,11252	41,5	     2,16956	39,9
     43,2654	     2,11073	41,4	      2,1641	39,8
     43,2673	     2,14221	41,0	     2,13748	41,2
     43,2693	     2,13341	40,3	     2,14418	41,3
     43,2713	     2,14363	39,6	     2,11099	41,3
     43,2732	     2,13986	39,6	     2,10178	41,2
     43,2752	     2,08871	40,2	     2,11327	39,4
     43,2771	     2,09316	40,8	     2,09235	39,4
     43,2791	     2,09492	41,4	     2,12164	39,9
      43,281	     2,08966	42,4	     2,12804	40,0
      43,283	     2,07887	42,1	     2,13684	40,7
     43,2849	     2,10982	41,4	     2,09133	40,5
     43,2869	     2,10819	40,3	     2,08831	42,1
     43,2889	     2,08612	40,9	     2,05491	41,4
     43,2908	     2,09407	40,3	     2,05515	41,5
     43,2928	     2,04605	41,8	     2,08567	39,7
     43,2947	     2,04698	41,3	     2,09543	41,1
     43,2967	     2,05835	41,2	     2,10016	40,2
     43,2986	     2,04718	42,6	     2,05023	41,0
     43,3006	     2,08395	40,5	     2,04081	41,0
     43,3025	     2,07428	41,8	     2,04609	42,0
     43,3045	     2,06676	41,4	     2,02407	41,5
     43,3064	     2,03235	40,7	     2,01382	41,7
     43,3084	     2,03648	39,7	      2,0511	41,9
     43,3104	     1,99646	41,4	      2,0594	40,3
     43,3123	     1,99517	41,1	     2,04102	41,8
     43,3143	     2,02117	41,8	     2,04141	41,4
     43,3162	     2,01386	42,6	     1,99483	42,4
     43,3182	     2,04977	41,4	     1,99593	42,0
     43,3201	     2,03625	42,5	     1,99208	40,3
     43,3221	     2,01393	41,8	      1,9858	41,9
      43,324	     2,00763	41,2	     2,01765	40,6
      43,326	     1,95423	43,0	     2,01013	40,4
      43,328	     1,96269	41,1	      2,0142	42,2
     43,3299	     1,98594	42,0	     2,01808	42,5
     43,3319	     1,98355	42,5	     1,96379	42,9
     43,3338	       2,006	41,6	     1,96491	42,6
     43,3358	     2,00178	42,6	     1,96652	41,2
     43,3377	     1,98584	41,4	     1,95437	41,3
     43,3397	     1,97958	42,0	     1,99161	40,5
     43,3416	     1,93775	43,1	     1,98331	40,9
     43,3436	     1,93569	41,9	     1,97756	41,5
     43,3456	     1,93475	42,8	     1,97886	42,4
     43,3475	     1,92757	42,8	     1,93235	43,6
     43,3495	     1,96348	42,1	      1,9463	43,5
     43,3514	     1,95492	41,8	      1,9206	42,8
     43,3534	     1,94531	42,8	      1,9118	42,4
     43,3553	     1,95293	41,2	     1,94128	41,3
     43,3573	     1,95707	41,8	      1,9359	41,1
     43,3592	     1,90426	43,2	      1,9557	41,0
     43,3612	     1,90123	43,1	     1,95467	41,1
     43,3631	     1,90896	43,4	     1,90719	42,8
     43,3651	     1,89609	43,5	     1,91113	44,1
     43,3671	     1,92714	42,1	     1,87863	43,0
      43,369	     1,91598	42,8	     1,88284	43,4
      43,371	     1,92345	41,9	     1,90051	42,1
     43,3729	        1,93	42,8	     1,89368	42,1
     43,3749	     1,89281	43,0	     1,92638	41,5
     43,3768	     1,89786	42,3	     1,91531	41,8
     43,3788	     1,85832	44,2	     1,89807	42,6
     43,3807	     1,85583	43,2	      1,8996	42,6
     43,3827	     1,86728	43,3	     1,85301	44,0
     43,3847	     1,85986	43,5	     1,85548	43,6
     43,3866	      1,8992	42,2	     1,86857	43,4
     43,3886	     1,89206	43,3	     1,85794	42,1
     43,3905	     1,87336	43,0	     1,88542	41,3
     43,3925	      1,8716	42,8	     1,87265	41,8
     43,3944	     1,87533	42,1	     1,87526	42,2
     43,3964	      1,8348	43,0	     1,87842	43,1
     43,3983	     1,82265	44,1	     1,83704	43,4
     43,4003	      1,8206	42,6	     1,85102	44,1
     43,4022	      1,8448	43,4	     1,80694	43,9
     43,4042	     1,83634	44,0	     1,80499	43,9
     43,4062	     1,86483	42,7	      1,8245	43,0
     43,4081	       1,862	43,3	     1,81813	42,7
     43,4101	     1,85602	43,4	     1,85856	41,2
      43,412	      1,8223	42,9	     1,84268	41,6
      43,414	     1,82899	42,4	     1,81918	43,7
     43,4159	     1,78591	43,4	     1,81915	43,6
     43,4179	      1,7912	43,4	      1,7769	44,7
     43,4198	      1,7966	44,1	     1,79217	44,5
     43,4218	      1,7844	45,1	     1,78951	44,3
     43,4238	     1,81733	44,0	     1,78989	43,8
     43,4257	     1,80215	45,1	     1,82318	42,2
     43,4277	     1,81436	44,2	     1,81189	41,8
     43,4296	     1,81404	42,7	     1,79581	42,0
     43,4316	     1,77011	42,8	     1,79783	43,2
     43,4335	     1,78791	42,9	     1,80903	43,9
     43,4355	      1,7583	44,5	      1,7825	45,2
     43,4374	     1,75024	44,7	     1,78001	43,5
     43,4394	     1,77193	45,0	     1,74717	44,5
     43,4413	     1,75312	45,0	     1,74266	43,8
     43,4433	     1,75175	45,4	     1,75035	43,0
     43,4453	     1,78144	43,9	     1,73866	44,0
     43,4472	     1,77321	43,9	     1,77223	42,3
     43,4492	     1,76639	42,7	     1,76616	43,6
     43,4511	     1,78012	43,0	     1,78168	44,9
     43,4531	     1,74485	43,4	     1,77609	43,4
      43,455	     1,75224	44,2	     1,72971	44,9
      43,457	     1,71933	45,8	     1,74172	44,0
     43,4589	     1,71497	44,7	     1,71029	44,4
     43,4609	     1,71395	45,1	     1,70582	45,1
     43,4629	     1,70551	45,6	     1,71004	43,0
     43,4648	     1,74322	43,7	     1,69782	45,3
     43,4668	     1,73096	44,8	     1,73013	43,6
     43,4687	     1,74209	43,7	     1,72549	43,3
     43,4707	     1,74825	44,3	     1,75433	43,7
     43,4726	     1,71058	44,4	     1,74826	42,3
     43,4746	     1,71369	43,9	      1,7201	44,7
     43,4765	     1,67983	45,0	     1,71777	44,4
     43,4785	     1,67897	44,4	     1,68183	44,9
     43,4804	     1,68946	45,3	     1,68095	45,7
     43,4824	     1,68114	45,3	     1,67318	44,6
     43,4844	     1,71701	44,7	     1,67173	45,0
     43,4863	     1,70504	45,3	     1,70558	42,9
     43,4883	     1,71984	44,4	     1,69226	43,0
     43,4902	     1,70736	44,0	     1,67801	43,6
     43,4922	     1,71452	43,9	     1,70576	43,2
     43,4941	     1,68495	43,5	     1,71024	44,0
     43,4961	     1,70298	43,7	     1,67804	45,5
      43,498	     1,65613	44,9	     1,68769	44,9
        43,5	     1,69839	43,8	     1,67361	45,9

