X-Data [Hz]	Laser (M - Filtered) [m/s]	Phase [Deg]	Laser (M - Filtered) [m/s]	Phase [Deg]	
	002: [07-09-24 09:01]		003: [07-09-24 09:04]	
        40,5	   0,0355173	71,1	   0,0395531	70,9
     40,5029	   0,0370265	70,9	   0,0395681	70,7
     40,5059	   0,0377105	70,7	   0,0397416	70,7
     40,5088	   0,0385897	70,6	   0,0396517	70,6
     40,5117	   0,0389404	70,8	   0,0397836	70,8
     40,5147	   0,0391975	70,6	   0,0393622	70,8
     40,5176	   0,0394244	70,3	   0,0398923	70,7
     40,5205	   0,0396544	70,7	    0,039746	70,8
     40,5235	     0,03966	70,6	   0,0398933	70,6
     40,5264	   0,0397151	70,8	   0,0400741	70,8
     40,5293	   0,0398336	71,1	   0,0397958	70,9
     40,5323	   0,0398882	70,8	    0,040051	70,7
     40,5352	   0,0398877	70,6	   0,0399573	70,6
     40,5381	   0,0399128	70,9	   0,0396867	71,1
     40,5411	   0,0400505	71,0	   0,0398561	71,0
      40,544	   0,0400491	70,7	   0,0401088	70,7
     40,5469	   0,0400178	70,9	   0,0403027	71,0
     40,5499	    0,040131	70,7	   0,0402843	70,5
     40,5528	   0,0400405	70,6	   0,0402654	71,0
     40,5557	   0,0402845	70,9	   0,0404264	70,7
     40,5587	    0,040218	70,9	   0,0404915	70,7
     40,5616	   0,0403095	70,8	   0,0403768	71,1
     40,5645	   0,0403664	71,0	   0,0405618	71,0
     40,5674	   0,0404032	71,0	   0,0405364	70,8
     40,5704	   0,0403041	70,8	   0,0405839	70,9
     40,5733	   0,0405688	71,2	   0,0406758	71,4
     40,5762	   0,0404834	70,7	   0,0406889	71,0
     40,5792	   0,0404948	71,0	   0,0407906	71,0
     40,5821	    0,040671	71,1	   0,0407572	71,4
      40,585	   0,0406743	70,8	   0,0407398	70,7
      40,588	   0,0406257	70,8	   0,0410023	71,2
     40,5909	   0,0408342	71,0	   0,0408476	71,3
     40,5938	   0,0407244	71,0	   0,0409462	70,9
     40,5968	   0,0408213	70,7	   0,0410456	71,0
     40,5997	   0,0409233	71,1	   0,0409895	71,3
     40,6026	   0,0409124	70,7	    0,040857	71,1
     40,6056	   0,0408826	70,8	   0,0411801	71,2
     40,6085	   0,0410617	71,0	   0,0411391	71,5
     40,6114	   0,0410777	71,4	   0,0411852	71,0
     40,6144	   0,0411901	70,7	    0,041394	71,2
     40,6173	   0,0410427	71,1	   0,0413418	71,1
     40,6202	   0,0412559	71,0	   0,0414119	70,9
     40,6232	   0,0412202	71,0	   0,0414962	71,4
     40,6261	   0,0409986	71,1	    0,041456	70,9
      40,629	   0,0412262	71,1	   0,0415369	71,3
      40,632	   0,0413088	71,0	   0,0415768	71,1
     40,6349	   0,0414599	71,1	   0,0417332	70,9
     40,6378	   0,0414415	71,2	   0,0416885	71,4
     40,6408	   0,0416006	71,0	    0,041743	71,0
     40,6437	   0,0415733	71,1	   0,0417098	71,2
     40,6466	   0,0416388	71,0	   0,0418616	71,4
     40,6496	   0,0416079	71,2	   0,0418607	71,2
     40,6525	   0,0417124	71,1	   0,0419489	70,8
     40,6554	   0,0417767	71,1	   0,0419411	71,3
     40,6584	   0,0417847	71,0	   0,0419768	71,0
     40,6613	   0,0418414	71,1	   0,0420506	71,0
     40,6642	   0,0418244	70,7	   0,0420964	71,4
     40,6672	   0,0419191	71,1	   0,0421897	71,0
     40,6701	   0,0420184	71,0	    0,042255	71,1
      40,673	   0,0420422	70,9	   0,0422515	71,2
      40,676	   0,0420921	71,4	   0,0423081	70,8
     40,6789	   0,0421992	71,0	   0,0424505	71,5
     40,6818	   0,0421374	70,8	    0,042365	71,2
     40,6847	   0,0421676	71,3	   0,0424403	71,1
     40,6877	   0,0423153	70,7	   0,0425958	71,4
     40,6906	   0,0423477	71,0	   0,0425769	70,9
     40,6936	   0,0423778	71,1	   0,0426835	71,3
     40,6965	   0,0426032	71,0	     0,04263	71,7
     40,6994	   0,0423813	70,9	   0,0427059	71,0
     40,7023	   0,0425173	71,2	   0,0428084	71,4
     40,7053	    0,042689	70,9	   0,0427779	71,5
     40,7082	   0,0426607	71,3	   0,0428126	71,4
     40,7111	    0,042734	71,0	   0,0429971	71,3
     40,7141	   0,0427818	70,9	   0,0429809	71,6
      40,717	   0,0428734	71,4	   0,0429585	71,6
     40,7199	   0,0428363	70,7	   0,0431132	71,5
     40,7229	   0,0428626	71,2	   0,0431916	71,4
     40,7258	   0,0430249	71,3	   0,0431246	71,3
     40,7287	   0,0429643	70,9	   0,0432653	71,5
     40,7317	   0,0430586	71,3	   0,0432148	71,3
     40,7346	   0,0431087	71,6	   0,0432379	71,4
     40,7375	   0,0432992	71,3	    0,043469	71,5
     40,7405	   0,0432142	71,0	   0,0434478	71,7
     40,7434	   0,0432048	71,1	   0,0434464	71,7
     40,7463	   0,0433334	71,1	   0,0435658	71,3
     40,7493	   0,0434404	71,3	   0,0435545	71,5
     40,7522	    0,043423	71,2	   0,0437515	71,6
     40,7551	   0,0434759	71,3	   0,0436161	71,3
     40,7581	   0,0436038	71,7	   0,0436789	71,5
      40,761	   0,0436286	71,1	    0,043857	71,3
     40,7639	   0,0436145	71,6	    0,043826	71,6
     40,7669	   0,0437444	71,6	   0,0440827	71,4
     40,7698	   0,0436992	71,1	   0,0439062	71,4
     40,7727	   0,0438866	71,7	   0,0440164	71,6
     40,7757	   0,0438542	71,3	   0,0441139	71,5
     40,7786	   0,0436958	71,5	   0,0441277	71,5
     40,7815	   0,0441183	71,7	   0,0441915	71,3
     40,7845	   0,0439832	71,0	   0,0443133	71,4
     40,7874	     0,04405	71,8	   0,0444061	71,4
     40,7903	   0,0442812	71,3	   0,0443501	72,0
     40,7933	   0,0441892	71,2	   0,0443998	71,5
     40,7962	   0,0442431	71,6	   0,0445112	71,9
     40,7991	   0,0442831	71,2	   0,0446367	71,4
     40,8021	   0,0443635	71,4	   0,0446147	71,5
      40,805	   0,0444582	71,6	   0,0446245	72,1
     40,8079	    0,044413	71,4	   0,0446502	71,6
     40,8109	   0,0446146	71,5	    0,044772	71,9
     40,8138	   0,0446665	71,0	   0,0448879	72,0
     40,8167	   0,0445102	71,4	   0,0447557	71,9
     40,8196	   0,0447203	71,6	    0,045055	71,8
     40,8226	   0,0447979	71,2	   0,0449952	71,8
     40,8255	   0,0448468	71,6	   0,0449889	72,0
     40,8284	   0,0448699	71,9	    0,045182	71,8
     40,8314	   0,0449392	71,5	   0,0453339	71,9
     40,8343	   0,0450789	71,5	   0,0451974	71,9
     40,8372	   0,0450411	71,3	   0,0453192	71,6
     40,8402	   0,0451389	71,5	   0,0454684	71,7
     40,8431	   0,0451926	71,7	   0,0454718	71,5
      40,846	   0,0452922	71,7	   0,0454982	71,6
      40,849	   0,0452845	71,7	   0,0455599	72,1
     40,8519	   0,0453787	71,9	   0,0456166	71,7
     40,8548	   0,0454923	71,4	   0,0456463	71,7
     40,8578	    0,045482	71,6	   0,0457425	71,3
     40,8607	   0,0454977	71,7	    0,045841	71,9
     40,8636	   0,0456429	71,8	   0,0458687	71,9
     40,8666	   0,0456309	71,6	   0,0459941	71,7
     40,8695	   0,0457512	71,9	   0,0459917	72,2
     40,8724	   0,0458478	71,8	    0,045951	71,9
     40,8754	   0,0457891	71,8	   0,0461132	71,6
     40,8783	   0,0458962	71,4	   0,0461903	71,9
     40,8812	   0,0459489	71,7	   0,0462006	71,8
     40,8842	   0,0461578	71,5	   0,0462346	72,0
     40,8871	   0,0461323	72,0	   0,0464782	71,8
       40,89	   0,0462727	71,6	   0,0464323	71,9
      40,893	   0,0462587	71,5	   0,0464245	72,0
     40,8959	   0,0462216	71,6	   0,0466436	71,5
     40,8988	   0,0462642	71,8	   0,0467298	72,2
     40,9018	   0,0464593	71,8	   0,0466978	72,0
     40,9047	   0,0465679	71,6	   0,0468822	71,8
     40,9076	   0,0466232	71,7	   0,0469631	72,3
     40,9106	   0,0465858	71,9	   0,0468898	72,2
     40,9135	   0,0466299	71,7	   0,0470051	72,1
     40,9164	   0,0467843	71,9	   0,0471066	72,3
     40,9194	   0,0468538	72,0	   0,0471045	72,4
     40,9223	   0,0468979	71,9	   0,0471208	72,2
     40,9252	   0,0469134	72,1	   0,0473064	71,9
     40,9282	   0,0470303	72,1	   0,0473487	72,4
     40,9311	   0,0470704	72,1	   0,0473314	72,1
      40,934	   0,0471537	71,9	   0,0475192	71,9
      40,937	   0,0472224	72,1	   0,0475004	72,0
     40,9399	   0,0472487	72,1	   0,0475283	72,5
     40,9428	   0,0472519	72,1	   0,0477167	72,2
     40,9457	   0,0474507	72,4	   0,0477372	72,2
     40,9487	     0,04749	72,0	   0,0477798	72,3
     40,9516	   0,0475887	71,9	   0,0478511	72,3
     40,9545	   0,0475499	72,1	   0,0478629	72,3
     40,9575	   0,0477315	71,8	   0,0480307	72,5
     40,9604	   0,0477933	72,3	   0,0480546	72,4
     40,9633	   0,0477633	72,2	   0,0480958	72,3
     40,9663	   0,0479253	72,0	   0,0483659	72,1
     40,9692	   0,0480496	72,3	   0,0482679	72,3
     40,9721	   0,0479952	71,9	    0,048323	72,1
     40,9751	   0,0480421	72,4	   0,0484835	72,2
      40,978	   0,0483318	72,2	   0,0485193	72,6
     40,9809	   0,0483305	71,9	   0,0485523	72,2
     40,9839	    0,048276	72,4	   0,0485953	72,4
     40,9868	   0,0483961	71,8	   0,0488007	71,9
     40,9897	   0,0483952	72,2	   0,0488625	72,7
     40,9927	   0,0485556	72,1	   0,0488487	72,5
     40,9956	   0,0487127	72,0	   0,0488836	72,4
     40,9985	   0,0486916	72,8	   0,0490229	72,6
     41,0015	   0,0487218	72,3	   0,0491664	72,0
     41,0044	   0,0487957	72,5	   0,0492267	72,7
     41,0073	   0,0489764	72,2	   0,0490794	72,4
     41,0103	   0,0491132	72,2	   0,0492951	72,3
     41,0132	   0,0489349	72,3	   0,0494775	72,2
     41,0161	   0,0490248	72,5	   0,0495163	72,7
     41,0191	   0,0492826	72,3	    0,049508	72,7
      41,022	   0,0492432	72,1	   0,0496481	72,4
     41,0249	   0,0492823	72,6	   0,0497764	72,8
     41,0279	   0,0493474	72,4	   0,0497848	72,5
     41,0308	   0,0494363	72,3	   0,0498741	73,0
     41,0337	   0,0496692	72,5	   0,0499777	72,7
     41,0367	   0,0497081	72,0	   0,0499516	72,8
     41,0396	   0,0496643	72,8	   0,0499411	72,8
     41,0425	   0,0498232	72,5	   0,0502327	72,3
     41,0455	   0,0500058	72,5	   0,0502582	72,8
     41,0484	   0,0499728	72,5	   0,0502754	72,6
     41,0513	   0,0498854	72,6	   0,0503899	72,6
     41,0543	   0,0501546	72,6	   0,0505002	72,4
     41,0572	   0,0502988	72,5	    0,050544	72,9
     41,0601	   0,0503265	72,4	   0,0505684	72,8
      41,063	   0,0502633	72,6	   0,0507394	72,5
      41,066	   0,0505046	72,6	    0,050828	73,0
     41,0689	   0,0505249	72,2	   0,0508896	72,6
     41,0718	   0,0505558	72,6	   0,0509862	72,9
     41,0748	   0,0506552	72,7	   0,0510818	73,0
     41,0777	   0,0506693	72,2	   0,0510673	72,7
     41,0806	   0,0508194	73,1	   0,0511587	72,8
     41,0836	   0,0510205	72,6	   0,0512615	72,8
     41,0865	   0,0510174	72,7	    0,051465	73,0
     41,0894	   0,0511435	72,8	   0,0515002	72,8
     41,0924	   0,0512062	72,4	   0,0515495	73,2
     41,0953	   0,0512578	72,7	   0,0516012	72,8
     41,0982	   0,0513309	72,7	   0,0518151	72,9
     41,1012	    0,051495	73,0	   0,0518898	73,4
     41,1041	   0,0514787	72,4	   0,0519286	73,3
      41,107	   0,0515329	73,0	   0,0519497	72,9
       41,11	   0,0517413	72,8	   0,0521262	73,0
     41,1129	    0,051779	72,8	   0,0521857	73,2
     41,1158	   0,0518729	73,1	   0,0523363	72,5
     41,1188	   0,0520041	72,8	   0,0524177	73,2
     41,1217	   0,0520248	73,0	   0,0524703	72,9
     41,1246	   0,0520693	72,8	   0,0525099	73,1
     41,1276	   0,0522976	73,0	   0,0525949	72,7
     41,1305	   0,0522972	72,7	   0,0527421	73,5
     41,1334	   0,0523131	73,3	   0,0527693	73,1
     41,1364	   0,0526291	73,1	   0,0530092	73,1
     41,1393	   0,0525284	72,9	   0,0530718	73,4
     41,1422	   0,0525848	73,4	   0,0530529	73,0
     41,1452	   0,0526661	73,2	   0,0531234	73,6
     41,1481	   0,0528506	73,2	    0,053206	73,2
      41,151	   0,0529968	73,1	    0,053435	73,3
      41,154	   0,0530817	73,2	    0,053551	73,6
     41,1569	   0,0530183	73,2	   0,0535405	73,6
     41,1598	   0,0532378	73,1	   0,0536349	73,3
     41,1628	   0,0532683	73,4	   0,0538198	73,2
     41,1657	   0,0533043	73,1	   0,0538438	73,6
     41,1686	   0,0535391	73,2	   0,0539528	73,2
     41,1716	   0,0535572	73,0	   0,0540376	73,0
     41,1745	   0,0537343	73,7	   0,0542416	73,3
     41,1774	   0,0538427	73,2	   0,0542587	73,6
     41,1804	   0,0538657	73,4	   0,0542841	73,4
     41,1833	   0,0539648	73,3	    0,054407	73,9
     41,1862	   0,0541014	73,1	   0,0545976	73,4
     41,1891	   0,0542687	73,4	   0,0546256	73,8
     41,1921	   0,0542539	73,3	   0,0546598	73,7
      41,195	   0,0542869	73,5	   0,0548694	73,3
     41,1979	   0,0544064	73,4	   0,0549909	73,4
     41,2009	   0,0545837	73,7	   0,0551909	73,7
     41,2038	   0,0547257	73,4	   0,0551368	73,7
     41,2067	   0,0547772	73,2	   0,0551911	73,5
     41,2097	   0,0547665	73,7	     0,05534	74,1
     41,2126	    0,054939	73,5	   0,0554407	73,7
     41,2155	   0,0550691	73,5	    0,055537	73,8
     41,2185	   0,0551894	73,5	   0,0557801	73,9
     41,2214	    0,055296	73,7	   0,0558085	74,2
     41,2243	   0,0554143	73,2	   0,0558209	73,7
     41,2273	   0,0554894	74,1	   0,0559915	73,8
     41,2302	     0,05546	73,5	   0,0561363	73,9
     41,2331	   0,0555069	73,8	   0,0561991	73,7
     41,2361	   0,0558414	73,9	   0,0563087	74,2
      41,239	   0,0559501	73,2	   0,0563248	73,9
     41,2419	   0,0559352	73,6	   0,0565596	74,0
     41,2449	   0,0561098	73,5	   0,0566146	73,9
     41,2478	   0,0561532	74,0	   0,0566516	74,3
     41,2507	   0,0563049	73,7	   0,0568842	73,7
     41,2537	   0,0563898	74,1	   0,0571043	74,3
     41,2566	   0,0564566	73,7	   0,0572049	74,1
     41,2595	    0,056542	74,0	   0,0571183	74,4
     41,2625	   0,0567613	74,0	   0,0571794	73,9
     41,2654	   0,0569081	74,3	   0,0574334	74,4
     41,2683	   0,0569762	73,5	   0,0576418	74,4
     41,2713	   0,0570526	74,0	   0,0576537	74,5
     41,2742	   0,0570827	74,0	   0,0576701	74,4
     41,2771	   0,0573406	73,9	    0,057871	74,4
     41,2801	   0,0574209	74,3	     0,05807	74,4
      41,283	   0,0574744	74,0	   0,0581927	73,9
     41,2859	    0,057631	74,1	   0,0582879	74,4
     41,2889	   0,0578052	73,3	    0,058366	74,2
     41,2918	   0,0578618	74,4	   0,0585577	74,4
     41,2947	   0,0579283	74,0	   0,0586628	74,4
     41,2977	   0,0581448	74,1	   0,0587676	74,6
     41,3006	   0,0582327	74,0	   0,0589059	74,1
     41,3035	    0,058295	74,0	   0,0590479	74,5
     41,3064	   0,0583844	73,6	   0,0592114	74,5
     41,3094	   0,0585401	74,5	   0,0592245	74,6
     41,3123	   0,0587134	74,2	   0,0592887	74,1
     41,3153	   0,0587578	74,0	   0,0595693	74,6
     41,3182	   0,0588429	74,6	   0,0596659	74,6
     41,3211	   0,0590055	74,8	   0,0596889	74,7
      41,324	   0,0592166	74,4	   0,0598724	74,6
      41,327	   0,0593994	74,4	   0,0600126	75,0
     41,3299	    0,059431	74,5	   0,0600963	74,6
     41,3328	   0,0596139	74,2	   0,0601489	74,7
     41,3358	   0,0595748	75,0	   0,0603643	74,8
     41,3387	   0,0597889	74,4	   0,0605552	74,9
     41,3416	   0,0599265	74,8	   0,0606782	74,9
     41,3446	   0,0601646	74,7	    0,060872	74,7
     41,3475	   0,0603231	75,0	   0,0610132	74,9
     41,3504	   0,0603126	74,6	   0,0609209	73,8
     41,3534	   0,0605009	74,7	   0,0610463	74,3
     41,3563	   0,0606433	74,6	   0,0613718	75,0
     41,3592	   0,0607616	74,9	   0,0614837	75,4
     41,3622	    0,060932	74,5	   0,0614784	74,7
     41,3651	   0,0610973	75,0	   0,0617841	75,3
      41,368	    0,061095	74,9	   0,0618675	75,1
      41,371	    0,061198	75,2	   0,0620146	75,2
     41,3739	   0,0614597	74,9	   0,0623823	74,7
     41,3768	   0,0615747	74,9	   0,0624053	75,3
     41,3798	    0,061675	75,0	   0,0623753	75,4
     41,3827	   0,0616756	73,9	   0,0624909	75,3
     41,3856	    0,061854	75,5	    0,062769	75,2
     41,3886	   0,0619575	75,2	   0,0630202	75,7
     41,3915	   0,0623455	75,3	   0,0629589	75,0
     41,3944	   0,0623724	74,9	   0,0631453	75,5
     41,3974	    0,062601	75,6	    0,063416	75,3
     41,4003	   0,0626759	74,9	   0,0635208	75,7
     41,4032	    0,062761	75,1	   0,0636679	75,5
     41,4062	   0,0630377	75,4	   0,0638959	75,7
     41,4091	   0,0632111	75,7	   0,0639652	75,6
      41,412	   0,0634013	75,1	   0,0641151	75,5
      41,415	   0,0635039	75,6	   0,0642368	75,4
     41,4179	   0,0634941	75,3	   0,0644487	75,8
     41,4208	   0,0636828	75,6	   0,0645768	75,7
     41,4238	   0,0638704	75,1	   0,0646702	75,9
     41,4267	   0,0640229	75,8	   0,0648868	75,7
     41,4296	   0,0643278	75,5	   0,0650385	75,8
     41,4326	   0,0644545	75,5	   0,0652031	75,6
     41,4355	   0,0644477	75,2	   0,0654214	75,8
     41,4384	   0,0646297	75,8	   0,0655547	76,2
     41,4413	   0,0648239	75,5	   0,0657548	76,2
     41,4443	   0,0650176	75,9	   0,0658899	76,0
     41,4472	   0,0651501	75,7	   0,0660006	76,3
     41,4501	   0,0652904	75,7	   0,0662498	76,0
     41,4531	   0,0654252	75,8	   0,0664893	75,8
      41,456	   0,0656115	76,3	   0,0666009	75,8
     41,4589	   0,0657558	76,0	   0,0667142	76,4
     41,4619	   0,0658677	76,3	   0,0669412	76,2
     41,4648	   0,0660874	76,1	   0,0671209	76,3
     41,4677	   0,0663356	75,9	   0,0673043	76,2
     41,4707	   0,0664631	76,0	   0,0674896	76,3
     41,4736	   0,0666672	76,1	   0,0676725	76,3
     41,4765	   0,0667137	76,0	   0,0678754	76,3
     41,4795	   0,0668828	76,7	    0,068019	76,6
     41,4824	   0,0670317	76,0	   0,0681838	76,8
     41,4853	   0,0673556	76,6	      0,0684	76,4
     41,4883	   0,0675527	76,3	    0,068608	76,4
     41,4912	   0,0676627	76,3	   0,0688559	76,5
     41,4941	   0,0677146	76,2	    0,069021	76,7
     41,4971	   0,0680896	76,7	   0,0691982	76,4
        41,5	   0,0682975	76,7	   0,0693407	76,9
     41,5029	   0,0684019	76,6	   0,0696598	77,0
     41,5059	   0,0685643	76,5	   0,0698804	77,0
     41,5088	   0,0687827	76,8	   0,0699049	76,8
     41,5117	   0,0689477	76,7	   0,0700657	77,0
     41,5147	    0,069095	76,8	    0,070273	76,8
     41,5176	   0,0692952	76,9	   0,0704421	77,1
     41,5205	   0,0694267	77,4	   0,0707435	77,1
     41,5235	   0,0697011	76,8	   0,0709075	77,5
     41,5264	   0,0699196	77,1	   0,0710901	77,3
     41,5293	   0,0701641	76,9	   0,0713981	77,0
     41,5323	   0,0702515	77,0	   0,0715956	77,0
     41,5352	   0,0703822	76,8	    0,071808	77,7
     41,5381	   0,0707403	77,4	   0,0719722	77,3
     41,5411	    0,070971	77,4	   0,0721818	77,7
      41,544	   0,0710956	77,4	   0,0725342	77,3
     41,5469	   0,0711888	76,9	   0,0726849	77,9
     41,5499	   0,0714211	77,6	   0,0729856	77,6
     41,5528	   0,0716671	77,4	   0,0731649	77,9
     41,5557	   0,0719264	77,6	   0,0732492	77,5
     41,5587	   0,0721988	77,3	   0,0735509	78,1
     41,5616	   0,0724323	78,0	   0,0738468	77,7
     41,5645	   0,0726464	77,6	   0,0740692	77,9
     41,5674	   0,0728221	77,7	    0,074445	77,6
     41,5704	   0,0729983	77,5	   0,0746991	78,5
     41,5733	   0,0732388	78,0	   0,0748053	78,3
     41,5762	   0,0733875	77,6	   0,0750761	78,3
     41,5792	   0,0735873	77,9	   0,0753207	78,2
     41,5821	   0,0738666	77,9	   0,0755329	78,3
      41,585	   0,0741377	78,4	   0,0757758	78,4
      41,588	   0,0743506	78,3	   0,0759063	78,7
     41,5909	   0,0746014	78,0	   0,0762485	78,3
     41,5938	   0,0748773	78,2	   0,0765591	78,8
     41,5968	   0,0751027	78,4	   0,0768473	78,5
     41,5997	   0,0754179	78,2	   0,0770621	78,5
     41,6026	   0,0756464	78,4	   0,0773689	78,8
     41,6056	    0,075752	78,5	   0,0776759	78,9
     41,6085	   0,0760973	78,7	   0,0779806	79,1
     41,6114	   0,0762892	78,4	   0,0782476	78,6
     41,6144	   0,0765159	78,2	   0,0784866	79,3
     41,6173	   0,0767946	78,9	   0,0786546	79,1
     41,6202	   0,0770847	78,9	   0,0790206	79,3
     41,6232	   0,0772817	79,1	    0,079251	79,3
     41,6261	   0,0775051	78,7	    0,079431	79,6
      41,629	    0,077853	79,1	   0,0799613	79,3
      41,632	   0,0780605	79,1	   0,0802851	79,6
     41,6349	   0,0783735	79,3	   0,0804555	79,5
     41,6378	   0,0786459	79,1	   0,0805971	79,9
     41,6408	   0,0789745	79,3	   0,0809874	79,7
     41,6437	   0,0791724	79,4	   0,0813385	79,8
     41,6466	   0,0795423	79,6	    0,081654	79,8
     41,6496	   0,0797268	79,2	   0,0819888	80,2
     41,6525	   0,0800975	80,0	   0,0822752	80,4
     41,6554	   0,0803255	79,5	   0,0826257	80,1
     41,6584	   0,0806221	79,9	   0,0830655	80,2
     41,6613	   0,0809542	79,7	   0,0833181	80,1
     41,6642	   0,0812064	80,2	   0,0837197	80,6
     41,6672	   0,0807984	80,2	   0,0841374	80,4
     41,6701	   0,0817544	80,0	   0,0841333	80,3
      41,673	   0,0819292	80,1	   0,0845891	80,4
      41,676	   0,0823078	80,0	   0,0850871	81,0
     41,6789	     0,08269	80,7	   0,0851586	80,9
     41,6818	   0,0830975	80,3	   0,0850701	81,3
     41,6847	   0,0833825	80,4	   0,0859788	80,7
     41,6877	   0,0837287	80,4	   0,0862923	81,5
     41,6906	   0,0840138	80,8	   0,0867888	81,5
     41,6936	   0,0842279	80,7	   0,0872374	81,3
     41,6965	   0,0847071	81,2	   0,0873429	81,3
     41,6994	    0,085204	80,9	   0,0876895	81,4
     41,7023	   0,0854874	81,0	   0,0880638	81,9
     41,7053	   0,0857774	81,0	   0,0890288	82,0
     41,7082	   0,0861486	81,3	   0,0894641	82,0
     41,7111	   0,0864539	81,6	   0,0894786	82,0
     41,7141	   0,0868581	81,6	   0,0903481	82,2
      41,717	   0,0872217	81,7	   0,0907275	82,4
     41,7199	   0,0876654	81,2	   0,0912218	82,6
     41,7229	   0,0875389	82,3	   0,0915662	82,7
     41,7258	   0,0882613	81,8	   0,0917353	83,0
     41,7287	   0,0884172	82,0	   0,0921493	82,9
     41,7317	   0,0891298	81,8	   0,0924478	82,9
     41,7346	   0,0894553	82,0	   0,0936878	83,0
     41,7375	   0,0894562	82,6	   0,0937728	83,5
     41,7405	   0,0900649	82,6	   0,0941913	83,9
     41,7434	   0,0903269	82,8	   0,0949559	83,6
     41,7463	   0,0908722	82,7	   0,0953768	83,8
     41,7493	   0,0909859	83,2	   0,0963833	83,6
     41,7522	   0,0919602	82,9	   0,0977882	84,1
     41,7551	   0,0925069	83,3	   0,0985292	84,3
     41,7581	   0,0928557	83,1	    0,100749	84,1
      41,761	   0,0931496	83,4	    0,103725	83,7
     41,7639	   0,0929391	83,9	    0,106999	83,9
     41,7669	   0,0943323	83,6	    0,112409	85,2
     41,7698	   0,0941716	83,9	    0,118987	86,1
     41,7727	   0,0951308	83,9	    0,124489	87,6
     41,7757	   0,0952388	83,9	    0,132207	89,2
     41,7786	   0,0955187	84,2	    0,139439	92,6
     41,7815	   0,0966529	84,5	    0,145634	94,3
     41,7845	     0,09706	84,2	    0,152561	97,3
     41,7874	   0,0970253	85,2	    0,158763	100,2
     41,7903	   0,0975886	84,6	    0,163061	102,5
     41,7933	   0,0980926	84,9	    0,168764	105,9
     41,7962	   0,0989879	85,0	     0,17399	108,2
     41,7991	   0,0992867	85,4	    0,177029	110,6
     41,8021	   0,0996995	85,5	    0,180811	112,8
      41,805	    0,100302	85,6	    0,183852	115,7
     41,8079	    0,101443	86,3	    0,186251	117,1
     41,8109	    0,101874	86,1	    0,188857	119,7
     41,8138	    0,102234	86,4	    0,190642	120,9
     41,8167	    0,102823	86,5	    0,193366	122,7
     41,8196	    0,103307	87,0	    0,194941	124,4
     41,8226	     0,10413	87,1	    0,196251	125,7
     41,8255	    0,104976	87,2	    0,197097	127,6
     41,8284	     0,10499	87,8	     0,19906	128,7
     41,8314	    0,105542	87,6	    0,200217	130,0
     41,8343	    0,106866	88,2	    0,200111	131,3
     41,8372	    0,107689	88,1	    0,201513	132,5
     41,8402	     0,10839	88,4	    0,201841	133,5
     41,8431	    0,108567	88,9	    0,203161	134,4
      41,846	    0,109997	89,2	     0,20375	135,8
      41,849	    0,110824	89,1	    0,204814	136,2
     41,8519	    0,111494	89,3	    0,204458	137,3
     41,8548	    0,112218	89,8	    0,204509	138,2
     41,8578	    0,112793	90,0	    0,205506	139,8
     41,8607	    0,113076	90,4	    0,205663	140,1
     41,8636	      0,1143	90,5	    0,205939	140,6
     41,8666	    0,115471	90,6	    0,205644	141,5
     41,8695	     0,11645	91,5	    0,206123	142,0
     41,8724	    0,117427	92,0	    0,206735	143,3
     41,8754	    0,118103	92,4	     0,20702	143,5
     41,8783	    0,120321	92,2	    0,207634	144,2
     41,8812	    0,120906	92,9	    0,207467	144,7
     41,8842	    0,122246	93,5	    0,207402	145,3
     41,8871	     0,12384	94,5	    0,207998	146,4
       41,89	     0,12509	94,8	    0,207386	147,1
      41,893	    0,126021	94,9	    0,207811	147,3
     41,8959	    0,128252	95,9	    0,207534	147,5
     41,8988	    0,129849	96,4	    0,206587	149,0
     41,9018	     0,13091	97,4	     0,20672	149,2
     41,9047	    0,131946	97,6	    0,208228	149,7
     41,9076	    0,134187	98,3	    0,207557	149,7
     41,9106	    0,136587	99,2	    0,207614	150,2
     41,9135	    0,137925	99,7	    0,207221	151,3
     41,9164	    0,139231	101,2	    0,207761	151,4
     41,9194	    0,141903	101,6	    0,208114	152,0
     41,9223	    0,144521	103,4	    0,207831	152,4
     41,9252	    0,146542	103,9	    0,206146	152,9
     41,9282	    0,148557	105,3	    0,206713	153,6
     41,9311	      0,1519	106,2	    0,207414	153,9
      41,934	    0,154153	107,5	    0,207173	154,4
      41,937	    0,156677	110,1	    0,207202	154,2
     41,9399	    0,159247	111,1	    0,206588	155,2
     41,9428	    0,161774	113,1	    0,206539	155,3
     41,9457	    0,166023	114,5	     0,20624	155,9
     41,9487	    0,168427	116,2	    0,207087	156,6
     41,9516	    0,171788	119,2	    0,206757	156,9
     41,9545	    0,175584	121,4	    0,205517	157,6
     41,9575	    0,178497	123,8	    0,204874	157,7
     41,9604	    0,182835	127,0	    0,205709	158,2
     41,9633	    0,185894	130,4	    0,205879	158,6
     41,9663	    0,188871	133,0	    0,205216	159,1
     41,9692	    0,192806	136,3	    0,204908	159,6
     41,9721	    0,196009	140,5	    0,204093	159,3
     41,9751	    0,198645	143,2	    0,204498	160,5
      41,978	    0,200208	146,4	    0,204114	160,6
     41,9809	    0,203109	149,2	    0,204644	160,8
     41,9839	    0,204076	151,3	    0,203181	161,1
     41,9868	    0,205601	155,0	    0,202943	161,5
     41,9897	    0,205485	156,8	     0,20219	162,3
     41,9927	    0,205643	158,2	    0,202433	162,5
     41,9956	    0,205887	159,1	    0,202531	162,8
     41,9985	    0,205743	160,1	    0,202986	163,0
     42,0015	     0,20588	162,2	     0,20283	163,3
     42,0044	     0,20437	162,3	    0,202352	163,4
     42,0073	    0,204023	162,9	    0,201057	163,9
     42,0103	    0,203712	163,3	    0,201675	164,9
     42,0132	    0,204381	163,6	    0,201779	164,9
     42,0161	    0,203579	164,2	    0,201001	164,9
     42,0191	    0,203779	164,6	    0,200614	165,3
      42,022	    0,203218	164,9	    0,200148	165,1
     42,0249	    0,202632	165,1	    0,200087	166,2
     42,0279	    0,202978	164,6	    0,199856	166,0
     42,0308	    0,202544	165,7	    0,200421	166,0
     42,0337	    0,202216	165,7	    0,198548	166,5
     42,0367	    0,201643	166,7	    0,197475	167,0
     42,0396	    0,200676	166,2	    0,197408	167,5
     42,0425	     0,20006	166,6	      0,1966	166,5
     42,0455	    0,201275	167,2	    0,197361	167,5
     42,0484	    0,200503	167,5	    0,197866	167,7
     42,0513	    0,200688	168,2	    0,196547	167,6
     42,0543	    0,199832	167,9	    0,196978	168,7
     42,0572	    0,199654	168,2	    0,196698	168,9
     42,0601	    0,199754	168,3	    0,197243	168,9
      42,063	    0,199645	169,2	    0,197643	169,6
      42,066	    0,199049	169,5	    0,196999	169,2
     42,0689	    0,198704	169,5	    0,196876	170,1
     42,0718	    0,198475	169,9	    0,194394	170,4
     42,0748	    0,198555	169,6	    0,194464	170,5
     42,0777	    0,197764	169,9	     0,19401	171,8
     42,0806	    0,196899	171,0	    0,195619	171,0
     42,0836	    0,196756	170,7	    0,194756	171,6
     42,0865	    0,196638	171,0	     0,19372	171,1
     42,0894	     0,19599	171,6	    0,193856	172,1
     42,0924	    0,196304	171,1	    0,193291	172,3
     42,0953	    0,195811	171,8	    0,193713	172,5
     42,0982	    0,195452	172,2	    0,192952	172,4
     42,1012	    0,194816	172,5	    0,193279	172,9
     42,1041	     0,19454	173,1	    0,192516	172,6
      42,107	    0,193353	173,1	    0,192321	173,4
       42,11	    0,193601	173,4	    0,191088	173,7
     42,1129	    0,193921	173,2	    0,193253	173,7
     42,1158	       0,194	173,8	    0,192283	174,7
     42,1188	    0,193531	174,2	    0,191201	174,2
     42,1217	    0,192089	174,3	    0,191171	174,4
     42,1246	    0,192178	174,4	    0,190996	174,4
     42,1276	    0,191628	175,0	    0,189687	175,2
     42,1305	    0,191883	174,4	    0,191186	175,0
     42,1334	    0,191882	175,7	    0,191063	175,1
     42,1364	    0,191692	175,8	    0,189543	175,9
     42,1393	    0,190803	175,6	    0,189868	176,3
     42,1422	    0,188874	176,0	    0,188179	176,0
     42,1452	    0,189763	176,0	    0,188802	176,3
     42,1481	    0,189873	176,0	    0,187863	176,8
      42,151	     0,19002	176,6	    0,188116	176,7
      42,154	    0,189349	177,0	    0,188263	177,3
     42,1569	    0,188398	177,4	     0,18807	177,2
     42,1598	    0,188108	177,0	     0,18688	177,4
     42,1628	    0,186909	177,4	    0,185875	178,0
     42,1657	    0,188126	177,5	    0,185542	178,1
     42,1686	    0,188041	178,3	    0,185176	179,0
     42,1716	    0,187748	178,4	     0,18699	178,4
     42,1745	    0,185211	178,5	    0,186567	178,6
     42,1774	    0,185517	178,4	    0,184887	178,8
     42,1804	    0,185933	179,1	    0,184618	179,1
     42,1833	    0,185617	179,2	    0,183016	179,7
     42,1862	     0,18574	178,9	    0,184055	179,4
     42,1891	    0,185455	179,3	    0,184851	180,1
     42,1921	     0,18344	179,9	    0,183673	180,2
      42,195	    0,183605	179,9	    0,183844	180,2
     42,1979	    0,182985	180,1	     0,18164	180,4
     42,2009	    0,182172	179,9	    0,181977	180,7
     42,2038	    0,183356	180,7	    0,181096	180,6
     42,2067	    0,182224	180,4	    0,181452	181,5
     42,2097	    0,182557	180,6	    0,181392	180,9
     42,2126	    0,181537	181,2	    0,182011	181,6
     42,2155	    0,180736	181,2	    0,180245	181,4
     42,2185	    0,180496	181,7	    0,180511	180,9
     42,2214	    0,181275	182,0	    0,177681	182,5
     42,2243	    0,180428	181,7	    0,178538	182,3
     42,2273	    0,181215	182,7	    0,179374	182,2
     42,2302	    0,178639	181,9	    0,179961	182,8
     42,2331	    0,178438	182,2	    0,179337	182,8
     42,2361	    0,177763	183,1	     0,17899	182,3
      42,239	     0,17907	182,3	    0,177005	183,2
     42,2419	    0,179097	183,9	     0,17727	182,9
     42,2449	    0,178433	183,7	    0,175941	183,8
     42,2478	     0,17769	182,7	    0,176127	183,8
     42,2507	    0,176554	184,1	    0,177841	184,2
     42,2537	    0,176526	184,0	    0,177774	184,4
     42,2566	    0,175565	184,1	    0,176354	184,2
     42,2595	    0,175824	184,5	    0,174463	184,7
     42,2625	    0,176534	183,8	    0,174416	185,2
     42,2654	    0,176667	185,2	    0,174309	184,8
     42,2683	    0,175753	185,3	    0,174039	184,9
     42,2713	     0,17394	184,8	    0,174172	184,8
     42,2742	    0,173286	186,0	     0,17454	185,5
     42,2771	    0,172857	185,9	    0,175018	185,3
     42,2801	    0,174429	185,2	    0,173474	185,4
      42,283	    0,174375	186,3	    0,171717	185,7
     42,2859	    0,173845	186,5	    0,171144	186,1
     42,2889	    0,172952	186,2	    0,170677	186,4
     42,2918	    0,171487	186,6	    0,171759	186,0
     42,2947	    0,171038	186,5	    0,170654	186,3
     42,2977	    0,170755	187,2	    0,172672	187,1
     42,3006	    0,169549	187,4	    0,171487	186,9
     42,3035	     0,17079	186,7	    0,171022	186,9
     42,3064	    0,171063	187,6	    0,168534	187,6
     42,3094	    0,171415	187,8	    0,170427	187,4
     42,3123	    0,170095	186,8	    0,168353	188,3
     42,3153	    0,168205	188,4	    0,170266	187,4
     42,3182	    0,168407	188,1	    0,169366	187,7
     42,3211	    0,168244	187,8	     0,16975	188,0
      42,324	    0,169384	188,1	     0,16841	188,3
      42,327	    0,168848	188,2	    0,167722	188,4
     42,3299	    0,168618	188,3	    0,166107	189,1
     42,3328	    0,166605	188,8	    0,165985	188,9
     42,3358	    0,166246	188,5	     0,16513	189,1
     42,3387	    0,165096	189,9	    0,167007	188,8
     42,3416	    0,165326	189,6	    0,167171	188,8
     42,3446	    0,166297	189,4	    0,166974	189,3
     42,3475	     0,16644	189,6	    0,165719	189,3
     42,3504	    0,166264	189,4	    0,163285	190,6
     42,3534	    0,166328	189,6	    0,163946	190,5
     42,3563	    0,164448	189,7	    0,162798	190,0
     42,3592	    0,161874	190,6	    0,164073	190,1
     42,3622	    0,162733	190,5	    0,163204	190,5
     42,3651	    0,162228	191,3	    0,164299	190,2
      42,368	    0,162852	190,5	    0,163718	190,8
      42,371	    0,163957	190,5	    0,163596	190,8
     42,3739	    0,163811	190,7	    0,161949	190,7
     42,3768	    0,162593	190,5	    0,160419	191,8
     42,3798	    0,162725	190,6	    0,160021	192,3
     42,3827	    0,160644	191,8	    0,160709	191,1
     42,3856	     0,15972	192,1	    0,162249	191,3
     42,3886	    0,158966	192,3	    0,160267	191,5
     42,3915	    0,159859	192,3	    0,161444	191,3
     42,3944	    0,160659	191,5	    0,159907	192,3
     42,3974	    0,160451	192,0	    0,160402	192,1
     42,4003	    0,160156	192,1	    0,159155	192,5
     42,4032	     0,15848	192,4	    0,157609	193,6
     42,4062	    0,158964	192,3	    0,158243	192,5
     42,4091	    0,156327	193,7	    0,157278	193,0
      42,412	    0,156817	192,9	    0,157941	193,1
      42,415	    0,157062	193,5	    0,157626	193,2
     42,4179	    0,157846	193,5	    0,158239	192,7
     42,4208	    0,157646	192,8	    0,156974	193,8
     42,4238	    0,157667	193,3	    0,157483	193,5
     42,4267	    0,156937	193,7	    0,155701	193,8
     42,4296	    0,155085	194,4	     0,15405	194,7
     42,4326	     0,15481	193,9	    0,153834	194,8
     42,4355	    0,154861	195,1	    0,154089	194,4
     42,4384	    0,154419	194,9	    0,155331	194,8
     42,4413	    0,154739	194,8	    0,155584	194,0
     42,4443	    0,154137	194,8	    0,154879	194,3
     42,4472	    0,154735	194,6	    0,154184	195,4
     42,4501	    0,153625	194,5	     0,15499	195,1
     42,4531	    0,152895	195,4	    0,152551	195,5
      42,456	    0,151771	195,5	    0,151254	196,7
     42,4589	    0,151722	195,5	    0,152067	196,1
     42,4619	    0,150762	196,5	    0,150883	195,9
     42,4648	    0,151223	195,8	     0,15166	195,7
     42,4677	    0,150363	196,4	    0,150594	196,0
     42,4707	     0,15037	196,3	    0,151689	195,4
     42,4736	      0,1511	195,7	    0,151892	196,1
     42,4765	    0,150525	195,7	    0,151708	196,1
     42,4795	    0,150398	196,8	    0,150809	196,2
     42,4824	    0,148146	196,7	    0,148586	197,5
     42,4853	    0,148673	196,9	    0,149794	197,1
     42,4883	    0,147241	197,8	    0,147301	196,8
     42,4912	     0,14641	197,3	    0,148532	197,6
     42,4941	    0,148028	197,7	     0,14851	197,5
     42,4971	    0,148192	197,2	    0,148242	196,9
        42,5	    0,148275	197,1	    0,147414	197,3
     42,5029	    0,148036	197,3	    0,147982	197,6
     42,5059	    0,147247	197,8	    0,147284	197,6
     42,5088	    0,145902	197,9	    0,147587	197,3
     42,5117	    0,146799	197,9	    0,145546	198,5
     42,5147	    0,145716	198,5	    0,145386	198,6
     42,5176	    0,143907	198,7	    0,145108	198,1
     42,5205	    0,143795	198,8	    0,144401	198,8
     42,5235	    0,144475	199,3	    0,144904	198,1
     42,5264	    0,144469	198,4	    0,143273	198,8
     42,5293	    0,143657	198,2	    0,144347	199,6
     42,5323	    0,144707	198,8	    0,144338	199,0
     42,5352	    0,143583	199,0	    0,144352	198,8
     42,5381	    0,143999	198,9	    0,143291	199,3
     42,5411	    0,142365	-160,0	    0,142088	199,3
      42,544	    0,141405	-160,0	    0,142745	199,5
     42,5469	    0,141811	-160,1	    0,141977	-159,3
     42,5499	    0,141098	-159,6	    0,140711	-160,0
     42,5528	    0,139197	-159,5	     0,14085	-159,9
     42,5557	    0,140687	-159,6	       0,142	-159,0
     42,5587	    0,139776	-160,2	    0,141238	-159,7
     42,5616	    0,141004	-159,8	    0,140889	-159,5
     42,5645	    0,140321	-159,9	    0,141129	-159,2
     42,5674	    0,139584	-160,1	     0,14074	-159,6
     42,5704	    0,139046	-158,6	    0,141011	-159,4
     42,5733	     0,13895	-158,8	    0,138917	-158,8
     42,5762	    0,138246	-158,6	    0,138742	-157,9
     42,5792	    0,136932	-158,2	    0,139418	-158,6
     42,5821	    0,136528	-157,8	    0,137098	-157,8
      42,585	     0,13715	-158,6	    0,137013	-157,7
      42,588	    0,136334	-158,7	    0,136364	-157,5
     42,5909	    0,136269	-158,1	    0,137553	-157,8
     42,5938	    0,136143	-158,9	       0,137	-157,9
     42,5968	    0,135601	-158,3	    0,136588	-157,7
     42,5997	    0,136543	-157,7	    0,136707	-158,3
     42,6026	    0,135641	-157,9	    0,136285	-157,6
     42,6056	    0,135543	-157,7	    0,136922	-157,7
     42,6085	    0,133796	-156,8	    0,134802	-157,9
     42,6114	    0,134568	-156,9	    0,136069	-157,8
     42,6144	    0,133138	-156,8	    0,134625	-157,0
     42,6173	    0,132864	-155,9	     0,13349	-156,4
     42,6202	    0,133024	-156,7	     0,13352	-156,3
     42,6232	    0,132133	-156,2	    0,132724	-155,9
     42,6261	    0,132453	-156,8	    0,133219	-156,1
      42,629	     0,13238	-157,1	     0,13332	-156,7
      42,632	    0,131076	-156,3	    0,133198	-156,0
     42,6349	    0,131647	-156,7	    0,133344	-156,5
     42,6378	    0,131712	-155,9	    0,132421	-156,2
     42,6408	     0,13164	-155,9	    0,132513	-156,3
     42,6437	    0,130354	-155,5	    0,131529	-156,1
     42,6466	    0,129185	-155,1	    0,131861	-155,9
     42,6496	    0,129805	-155,2	    0,130484	-156,2
     42,6525	    0,128705	-155,4	    0,129772	-155,1
     42,6554	    0,128902	-154,6	    0,129868	-155,2
     42,6584	    0,127839	-154,8	    0,129657	-155,0
     42,6613	    0,128695	-154,8	    0,128673	-154,6
     42,6642	    0,128038	-155,5	    0,127856	-154,5
     42,6672	    0,127892	-154,7	    0,128859	-154,9
     42,6701	    0,128359	-155,2	    0,128414	-154,2
      42,673	    0,127903	-154,8	    0,127932	-154,1
      42,676	    0,127156	-155,1	    0,128484	-154,9
     42,6789	    0,126734	-154,1	    0,127896	-154,5
     42,6818	    0,126701	-154,2	    0,127713	-154,0
     42,6847	    0,126732	-154,3	    0,127349	-154,6
     42,6877	    0,126027	-153,5	     0,12661	-154,6
     42,6906	    0,124855	-154,0	    0,125614	-154,5
     42,6936	    0,125219	-153,9	    0,125871	-153,8
     42,6965	    0,124155	-152,9	    0,125204	-154,3
     42,6994	    0,124218	-153,6	     0,12449	-152,6
     42,7023	    0,124064	-153,0	    0,124524	-152,5
     42,7053	     0,12368	-153,4	    0,123932	-152,7
     42,7082	    0,123251	-153,5	     0,12383	-153,0
     42,7111	    0,123496	-153,6	    0,123048	-153,0
     42,7141	    0,123365	-153,2	    0,123359	-152,5
      42,717	    0,123108	-152,4	    0,123773	-153,2
     42,7199	    0,123183	-152,6	    0,122774	-152,9
     42,7229	    0,122759	-153,0	    0,123294	-152,6
     42,7258	    0,121847	-152,3	    0,122956	-152,5
     42,7287	    0,121606	-152,2	    0,122682	-153,0
     42,7317	    0,121068	-152,0	     0,12262	-152,4
     42,7346	    0,119834	-152,1	    0,121826	-152,2
     42,7375	    0,120423	-152,0	    0,121773	-152,3
     42,7405	    0,119888	-151,6	    0,120978	-152,2
     42,7434	    0,119297	-151,7	    0,119892	-151,4
     42,7463	    0,119251	-151,5	    0,120644	-151,4
     42,7493	    0,119747	-151,1	    0,120403	-151,3
     42,7522	     0,11887	-151,9	    0,119606	-151,7
     42,7551	    0,119436	-151,4	    0,119149	-151,3
     42,7581	    0,118328	-151,4	    0,118268	-151,4
      42,761	    0,118175	-151,1	    0,119217	-151,0
     42,7639	    0,117641	-151,3	    0,117641	-150,9
     42,7669	    0,117295	-150,9	    0,118364	-150,8
     42,7698	    0,117444	-151,1	    0,117963	-151,3
     42,7727	    0,117024	-150,7	    0,117277	-150,9
     42,7757	    0,117082	-150,8	    0,117453	-150,3
     42,7786	    0,116738	-150,4	     0,11674	-150,6
     42,7815	    0,116492	-149,9	    0,116987	-150,7
     42,7845	    0,115737	-149,9	    0,116139	-150,6
     42,7874	    0,115524	-150,0	    0,115536	-150,4
     42,7903	    0,113387	-149,3	    0,116119	-150,5
     42,7933	    0,114064	-149,3	     0,11524	-150,4
     42,7962	     0,11442	-149,7	    0,115509	-149,7
     42,7991	    0,113911	-149,7	    0,115342	-149,8
     42,8021	    0,113178	-149,4	    0,114327	-149,9
      42,805	    0,113445	-149,7	    0,113659	-149,3
     42,8079	    0,113221	-149,8	    0,113988	-148,7
     42,8109	    0,113169	-149,3	    0,112493	-149,2
     42,8138	    0,113412	-148,8	    0,113551	-149,5
     42,8167	    0,112655	-149,2	    0,112599	-149,3
     42,8196	    0,112212	-149,2	    0,113472	-148,6
     42,8226	    0,111941	-149,0	    0,111477	-148,5
     42,8255	    0,112432	-148,7	    0,111985	-148,7
     42,8284	    0,111155	-148,9	    0,111914	-148,3
     42,8314	    0,111045	-148,8	     0,11142	-148,8
     42,8343	    0,111303	-148,3	    0,111436	-148,1
     42,8372	    0,110781	-148,3	    0,111213	-148,3
     42,8402	     0,11025	-148,5	    0,111426	-147,9
     42,8431	    0,109641	-148,0	    0,110447	-148,2
      42,846	     0,10968	-148,1	    0,110397	-148,4
      42,849	    0,109394	-147,3	    0,110665	-148,3
     42,8519	    0,108786	-147,6	    0,109906	-148,0
     42,8548	    0,108154	-147,5	    0,108961	-148,1
     42,8578	    0,107509	-147,1	    0,109227	-147,9
     42,8607	    0,107896	-147,0	    0,109049	-148,1
     42,8636	    0,106882	-147,4	    0,107652	-147,8
     42,8666	    0,107368	-147,0	    0,107713	-147,5
     42,8695	    0,106963	-147,1	    0,107382	-148,0
     42,8724	    0,106617	-146,8	    0,107425	-146,8
     42,8754	    0,105617	-146,5	    0,107102	-147,2
     42,8783	    0,106025	-146,7	    0,107012	-147,2
     42,8812	    0,105548	-146,9	    0,105586	-147,1
     42,8842	    0,105338	-146,5	    0,105887	-147,2
     42,8871	    0,105814	-147,0	    0,105199	-145,8
       42,89	    0,104781	-146,6	    0,105343	-146,2
      42,893	    0,105011	-145,9	    0,104799	-146,5
     42,8959	    0,104201	-146,6	       0,105	-145,7
     42,8988	    0,104195	-146,8	    0,105367	-145,9
     42,9018	    0,103862	-146,4	    0,104318	-146,3
     42,9047	     0,10328	-146,1	    0,103736	-146,0
     42,9076	    0,102678	-146,1	    0,103628	-145,9
     42,9106	     0,10291	-146,5	    0,103527	-145,7
     42,9135	    0,102933	-145,8	    0,103679	-146,1
     42,9164	    0,102819	-145,3	    0,102853	-145,7
     42,9194	    0,102535	-145,8	    0,103439	-145,1
     42,9223	    0,102241	-145,6	    0,102844	-145,5
     42,9252	    0,101452	-145,2	    0,102747	-145,3
     42,9282	    0,101754	-145,2	    0,102139	-145,9
     42,9311	    0,101145	-145,3	    0,101856	-145,3
      42,934	    0,101621	-145,4	    0,101723	-144,9
      42,937	    0,101292	-144,8	    0,101626	-145,5
     42,9399	     0,10073	-144,3	    0,101409	-145,1
     42,9428	    0,100981	-144,7	    0,100962	-144,7
     42,9457	    0,100873	-144,7	    0,100742	-145,1
     42,9487	    0,100336	-144,4	   0,0999631	-145,0
     42,9516	   0,0991451	-144,2	    0,100088	-145,1
     42,9545	   0,0991119	-144,2	    0,100378	-144,6
     42,9575	    0,099243	-144,2	   0,0991257	-144,5
     42,9604	   0,0985057	-144,2	   0,0987723	-144,8
     42,9633	   0,0976166	-144,1	   0,0988904	-144,6
     42,9663	   0,0976768	-143,2	   0,0991576	-144,6
     42,9692	   0,0976006	-143,9	    0,098761	-144,0
     42,9721	   0,0974464	-144,1	   0,0984517	-144,1
     42,9751	   0,0966356	-143,4	    0,096994	-144,7
      42,978	    0,096716	-143,4	   0,0974014	-143,8
     42,9809	   0,0965803	-143,9	   0,0970613	-143,9
     42,9839	   0,0957968	-143,3	   0,0967862	-144,1
     42,9868	   0,0966487	-143,2	   0,0970085	-143,9
     42,9897	   0,0955513	-142,9	   0,0967871	-144,1
     42,9927	   0,0951325	-142,9	   0,0954439	-143,6
     42,9956	   0,0951304	-143,1	   0,0951509	-143,3
     42,9985	   0,0945144	-142,9	   0,0952228	-143,2
     43,0015	   0,0949823	-142,5	   0,0951852	-143,4
     43,0044	   0,0944596	-142,4	   0,0958243	-142,3
     43,0073	   0,0942115	-142,6	   0,0944158	-143,0
     43,0103	    0,093993	-142,6	   0,0941009	-143,2
     43,0132	   0,0935184	-141,7	   0,0944557	-143,2
     43,0161	   0,0933579	-142,6	   0,0933543	-142,5
     43,0191	   0,0929145	-142,4	   0,0934572	-142,9
      43,022	   0,0928616	-142,3	   0,0929265	-142,8
     43,0249	   0,0927634	-142,1	   0,0931588	-142,3
     43,0279	   0,0918708	-141,7	   0,0932751	-142,8
     43,0308	   0,0921827	-142,2	   0,0926985	-142,2
     43,0337	   0,0918978	-142,3	   0,0927052	-142,3
     43,0367	   0,0906535	-141,8	   0,0921606	-142,0
     43,0396	   0,0913955	-141,4	   0,0920548	-141,8
     43,0425	    0,090688	-142,1	   0,0917456	-141,6
     43,0455	   0,0907307	-141,6	   0,0908407	-141,9
     43,0484	   0,0902084	-141,4	   0,0914328	-141,9
     43,0513	   0,0905602	-141,3	   0,0912533	-142,0
     43,0543	   0,0898501	-141,9	   0,0907459	-142,1
     43,0572	   0,0897189	-141,8	   0,0902431	-141,2
     43,0601	   0,0890728	-141,3	   0,0901696	-141,7
      43,063	   0,0890639	-141,0	   0,0901892	-141,5
      43,066	   0,0883301	-141,5	   0,0898193	-141,7
     43,0689	   0,0889664	-141,5	   0,0898176	-140,4
     43,0718	   0,0886175	-141,8	   0,0888181	-141,5
     43,0748	   0,0880833	-141,1	   0,0888118	-141,6
     43,0777	   0,0880671	-140,6	   0,0882677	-141,1
     43,0806	   0,0875455	-141,1	   0,0888047	-140,9
     43,0836	   0,0876514	-140,9	   0,0885418	-140,9
     43,0865	   0,0877119	-141,2	   0,0875401	-141,1
     43,0894	   0,0868349	-141,1	   0,0875023	-140,9
     43,0924	   0,0868954	-140,3	   0,0869803	-141,2
     43,0953	   0,0863025	-141,1	   0,0867911	-141,1
     43,0982	   0,0864938	-140,7	   0,0865337	-140,6
     43,1012	   0,0860292	-140,7	   0,0865673	-140,6
     43,1041	   0,0859792	-140,5	   0,0870185	-140,6
      43,107	   0,0855971	-140,0	   0,0855296	-141,2
       43,11	   0,0855354	-140,2	   0,0858651	-140,6
     43,1129	   0,0853257	-140,3	   0,0857222	-140,7
     43,1158	   0,0849948	-140,3	   0,0855024	-140,6
     43,1188	   0,0850563	-139,8	   0,0846594	-140,8
     43,1217	    0,084217	-139,8	   0,0851466	-140,1
     43,1246	   0,0835122	-140,1	   0,0850815	-140,0
     43,1276	   0,0839125	-140,3	   0,0839564	-140,4
     43,1305	   0,0840223	-139,6	   0,0836981	-140,4
     43,1334	   0,0835286	-139,5	   0,0835709	-140,6
     43,1364	   0,0830963	-140,0	   0,0830851	-140,0
     43,1393	   0,0832359	-139,2	   0,0829624	-140,2
     43,1422	   0,0827257	-139,3	   0,0835915	-140,2
     43,1452	   0,0824053	-139,4	   0,0829651	-140,5
     43,1481	   0,0822641	-138,7	   0,0826892	-140,1
      43,151	   0,0822416	-139,0	   0,0818832	-139,7
      43,154	    0,082513	-139,0	   0,0828472	-139,5
     43,1569	   0,0818104	-138,9	   0,0820909	-140,0
     43,1598	   0,0813618	-138,5	   0,0824918	-139,6
     43,1628	   0,0808983	-139,1	   0,0820809	-139,3
     43,1657	   0,0810298	-138,9	   0,0815563	-139,1
     43,1686	   0,0806733	-138,7	   0,0811483	-138,9
     43,1716	     0,08112	-138,8	   0,0813312	-139,2
     43,1745	   0,0805614	-138,2	   0,0808365	-139,2
     43,1774	   0,0805564	-138,7	   0,0806935	-138,6
     43,1804	   0,0796922	-138,6	   0,0803486	-138,6
     43,1833	   0,0804216	-138,5	   0,0806931	-139,1
     43,1862	   0,0799976	-138,1	   0,0808186	-138,9
     43,1891	   0,0791159	-138,2	   0,0794427	-138,7
     43,1921	   0,0787964	-137,8	   0,0800231	-138,3
      43,195	     0,07885	-138,3	   0,0796367	-138,2
     43,1979	   0,0790968	-137,8	   0,0792456	-138,7
     43,2009	   0,0782675	-137,9	    0,079109	-138,6
     43,2038	   0,0779065	-137,9	   0,0784032	-138,1
     43,2067	    0,077658	-137,9	   0,0787163	-137,7
     43,2097	   0,0781274	-138,3	   0,0777811	-137,6
     43,2126	   0,0774855	-138,0	   0,0784285	-138,0
     43,2155	   0,0773458	-137,5	   0,0782213	-137,9
     43,2185	    0,076547	-138,2	   0,0772914	-137,8
     43,2214	    0,077184	-137,9	   0,0773376	-137,5
     43,2243	   0,0762983	-137,7	   0,0769561	-137,4
     43,2273	   0,0760956	-138,3	   0,0760061	-137,9
     43,2302	   0,0758785	-138,1	   0,0757298	-137,9
     43,2331	   0,0759358	-137,7	   0,0762046	-137,3
     43,2361	   0,0752012	-137,3	   0,0767576	-137,7
      43,239	   0,0748297	-138,2	   0,0765264	-137,4
     43,2419	   0,0752066	-137,9	   0,0761881	-137,5
     43,2449	   0,0750036	-137,8	   0,0760739	-137,5
     43,2478	   0,0743177	-137,4	   0,0750472	-138,0
     43,2507	    0,075189	-136,7	   0,0744254	-137,3
     43,2537	   0,0742985	-137,2	   0,0756411	-137,4
     43,2566	   0,0739468	-137,6	   0,0747044	-137,8
     43,2595	   0,0733334	-137,0	   0,0741885	-137,8
     43,2625	   0,0737913	-137,0	   0,0743881	-138,1
     43,2654	   0,0737308	-136,7	   0,0739971	-137,8
     43,2683	   0,0740264	-136,1	   0,0734827	-137,4
     43,2713	   0,0729157	-136,6	   0,0741434	-136,7
     43,2742	   0,0734881	-136,8	   0,0737545	-137,0
     43,2771	   0,0735972	-136,4	   0,0735253	-137,3
     43,2801	   0,0728406	-135,9	   0,0734567	-136,9
      43,283	   0,0725331	-136,3	   0,0736363	-136,7
     43,2859	   0,0719678	-136,3	   0,0729615	-136,7
     43,2889	   0,0724968	-136,2	   0,0725642	-136,0
     43,2918	   0,0719322	-135,9	   0,0724595	-136,6
     43,2947	   0,0720082	-136,5	   0,0720987	-136,0
     43,2977	   0,0713424	-135,9	   0,0718644	-135,9
     43,3006	   0,0711866	-136,0	   0,0718833	-135,8
     43,3035	   0,0710924	-136,0	   0,0712475	-135,6
     43,3064	   0,0711487	-136,5	   0,0708761	-136,1
     43,3094	    0,071142	-136,0	   0,0709029	-135,9
     43,3123	   0,0699104	-136,5	   0,0707675	-136,6
     43,3153	   0,0693893	-135,8	   0,0710232	-135,8
     43,3182	     0,06997	-136,7	   0,0699263	-136,0
     43,3211	   0,0698551	-136,6	   0,0703403	-136,2
      43,324	   0,0697281	-136,4	    0,070133	-136,7
      43,327	   0,0691407	-135,6	   0,0693756	-136,5
     43,3299	   0,0688736	-135,7	   0,0692156	-136,1
     43,3328	   0,0690815	-134,9	   0,0699068	-136,0
     43,3358	   0,0683601	-135,8	   0,0698866	-136,0
     43,3387	   0,0687578	-135,8	   0,0697594	-135,9
     43,3416	   0,0688284	-135,0	   0,0695998	-136,2
     43,3446	   0,0682124	-134,5	   0,0693443	-135,5
     43,3475	    0,068481	-134,9	   0,0692013	-135,7
     43,3504	   0,0683021	-134,9	   0,0689608	-135,3
     43,3534	   0,0681735	-134,9	   0,0686246	-135,8
     43,3563	   0,0685399	-135,5	   0,0681303	-135,2
     43,3592	   0,0683673	-135,0	   0,0680485	-135,2
     43,3622	   0,0675002	-134,6	   0,0677371	-134,8
     43,3651	   0,0668628	-134,7	   0,0671679	-134,8
      43,368	   0,0671877	-135,3	   0,0675605	-134,6
      43,371	    0,067041	-135,2	   0,0670783	-134,8
     43,3739	    0,067365	-135,0	   0,0666527	-134,8
     43,3768	   0,0670658	-135,1	   0,0664795	-134,8
     43,3798	   0,0658021	-134,7	   0,0662658	-134,3
     43,3827	   0,0655151	-134,8	    0,065937	-135,0
     43,3856	   0,0659978	-135,3	   0,0661363	-135,3
     43,3886	   0,0655788	-134,7	   0,0661318	-135,3
     43,3915	   0,0659606	-134,6	   0,0658307	-135,1
     43,3944	    0,065085	-134,1	   0,0646612	-135,3
     43,3974	   0,0647363	-133,8	   0,0649906	-134,6
     43,4003	   0,0652045	-133,7	   0,0652501	-134,7
     43,4032	    0,064599	-134,1	   0,0650703	-134,8
     43,4062	   0,0650339	-134,6	   0,0651872	-134,0
     43,4091	   0,0645036	-134,0	   0,0652979	-134,7
      43,412	   0,0644185	-133,9	   0,0650597	-134,6
      43,415	    0,064448	-134,6	   0,0644192	-134,3
     43,4179	   0,0641778	-134,1	   0,0641358	-133,9
     43,4208	   0,0638299	-134,5	   0,0640778	-133,9
     43,4238	   0,0639667	-134,3	   0,0641444	-134,1
     43,4267	   0,0632312	-134,4	   0,0640988	-134,5
     43,4296	   0,0637054	-134,3	   0,0630566	-135,0
     43,4326	    0,063001	-134,3	   0,0633118	-133,7
     43,4355	   0,0629128	-133,8	   0,0632703	-134,2
     43,4384	   0,0625359	-134,5	   0,0624475	-134,5
     43,4413	   0,0623791	-134,5	   0,0630128	-134,2
     43,4443	   0,0624124	-133,3	   0,0632053	-134,3
     43,4472	   0,0619827	-133,4	   0,0626461	-134,4
     43,4501	   0,0628653	-133,5	   0,0621739	-133,9
     43,4531	   0,0625936	-133,3	    0,062207	-133,8
      43,456	   0,0622892	-133,4	   0,0620773	-133,4
     43,4589	   0,0615658	-133,8	    0,062306	-134,3
     43,4619	   0,0616589	-133,9	     0,06175	-133,0
     43,4648	   0,0617884	-133,2	   0,0614967	-133,6
     43,4677	   0,0615059	-133,3	   0,0610482	-133,3
     43,4707	   0,0613821	-133,0	   0,0610069	-133,9
     43,4736	   0,0604848	-133,8	   0,0611968	-133,1
     43,4765	   0,0601385	-133,7	   0,0609988	-133,6
     43,4795	    0,060362	-133,7	   0,0606238	-133,5
     43,4824	    0,060609	-133,2	   0,0603935	-134,4
     43,4853	   0,0603866	-133,0	   0,0604237	-133,6
     43,4883	   0,0603255	-132,5	   0,0604784	-133,7
     43,4912	   0,0603296	-132,8	    0,060183	-133,4
     43,4941	   0,0604013	-132,9	   0,0598716	-133,1
     43,4971	   0,0601727	-133,3	   0,0597107	-133,0
        43,5	   0,0584733	-132,9	   0,0589431	-132,8

