X-Data [Hz]	Laser (M - Filtered) [m/s]	Phase [Deg]	Laser (M - Filtered) [m/s]	Phase [Deg]	
	002: [07-09-24 13:53]		003: [07-09-24 13:56]	
          42	  0,00981742	83,1	   0,0102984	82,1
      42,002	   0,0100095	83,7	   0,0102617	85,7
     42,0039	   0,0101242	85,2	   0,0102679	84,5
     42,0059	   0,0101916	85,1	   0,0102601	82,6
     42,0078	   0,0102355	84,5	   0,0102549	83,3
     42,0098	   0,0101832	82,9	   0,0103299	82,5
     42,0117	   0,0101241	81,6	   0,0102987	85,0
     42,0137	   0,0101766	83,5	   0,0104761	83,8
     42,0156	   0,0102238	86,0	    0,010472	85,0
     42,0176	   0,0103271	85,9	   0,0104119	82,6
     42,0196	   0,0103433	84,6	   0,0103698	81,6
     42,0215	   0,0104196	82,0	   0,0104562	80,0
     42,0235	   0,0104198	82,3	   0,0104798	83,1
     42,0254	   0,0104093	81,3	    0,010374	83,4
     42,0274	   0,0103468	83,4	   0,0103907	82,4
     42,0293	    0,010358	84,2	   0,0104176	81,5
     42,0313	   0,0103493	82,1	    0,010428	84,2
     42,0332	   0,0104766	83,5	   0,0104926	81,0
     42,0352	   0,0104934	83,5	    0,010517	83,2
     42,0371	   0,0105528	84,8	   0,0105733	84,0
     42,0391	    0,010547	84,7	   0,0106632	81,8
     42,0411	   0,0105591	83,1	   0,0106585	80,8
      42,043	   0,0105537	81,1	   0,0107404	80,9
      42,045	   0,0105228	82,7	   0,0107872	83,6
     42,0469	   0,0105722	84,2	   0,0107836	84,7
     42,0489	   0,0106064	84,0	   0,0107567	84,5
     42,0508	    0,010591	83,7	   0,0107606	83,1
     42,0528	   0,0106841	82,1	   0,0107556	83,7
     42,0547	   0,0106936	81,1	   0,0106875	84,6
     42,0567	   0,0106057	83,0	   0,0107321	84,3
     42,0587	   0,0106279	82,8	   0,0107845	84,6
     42,0606	   0,0106407	86,0	   0,0108259	86,2
     42,0626	   0,0107523	85,0	   0,0109402	82,2
     42,0645	   0,0108515	84,6	   0,0109442	85,0
     42,0665	   0,0108783	82,0	   0,0109885	88,0
     42,0684	   0,0108419	82,4	   0,0110411	85,2
     42,0704	   0,0107398	83,6	   0,0111221	81,5
     42,0723	   0,0107117	87,5	   0,0109619	87,4
     42,0743	   0,0108055	86,7	   0,0109719	84,1
     42,0762	   0,0108869	87,2	    0,010933	84,7
     42,0782	   0,0109343	84,9	   0,0109712	84,4
     42,0802	   0,0109565	82,2	   0,0110113	86,3
     42,0821	   0,0109097	82,2	   0,0110873	85,5
     42,0841	   0,0109141	85,2	   0,0110611	85,0
      42,086	   0,0109447	85,3	   0,0110343	83,2
      42,088	   0,0109909	84,8	   0,0110909	82,3
     42,0899	   0,0110349	83,8	   0,0111039	82,4
     42,0919	    0,011026	85,6	   0,0111738	83,3
     42,0938	   0,0111123	86,3	   0,0112098	85,8
     42,0958	   0,0111414	85,1	   0,0111921	82,2
     42,0978	   0,0110956	84,5	   0,0111909	82,6
     42,0997	   0,0110736	81,6	   0,0112801	83,1
     42,1017	   0,0110503	81,9	   0,0112684	85,1
     42,1036	   0,0111833	85,2	   0,0113815	86,1
     42,1056	   0,0112952	86,8	   0,0113724	85,2
     42,1075	   0,0113748	86,3	   0,0113416	84,7
     42,1095	   0,0112601	86,8	   0,0114149	84,2
     42,1114	   0,0112357	84,6	   0,0114645	85,4
     42,1134	   0,0112887	82,9	   0,0114463	87,1
     42,1153	   0,0112291	84,1	   0,0114438	87,1
     42,1173	   0,0112884	86,5	   0,0114946	86,9
     42,1193	   0,0113361	88,4	   0,0115739	86,1
     42,1212	   0,0113867	88,3	   0,0115188	85,3
     42,1232	   0,0114295	87,1	   0,0115178	84,2
     42,1251	   0,0115104	84,0	   0,0115513	84,1
     42,1271	   0,0115131	83,8	   0,0116055	85,5
      42,129	   0,0114537	86,5	   0,0116153	87,3
      42,131	   0,0114201	85,7	   0,0116389	86,5
     42,1329	   0,0114832	86,0	   0,0116389	85,3
     42,1349	   0,0115111	85,9	   0,0116219	85,4
     42,1369	   0,0115404	86,8	   0,0116673	86,2
     42,1388	   0,0116677	86,4	   0,0117139	86,7
     42,1408	    0,011749	85,4	   0,0117309	85,9
     42,1427	   0,0117011	86,2	   0,0118533	83,4
     42,1447	   0,0117277	87,5	   0,0118504	83,0
     42,1466	   0,0117918	86,2	   0,0119636	84,3
     42,1486	   0,0118315	83,8	   0,0118867	85,1
     42,1505	   0,0118222	84,1	   0,0119375	86,6
     42,1525	   0,0117338	85,0	   0,0119301	88,6
     42,1544	   0,0117709	87,3	   0,0119203	87,1
     42,1564	    0,011777	88,6	    0,011877	86,8
     42,1584	   0,0118372	87,6	   0,0119737	87,8
     42,1603	   0,0118342	88,1	   0,0119447	86,4
     42,1623	   0,0119495	86,4	   0,0119501	86,3
     42,1642	   0,0119216	85,7	   0,0119471	87,1
     42,1662	   0,0119595	85,3	   0,0119855	87,3
     42,1681	   0,0119805	86,2	   0,0121457	86,5
     42,1701	   0,0120136	86,4	   0,0122562	87,2
      42,172	   0,0120378	87,5	   0,0122648	86,0
      42,174	   0,0120609	88,8	    0,012251	84,7
      42,176	   0,0121264	87,6	   0,0122055	88,9
     42,1779	   0,0121768	83,7	   0,0122698	87,7
     42,1799	   0,0121372	84,2	    0,012249	86,2
     42,1818	   0,0120949	85,7	   0,0122754	84,5
     42,1838	   0,0121667	87,1	   0,0122789	84,7
     42,1857	   0,0121954	85,5	   0,0123036	85,6
     42,1877	   0,0122035	85,6	   0,0124054	86,4
     42,1896	   0,0122727	84,7	   0,0124566	88,7
     42,1916	   0,0123043	86,6	   0,0124898	89,0
     42,1936	   0,0124039	89,8	   0,0125709	88,8
     42,1955	   0,0124414	89,4	   0,0126056	88,8
     42,1975	   0,0124288	88,7	   0,0125817	88,1
     42,1994	   0,0124328	89,4	   0,0126417	85,4
     42,2014	   0,0124358	86,8	   0,0126286	85,3
     42,2033	   0,0124696	87,0	   0,0126878	90,7
     42,2053	   0,0124553	87,7	   0,0126497	88,0
     42,2072	   0,0124511	89,5	   0,0126761	88,5
     42,2092	   0,0125311	89,0	    0,012731	86,2
     42,2111	   0,0126061	89,8	   0,0127513	86,4
     42,2131	   0,0126368	87,3	   0,0127694	87,7
     42,2151	   0,0126328	85,1	   0,0128358	89,2
      42,217	   0,0126961	86,6	   0,0128771	88,0
      42,219	   0,0126409	88,1	   0,0129276	87,4
     42,2209	   0,0126692	86,6	   0,0129602	86,5
     42,2229	   0,0126998	88,3	   0,0129864	86,5
     42,2248	    0,012757	90,5	   0,0130252	86,1
     42,2268	   0,0128498	90,2	   0,0130166	89,5
     42,2287	   0,0128439	88,6	   0,0130926	90,4
     42,2307	    0,012815	85,8	   0,0130762	90,6
     42,2327	    0,012842	82,0	   0,0131002	89,3
     42,2346	   0,0128382	89,4	   0,0131754	87,7
     42,2366	   0,0129743	93,0	   0,0131755	88,4
     42,2385	   0,0130133	91,4	   0,0131863	88,9
     42,2405	   0,0130367	90,0	   0,0132369	88,6
     42,2424	   0,0130646	88,5	   0,0132579	89,0
     42,2444	   0,0130159	88,7	   0,0133149	88,9
     42,2463	   0,0130961	90,1	   0,0134052	89,2
     42,2483	   0,0131317	90,2	    0,013504	86,7
     42,2502	   0,0131993	89,4	   0,0135075	87,7
     42,2522	   0,0131952	88,6	   0,0134241	86,9
     42,2542	   0,0132634	87,3	   0,0133974	88,5
     42,2561	     0,01324	87,7	   0,0134752	88,5
     42,2581	   0,0132904	88,8	   0,0135467	90,1
       42,26	   0,0133683	89,8	   0,0136772	88,4
      42,262	   0,0134354	90,0	   0,0136919	87,4
     42,2639	   0,0134074	91,3	   0,0136465	89,3
     42,2659	   0,0133787	92,9	   0,0136763	89,8
     42,2678	   0,0134637	89,8	   0,0136198	92,8
     42,2698	   0,0134053	90,5	   0,0137507	91,9
     42,2718	   0,0135071	88,9	   0,0137544	90,5
     42,2737	   0,0135677	88,7	   0,0138028	91,6
     42,2757	   0,0135587	87,3	   0,0138668	88,8
     42,2776	   0,0136009	89,0	   0,0139069	87,7
     42,2796	   0,0136425	91,0	   0,0139832	87,2
     42,2815	   0,0136484	91,6	   0,0140691	88,6
     42,2835	   0,0137285	91,3	    0,014137	91,1
     42,2854	   0,0137256	91,0	   0,0141872	90,5
     42,2874	   0,0138354	90,1	    0,014093	92,6
     42,2893	   0,0138992	92,0	    0,014167	90,3
     42,2913	   0,0139496	91,4	   0,0141546	89,6
     42,2933	    0,013951	93,2	   0,0141284	90,0
     42,2952	   0,0139294	92,1	   0,0142694	90,1
     42,2972	   0,0139589	91,4	   0,0143331	92,3
     42,2991	   0,0140732	91,0	    0,014364	93,4
     42,3011	   0,0141484	89,9	   0,0143725	91,7
      42,303	   0,0141094	89,6	   0,0144614	91,1
      42,305	   0,0140848	89,6	   0,0145216	90,3
     42,3069	   0,0140603	90,9	   0,0146248	89,3
     42,3089	   0,0140763	92,9	    0,014513	91,4
     42,3109	   0,0141953	94,3	   0,0145103	91,6
     42,3128	   0,0142675	90,8	   0,0146372	92,3
     42,3148	   0,0142462	90,0	   0,0147178	91,6
     42,3167	   0,0142911	91,9	   0,0147702	90,7
     42,3187	   0,0143426	93,0	   0,0147516	90,3
     42,3206	   0,0144414	93,3	   0,0146952	90,8
     42,3226	   0,0144715	93,4	   0,0148086	92,0
     42,3245	   0,0145063	93,1	   0,0148783	91,3
     42,3265	    0,014525	93,5	   0,0149143	94,4
     42,3284	   0,0145528	92,6	   0,0149548	94,1
     42,3304	   0,0145318	92,7	   0,0149881	93,9
     42,3324	   0,0146526	91,2	   0,0150643	92,1
     42,3343	   0,0146961	90,7	   0,0150777	92,4
     42,3363	   0,0147739	91,7	   0,0150825	90,5
     42,3382	   0,0148514	93,0	   0,0151624	90,1
     42,3402	   0,0148141	93,3	   0,0151853	94,2
     42,3421	    0,014805	92,2	   0,0152144	93,1
     42,3441	   0,0147844	92,3	   0,0152505	93,2
      42,346	   0,0148325	93,5	   0,0153564	91,6
      42,348	   0,0149597	92,5	   0,0154471	91,7
       42,35	   0,0149854	91,9	   0,0154685	92,4
     42,3519	   0,0150549	93,2	   0,0155458	92,7
     42,3539	   0,0150742	92,8	   0,0155886	94,0
     42,3558	   0,0151737	93,9	   0,0156476	96,6
     42,3578	   0,0152049	91,8	   0,0156661	95,8
     42,3597	   0,0152452	91,8	   0,0157274	94,8
     42,3617	   0,0152443	92,0	   0,0157459	94,4
     42,3636	   0,0153214	93,1	   0,0158818	92,8
     42,3656	   0,0153219	94,7	   0,0158792	92,6
     42,3675	   0,0154193	97,1	   0,0158846	93,0
     42,3695	   0,0155683	94,9	   0,0158915	93,7
     42,3715	   0,0155434	96,7	   0,0159235	95,6
     42,3734	   0,0155953	95,5	   0,0159919	95,7
     42,3754	   0,0155615	94,4	   0,0160157	96,7
     42,3773	   0,0156305	91,5	   0,0161029	97,9
     42,3793	   0,0156544	91,7	   0,0161507	95,8
     42,3812	   0,0156143	93,3	   0,0162432	93,9
     42,3832	   0,0156986	94,1	   0,0163388	97,2
     42,3851	   0,0157287	96,3	   0,0163804	92,4
     42,3871	    0,015778	97,7	   0,0163887	97,2
     42,3891	   0,0159065	97,3	   0,0164174	95,3
      42,391	   0,0160503	98,5	   0,0164394	94,3
      42,393	   0,0161048	95,5	   0,0165202	93,8
     42,3949	   0,0160489	94,5	   0,0165238	94,4
     42,3969	   0,0160376	94,2	   0,0166078	95,0
     42,3988	     0,01605	97,4	    0,016671	94,8
     42,4008	    0,016073	97,7	   0,0166946	96,7
     42,4027	   0,0160649	97,3	   0,0167975	97,1
     42,4047	    0,016189	96,0	   0,0168635	99,5
     42,4066	   0,0162899	95,9	   0,0169371	97,9
     42,4086	   0,0163475	94,5	   0,0169985	96,6
     42,4106	   0,0164554	94,8	   0,0170659	94,9
     42,4125	   0,0165337	94,6	   0,0170926	94,3
     42,4145	   0,0165715	97,0	    0,017146	95,3
     42,4164	   0,0166425	97,2	    0,017177	96,1
     42,4184	   0,0167149	98,0	   0,0172604	97,4
     42,4203	   0,0167364	98,0	   0,0173377	99,3
     42,4223	   0,0167144	98,4	   0,0173447	98,6
     42,4242	   0,0168152	97,4	   0,0173115	99,4
     42,4262	   0,0168457	96,6	   0,0173424	99,1
     42,4282	    0,016845	95,4	   0,0174054	97,4
     42,4301	   0,0168144	96,9	   0,0175043	97,1
     42,4321	   0,0168834	97,2	   0,0176077	96,0
      42,434	   0,0169596	97,2	   0,0176873	98,3
      42,436	   0,0170094	99,0	   0,0177672	98,0
     42,4379	   0,0170798	99,5	   0,0178301	99,5
     42,4399	   0,0171498	100,5	   0,0178711	99,0
     42,4418	   0,0171513	100,4	   0,0179006	99,5
     42,4438	   0,0173118	97,4	   0,0180812	97,5
     42,4457	   0,0174201	97,2	   0,0181151	99,4
     42,4477	   0,0174748	97,0	   0,0180581	98,4
     42,4497	   0,0174759	98,9	   0,0181194	98,1
     42,4516	   0,0174868	101,0	   0,0182222	98,9
     42,4536	     0,01756	100,7	   0,0182061	96,9
     42,4555	   0,0176767	102,2	   0,0183342	100,3
     42,4575	   0,0177507	101,8	   0,0184477	99,6
     42,4594	   0,0178298	100,0	    0,018485	97,0
     42,4614	   0,0179629	99,6	   0,0185195	97,5
     42,4633	   0,0179954	100,0	   0,0185236	98,9
     42,4653	   0,0179379	98,1	   0,0185935	100,1
     42,4673	   0,0179764	98,9	   0,0186198	102,7
     42,4692	   0,0180037	99,8	   0,0187193	101,9
     42,4712	   0,0180322	100,9	   0,0188753	103,5
     42,4731	   0,0181136	102,7	   0,0189106	102,5
     42,4751	   0,0181869	103,1	   0,0189301	101,7
      42,477	   0,0182739	105,2	    0,018977	100,6
      42,479	   0,0183944	100,7	   0,0190568	99,9
     42,4809	   0,0184522	101,7	   0,0191822	100,2
     42,4829	   0,0185675	100,5	   0,0192085	100,5
     42,4848	   0,0185313	102,7	   0,0192289	101,6
     42,4868	   0,0186164	102,1	   0,0193303	102,2
     42,4888	   0,0186603	101,7	   0,0194111	103,3
     42,4907	   0,0187483	102,9	   0,0194682	104,3
     42,4927	   0,0187049	103,1	   0,0195122	103,5
     42,4946	   0,0187549	103,9	   0,0196133	104,9
     42,4966	   0,0188301	103,2	   0,0196958	102,0
     42,4985	    0,018915	102,9	   0,0198079	102,8
     42,5005	   0,0190268	103,0	   0,0199662	102,9
     42,5024	   0,0190829	102,2	   0,0199587	102,7
     42,5044	   0,0190872	101,3	    0,020103	103,3
     42,5064	   0,0191735	102,2	   0,0201728	103,3
     42,5083	   0,0192504	103,5	    0,020243	104,0
     42,5103	   0,0193465	104,3	   0,0203412	105,6
     42,5122	   0,0194437	105,4	   0,0203688	104,7
     42,5142	   0,0195452	106,7	   0,0203786	103,5
     42,5161	   0,0196306	106,1	   0,0204348	102,5
     42,5181	   0,0196757	106,0	   0,0205047	104,9
       42,52	   0,0197358	103,5	   0,0205551	103,5
      42,522	   0,0197265	103,0	   0,0206385	104,8
     42,5239	   0,0197911	102,0	   0,0206872	106,4
     42,5259	   0,0198569	105,7	   0,0208243	107,4
     42,5279	   0,0198856	106,3	   0,0208728	108,5
     42,5298	   0,0199804	105,5	   0,0208903	108,2
     42,5318	   0,0199579	105,8	   0,0209631	108,5
     42,5337	   0,0200256	105,7	   0,0210189	106,4
     42,5357	    0,020108	105,3	   0,0210872	103,6
     42,5376	    0,020131	106,2	   0,0211938	104,3
     42,5396	   0,0201976	105,9	   0,0213286	105,6
     42,5415	   0,0203184	105,5	   0,0214091	106,4
     42,5435	   0,0204436	106,6	   0,0215387	106,9
     42,5455	   0,0205141	105,8	   0,0215775	110,4
     42,5474	    0,020531	107,9	   0,0216959	108,7
     42,5494	   0,0206319	109,8	    0,021791	110,1
     42,5513	   0,0206944	110,1	   0,0218467	109,5
     42,5533	   0,0208182	110,2	   0,0219256	108,5
     42,5552	   0,0209336	111,7	   0,0219557	107,8
     42,5572	   0,0210051	110,2	    0,022031	107,7
     42,5591	   0,0210658	108,1	   0,0221322	107,6
     42,5611	   0,0209871	107,2	   0,0221175	108,5
      42,563	   0,0210526	108,2	   0,0223072	113,0
      42,565	   0,0211623	109,0	   0,0223579	113,0
      42,567	   0,0212482	110,0	   0,0224413	113,2
     42,5689	   0,0213258	111,7	   0,0225129	111,3
     42,5709	   0,0214433	112,1	   0,0226359	111,3
     42,5728	   0,0215868	112,7	   0,0226668	111,4
     42,5748	   0,0216477	111,4	   0,0227258	110,3
     42,5767	   0,0216764	110,6	   0,0227746	111,2
     42,5787	   0,0217332	108,8	   0,0228198	111,4
     42,5806	   0,0217578	110,0	   0,0229777	112,0
     42,5826	   0,0218924	108,8	   0,0230232	112,5
     42,5846	    0,021906	111,3	   0,0230709	114,1
     42,5865	   0,0219666	111,8	    0,023124	112,5
     42,5885	   0,0220979	112,5	   0,0232355	113,7
     42,5904	   0,0221547	113,4	   0,0233925	112,8
     42,5924	   0,0223025	112,7	   0,0235241	114,9
     42,5943	   0,0223767	113,3	   0,0235923	115,1
     42,5963	   0,0224034	114,9	   0,0236904	112,6
     42,5982	   0,0224316	113,7	   0,0237062	112,4
     42,6002	   0,0225965	111,3	   0,0238253	114,9
     42,6021	   0,0226562	112,5	   0,0239336	116,3
     42,6041	   0,0226715	113,5	   0,0239967	116,8
     42,6061	   0,0228066	114,8	   0,0240505	117,0
      42,608	   0,0228927	115,9	   0,0241283	117,2
       42,61	   0,0229447	114,4	   0,0242589	117,2
     42,6119	   0,0231517	116,5	   0,0244196	118,2
     42,6139	   0,0232227	116,4	   0,0244895	117,3
     42,6158	   0,0232304	117,0	   0,0245248	116,3
     42,6178	   0,0232955	116,7	   0,0246271	117,5
     42,6197	   0,0234742	117,6	   0,0246563	115,7
     42,6217	   0,0235308	116,9	   0,0247166	115,7
     42,6237	   0,0235904	116,6	   0,0248197	116,1
     42,6256	   0,0236845	115,4	   0,0249729	116,2
     42,6276	   0,0237883	115,2	   0,0250454	117,3
     42,6295	   0,0238617	114,8	   0,0251086	120,7
     42,6315	   0,0239079	115,3	    0,025199	121,6
     42,6334	   0,0239838	117,4	   0,0252793	121,9
     42,6354	   0,0240917	118,4	   0,0252971	122,1
     42,6373	     0,02413	120,0	   0,0253752	120,9
     42,6393	   0,0242369	121,0	   0,0254859	117,6
     42,6413	   0,0243442	121,0	   0,0255785	118,5
     42,6432	   0,0244761	119,4	   0,0256378	119,3
     42,6452	   0,0244933	117,7	   0,0257733	118,8
     42,6471	   0,0246124	117,6	   0,0258775	122,0
     42,6491	   0,0246165	117,3	   0,0259633	124,4
      42,651	   0,0246755	118,7	   0,0259809	124,7
      42,653	   0,0248082	119,9	   0,0260246	123,8
     42,6549	   0,0249758	120,1	   0,0260865	125,1
     42,6569	   0,0250099	120,9	   0,0261671	125,0
     42,6588	   0,0250494	120,3	   0,0262963	125,6
     42,6608	   0,0250447	122,0	   0,0263327	124,6
     42,6628	   0,0251113	122,0	   0,0264025	124,5
     42,6647	   0,0252692	123,3	   0,0264251	125,7
     42,6667	   0,0253905	123,0	   0,0264735	125,6
     42,6686	   0,0254814	123,7	    0,026572	125,6
     42,6706	   0,0255804	124,0	   0,0266069	128,7
     42,6725	   0,0256674	122,5	   0,0266932	126,9
     42,6745	   0,0257103	124,0	   0,0267428	127,0
     42,6764	   0,0257365	124,0	   0,0267653	127,1
     42,6784	   0,0258029	123,4	   0,0268644	128,1
     42,6804	   0,0258047	124,8	   0,0269635	128,6
     42,6823	   0,0259122	126,2	   0,0270494	130,2
     42,6843	   0,0259491	127,9	   0,0270968	129,7
     42,6862	   0,0261056	129,1	   0,0271423	128,4
     42,6882	   0,0262499	130,2	    0,027212	126,6
     42,6901	   0,0263698	129,0	   0,0272389	128,5
     42,6921	   0,0263992	127,4	   0,0273395	127,1
      42,694	   0,0264735	127,4	   0,0274057	129,7
      42,696	   0,0264955	126,7	   0,0274117	131,1
     42,6979	   0,0265698	129,0	   0,0274244	131,5
     42,6999	   0,0266509	128,5	   0,0275335	130,1
     42,7019	    0,026714	128,1	   0,0275344	132,5
     42,7038	   0,0267849	128,9	   0,0276343	132,1
     42,7058	    0,026815	127,4	   0,0276936	131,2
     42,7077	   0,0269247	128,3	   0,0277425	132,8
     42,7097	   0,0269818	129,5	   0,0277535	131,9
     42,7116	   0,0270917	131,4	   0,0277768	132,0
     42,7136	   0,0271065	132,4	   0,0278681	133,2
     42,7155	   0,0271351	133,6	   0,0279064	133,3
     42,7175	   0,0271791	133,1	   0,0279482	133,9
     42,7195	   0,0272127	132,7	   0,0280783	134,0
     42,7214	   0,0272321	132,7	   0,0281414	134,4
     42,7234	   0,0273305	134,7	    0,028213	134,3
     42,7253	   0,0273632	131,3	   0,0282466	138,0
     42,7273	   0,0274165	132,5	   0,0282526	139,5
     42,7292	   0,0275313	132,9	   0,0282992	137,9
     42,7312	   0,0275728	133,8	    0,028316	138,9
     42,7331	   0,0276442	134,3	   0,0283669	138,9
     42,7351	   0,0276868	134,2	   0,0283244	138,9
      42,737	   0,0277592	135,5	   0,0283518	138,7
      42,739	   0,0278105	136,8	   0,0284003	140,0
      42,741	   0,0278686	137,8	   0,0284542	140,4
     42,7429	   0,0279284	139,9	   0,0284261	140,0
     42,7449	   0,0279501	141,7	   0,0285149	137,5
     42,7468	    0,027986	141,3	   0,0285094	141,4
     42,7488	   0,0280161	138,4	   0,0284305	140,2
     42,7507	   0,0280244	137,9	   0,0284955	143,1
     42,7527	   0,0281521	139,8	   0,0286274	142,4
     42,7546	   0,0281702	140,8	   0,0286556	143,2
     42,7566	   0,0281615	141,0	    0,028573	146,3
     42,7586	   0,0282421	140,7	   0,0286405	144,2
     42,7605	   0,0283005	139,8	   0,0286708	143,5
     42,7625	    0,028324	138,9	   0,0286437	144,2
     42,7644	   0,0283442	139,4	   0,0287458	144,8
     42,7664	   0,0283476	139,2	   0,0287347	146,0
     42,7683	    0,028308	142,4	   0,0287696	145,4
     42,7703	   0,0283606	143,5	   0,0288067	145,6
     42,7722	   0,0283747	145,6	   0,0288521	143,9
     42,7742	   0,0284591	145,4	   0,0288997	145,2
     42,7761	   0,0285314	145,7	   0,0289869	142,8
     42,7781	   0,0285798	144,5	    0,028922	145,5
     42,7801	   0,0285898	143,6	   0,0289002	146,1
      42,782	   0,0286213	144,6	   0,0288556	149,0
      42,784	   0,0286739	143,0	   0,0288401	150,0
     42,7859	   0,0286576	145,9	   0,0288046	149,9
     42,7879	   0,0287132	146,7	    0,028864	149,7
     42,7898	   0,0287454	145,0	   0,0288963	149,9
     42,7918	   0,0287542	143,7	   0,0288841	148,9
     42,7937	   0,0287362	145,7	   0,0289168	149,0
     42,7957	   0,0287699	146,7	   0,0289243	150,3
     42,7977	   0,0287746	147,9	   0,0288575	149,8
     42,7996	   0,0288428	146,4	   0,0288845	150,2
     42,8016	   0,0288115	148,4	    0,028915	150,7
     42,8035	    0,028891	150,5	   0,0288863	149,0
     42,8055	   0,0289383	150,5	   0,0288844	147,0
     42,8074	    0,028878	150,4	   0,0288027	150,9
     42,8094	   0,0289032	151,6	   0,0287465	152,0
     42,8113	    0,028927	153,4	   0,0287484	152,4
     42,8133	   0,0289239	152,8	   0,0287645	155,9
     42,8153	   0,0289535	153,0	   0,0287684	156,6
     42,8172	   0,0289821	151,0	   0,0287847	155,1
     42,8192	   0,0289674	150,8	   0,0287353	153,3
     42,8211	   0,0289009	151,2	   0,0287374	153,6
     42,8231	    0,028887	151,9	   0,0287037	154,8
      42,825	   0,0288299	152,6	     0,02874	154,4
      42,827	   0,0288469	153,3	   0,0286742	155,4
     42,8289	   0,0287821	151,6	   0,0285919	156,3
     42,8309	   0,0287605	152,5	   0,0285411	154,1
     42,8328	    0,028708	151,4	   0,0285339	154,5
     42,8348	   0,0287073	155,1	   0,0285709	154,1
     42,8368	   0,0287455	155,8	   0,0285177	154,6
     42,8387	   0,0287228	156,2	   0,0285106	157,9
     42,8407	   0,0287182	155,0	   0,0284474	157,7
     42,8426	   0,0286555	155,9	   0,0284629	156,3
     42,8446	    0,028625	155,9	   0,0284701	156,4
     42,8465	   0,0286704	158,2	   0,0283784	158,8
     42,8485	    0,028629	158,8	   0,0283378	159,5
     42,8504	   0,0285588	159,4	   0,0282461	161,5
     42,8524	      0,0285	159,5	   0,0282025	162,1
     42,8544	   0,0285998	159,0	   0,0281226	161,3
     42,8563	   0,0285837	160,3	   0,0281303	160,5
     42,8583	   0,0286291	158,6	   0,0280627	160,6
     42,8602	   0,0285769	161,7	   0,0280322	160,9
     42,8622	   0,0285943	162,6	   0,0279953	160,4
     42,8641	   0,0285639	160,7	   0,0279456	162,7
     42,8661	   0,0284575	161,5	   0,0279265	162,5
      42,868	   0,0284654	158,9	   0,0278708	162,5
       42,87	   0,0283793	160,3	   0,0278441	161,2
     42,8719	   0,0283556	160,5	   0,0278739	160,9
     42,8739	   0,0283198	163,3	   0,0278325	160,6
     42,8759	   0,0282374	165,7	   0,0278137	162,7
     42,8778	   0,0282394	166,1	   0,0277491	163,9
     42,8798	   0,0282093	165,2	   0,0276972	164,6
     42,8817	    0,028198	163,6	   0,0276575	162,9
     42,8837	   0,0281439	164,4	   0,0276497	163,8
     42,8856	   0,0280402	168,3	   0,0275409	166,0
     42,8876	   0,0280551	166,8	   0,0275171	166,1
     42,8895	   0,0280478	167,7	   0,0274147	166,9
     42,8915	   0,0280551	166,8	   0,0273796	169,5
     42,8935	   0,0279855	167,7	   0,0273345	170,5
     42,8954	   0,0278832	165,6	    0,027354	167,1
     42,8974	   0,0278412	166,5	   0,0272589	166,3
     42,8993	   0,0278045	169,2	   0,0272219	166,1
     42,9013	   0,0278117	168,1	   0,0271881	167,2
     42,9032	   0,0278006	167,4	    0,027133	168,7
     42,9052	    0,027803	167,1	   0,0271128	167,9
     42,9071	    0,027742	167,5	   0,0270828	167,9
     42,9091	   0,0276139	169,5	   0,0270056	167,9
      42,911	   0,0274995	169,1	   0,0270141	167,1
      42,913	   0,0274596	169,9	   0,0269421	169,9
      42,915	   0,0274476	170,0	    0,026878	169,6
     42,9169	   0,0273659	168,9	   0,0268781	167,9
     42,9189	   0,0273266	170,2	   0,0268117	170,5
     42,9208	   0,0272782	169,8	   0,0267398	167,9
     42,9228	   0,0272108	171,8	   0,0266342	169,7
     42,9247	   0,0271331	174,5	   0,0265277	172,8
     42,9267	   0,0271131	173,3	   0,0264385	172,0
     42,9286	   0,0270416	173,9	    0,026428	174,4
     42,9306	   0,0270365	172,5	    0,026413	172,4
     42,9326	   0,0270469	173,7	   0,0263435	170,7
     42,9345	   0,0270073	175,2	    0,026182	173,7
     42,9365	    0,026958	174,8	   0,0261642	173,0
     42,9384	   0,0269496	174,0	   0,0260861	172,4
     42,9404	   0,0268633	174,7	   0,0260435	174,8
     42,9423	   0,0267053	175,8	   0,0260169	175,0
     42,9443	   0,0266992	174,5	    0,025929	173,7
     42,9462	   0,0266229	175,9	   0,0259526	173,1
     42,9482	   0,0265878	177,4	   0,0258123	173,1
     42,9501	   0,0265424	176,6	   0,0257547	173,9
     42,9521	   0,0264838	174,0	   0,0256876	174,6
     42,9541	   0,0263543	176,5	   0,0256346	175,9
      42,956	   0,0263093	177,2	   0,0255728	174,7
      42,958	   0,0262475	175,6	   0,0255497	173,9
     42,9599	   0,0261904	176,0	    0,025488	173,5
     42,9619	   0,0260857	176,9	    0,025336	175,3
     42,9638	   0,0260598	174,5	   0,0252756	177,2
     42,9658	   0,0259725	175,5	   0,0252302	174,7
     42,9677	   0,0258904	176,9	    0,025071	175,8
     42,9697	   0,0258037	177,5	    0,025045	179,3
     42,9717	   0,0257223	178,8	   0,0249736	179,1
     42,9736	   0,0256775	178,3	    0,024981	179,0
     42,9756	   0,0255981	177,0	   0,0248605	179,5
     42,9775	   0,0254876	176,6	   0,0248148	181,5
     42,9795	   0,0254086	180,4	    0,024747	180,2
     42,9814	   0,0252968	180,5	   0,0247137	180,6
     42,9834	    0,025232	179,9	   0,0246794	181,0
     42,9853	   0,0252245	180,3	     0,02465	180,8
     42,9873	   0,0252271	179,4	   0,0246461	181,5
     42,9892	   0,0251363	179,2	   0,0245517	183,0
     42,9912	   0,0250965	181,3	   0,0244126	181,8
     42,9932	   0,0249974	183,0	   0,0243846	178,0
     42,9951	   0,0248881	182,5	    0,024256	180,7
     42,9971	   0,0248793	182,3	   0,0242398	180,2
      42,999	   0,0247605	181,8	   0,0241786	182,4
      43,001	   0,0246757	183,9	   0,0241018	181,8
     43,0029	   0,0245421	182,9	   0,0240139	181,2
     43,0049	   0,0245291	184,3	   0,0239588	179,8
     43,0068	   0,0244529	184,4	   0,0238634	181,1
     43,0088	   0,0244409	181,1	   0,0237802	182,1
     43,0108	   0,0243423	182,6	   0,0236674	182,3
     43,0127	   0,0243017	183,1	   0,0236872	181,8
     43,0147	   0,0242564	184,2	   0,0236216	183,5
     43,0166	   0,0242178	184,0	   0,0236063	181,2
     43,0186	   0,0241906	184,2	   0,0235323	182,7
     43,0205	   0,0241485	182,9	   0,0234845	184,6
     43,0225	   0,0240508	182,5	   0,0234539	184,7
     43,0244	   0,0240031	184,9	    0,023472	181,3
     43,0264	   0,0239415	184,7	   0,0232979	186,7
     43,0283	   0,0238016	184,5	   0,0232035	185,1
     43,0303	   0,0238192	182,9	   0,0231429	187,0
     43,0323	   0,0237252	183,3	   0,0230217	187,4
     43,0342	   0,0236585	187,3	   0,0229361	187,3
     43,0362	   0,0234829	185,7	   0,0228596	186,4
     43,0381	   0,0234145	186,9	   0,0227537	186,1
     43,0401	   0,0233424	186,1	   0,0227245	188,3
      43,042	   0,0232892	187,2	   0,0226058	188,5
      43,044	   0,0232094	186,5	   0,0225338	190,1
     43,0459	   0,0231588	188,0	   0,0224621	189,3
     43,0479	   0,0231116	189,2	   0,0224871	188,5
     43,0499	   0,0230629	189,1	   0,0225072	187,8
     43,0518	   0,0230033	189,0	    0,022497	190,4
     43,0538	   0,0229711	188,9	   0,0223863	191,9
     43,0557	   0,0229137	188,1	   0,0222984	189,4
     43,0577	   0,0228111	190,0	   0,0221979	188,5
     43,0596	   0,0226896	191,0	   0,0221026	186,9
     43,0616	   0,0226165	189,0	   0,0220655	187,1
     43,0635	   0,0225883	189,4	   0,0219755	186,6
     43,0655	   0,0224683	189,8	   0,0219347	189,0
     43,0674	    0,022419	191,7	    0,021871	189,5
     43,0694	   0,0223421	193,1	   0,0217505	187,7
     43,0714	    0,022306	192,0	   0,0216765	187,6
     43,0733	   0,0221765	191,1	   0,0216044	186,8
     43,0753	    0,022094	192,2	   0,0215862	187,9
     43,0772	   0,0219864	192,2	   0,0215506	190,3
     43,0792	   0,0218914	193,1	   0,0215023	187,3
     43,0811	    0,021891	192,3	   0,0214528	187,5
     43,0831	   0,0217996	191,5	   0,0213397	186,5
      43,085	   0,0217796	192,1	   0,0213099	188,3
      43,087	   0,0217376	191,7	   0,0211986	190,0
      43,089	   0,0217281	190,2	   0,0211233	190,6
     43,0909	   0,0216524	193,4	   0,0211398	188,9
     43,0929	    0,021553	192,5	   0,0210646	188,8
     43,0948	    0,021507	191,2	   0,0210302	189,1
     43,0968	   0,0214541	192,4	   0,0209306	190,7
     43,0987	   0,0213764	194,0	   0,0208109	192,3
     43,1007	   0,0212504	196,0	   0,0207803	191,6
     43,1026	   0,0211497	194,7	   0,0207326	191,2
     43,1046	   0,0210835	193,8	   0,0206983	190,8
     43,1065	   0,0209671	193,7	   0,0206373	192,0
     43,1085	    0,020929	194,8	   0,0205438	193,6
     43,1105	   0,0208798	195,4	   0,0204934	192,3
     43,1124	   0,0208569	195,4	   0,0204351	191,5
     43,1144	   0,0207861	194,7	   0,0203338	191,7
     43,1163	   0,0207183	194,4	   0,0202496	194,6
     43,1183	   0,0207587	194,9	   0,0201546	195,3
     43,1202	   0,0206518	196,4	   0,0201667	194,9
     43,1222	   0,0205171	197,5	   0,0200492	195,2
     43,1241	   0,0204177	195,4	   0,0200541	194,0
     43,1261	   0,0203784	196,6	   0,0199809	195,9
     43,1281	   0,0203461	198,4	    0,019893	197,3
       43,13	   0,0201976	197,6	   0,0198287	196,5
      43,132	   0,0201277	195,5	     0,01979	195,8
     43,1339	   0,0200287	195,6	   0,0197454	194,8
     43,1359	   0,0199982	194,7	   0,0197071	197,0
     43,1378	   0,0199958	193,7	   0,0196781	197,7
     43,1398	   0,0198825	194,4	   0,0196331	197,5
     43,1417	   0,0198297	195,9	   0,0196052	196,1
     43,1437	   0,0197479	195,6	    0,019487	196,6
     43,1456	   0,0197302	195,6	   0,0194636	197,1
     43,1476	   0,0196774	194,9	   0,0193215	198,7
     43,1496	   0,0196499	196,8	   0,0192543	198,5
     43,1515	    0,019547	197,3	   0,0191433	197,6
     43,1535	   0,0194629	196,9	    0,019168	196,8
     43,1554	   0,0193911	196,1	   0,0191227	196,4
     43,1574	   0,0192947	196,7	   0,0190397	198,7
     43,1593	   0,0191876	198,4	   0,0190099	-159,6
     43,1613	   0,0191584	198,2	   0,0189362	-159,6
     43,1632	   0,0191108	195,5	   0,0188285	-162,5
     43,1652	   0,0191046	195,7	   0,0187396	-161,7
     43,1672	   0,0189709	197,2	   0,0186388	-160,7
     43,1691	       0,019	199,5	   0,0186031	-157,2
     43,1711	   0,0189085	199,8	    0,018576	-158,6
      43,173	   0,0188568	198,4	   0,0185198	-160,4
      43,175	   0,0188407	197,2	   0,0185689	-160,0
     43,1769	   0,0188424	198,2	   0,0185116	-159,2
     43,1789	   0,0186958	199,9	   0,0184202	-158,3
     43,1808	   0,0186644	-159,5	   0,0182815	-160,3
     43,1828	   0,0185652	-161,2	   0,0182742	-162,5
     43,1847	   0,0184948	-161,1	    0,018273	-160,2
     43,1867	   0,0184002	-161,4	   0,0181718	-161,0
     43,1887	   0,0183661	-162,0	   0,0181314	-158,5
     43,1906	    0,018348	-159,9	   0,0180653	-159,3
     43,1926	    0,018283	-158,7	   0,0180262	-160,4
     43,1945	   0,0182213	-161,5	   0,0179868	-160,1
     43,1965	   0,0181727	-161,2	   0,0178413	-159,1
     43,1984	   0,0181819	-159,5	   0,0177685	-157,0
     43,2004	   0,0181555	-157,3	   0,0177332	-158,2
     43,2023	   0,0180752	-158,7	   0,0177149	-157,6
     43,2043	   0,0179779	-159,4	   0,0176151	-159,4
     43,2063	   0,0178908	-160,7	   0,0175501	-157,2
     43,2082	   0,0177374	-160,5	   0,0175448	-155,7
     43,2102	   0,0177479	-158,1	   0,0175095	-158,2
     43,2121	   0,0177668	-157,7	    0,017564	-157,8
     43,2141	   0,0176691	-161,9	   0,0174906	-163,7
      43,216	   0,0176596	-160,0	   0,0174031	-160,1
      43,218	   0,0175798	-158,9	   0,0172768	-158,0
     43,2199	   0,0175452	-157,1	   0,0172326	-156,2
     43,2219	   0,0175114	-159,0	   0,0171936	-158,1
     43,2239	   0,0174404	-159,6	   0,0171442	-159,6
     43,2258	   0,0174103	-158,1	   0,0170538	-159,2
     43,2278	   0,0173617	-155,5	   0,0170721	-156,1
     43,2297	   0,0172933	-157,2	   0,0170222	-157,1
     43,2317	   0,0172766	-157,3	   0,0169744	-159,1
     43,2336	   0,0172137	-156,7	   0,0169083	-157,8
     43,2356	   0,0171129	-157,5	   0,0168031	-154,2
     43,2375	   0,0169991	-158,1	    0,016799	-154,5
     43,2395	   0,0169875	-156,1	   0,0167946	-155,9
     43,2414	   0,0169317	-157,6	   0,0167366	-156,8
     43,2434	   0,0168696	-157,5	    0,016602	-155,9
     43,2454	   0,0168034	-156,7	   0,0165938	-153,4
     43,2473	   0,0166768	-155,6	    0,016522	-152,8
     43,2493	   0,0165917	-157,0	   0,0164919	-155,1
     43,2512	   0,0165616	-156,0	   0,0164594	-154,3
     43,2532	   0,0165263	-157,7	    0,016371	-151,8
     43,2551	   0,0165359	-156,5	   0,0163111	-155,7
     43,2571	   0,0164652	-155,5	   0,0162888	-155,0
      43,259	   0,0164217	-153,9	   0,0162962	-154,8
      43,261	   0,0163694	-156,0	   0,0162126	-156,2
      43,263	   0,0162536	-155,7	   0,0161192	-153,9
     43,2649	   0,0162094	-153,4	   0,0160717	-153,6
     43,2669	   0,0161758	-154,0	   0,0160195	-153,4
     43,2688	   0,0161463	-156,9	   0,0159666	-154,3
     43,2708	   0,0161279	-156,3	   0,0159445	-153,6
     43,2727	   0,0160583	-157,8	   0,0158677	-151,5
     43,2747	   0,0159858	-154,1	   0,0158237	-154,7
     43,2766	   0,0159232	-153,5	   0,0158327	-151,9
     43,2786	   0,0158399	-154,3	   0,0158151	-154,3
     43,2805	   0,0158009	-156,1	   0,0157004	-151,7
     43,2825	   0,0158276	-155,2	   0,0157075	-151,5
     43,2845	   0,0158258	-152,2	   0,0156524	-154,0
     43,2864	     0,01573	-152,4	   0,0156197	-152,2
     43,2884	   0,0156675	-154,3	   0,0155729	-153,2
     43,2903	   0,0156518	-155,7	   0,0154887	-154,5
     43,2923	   0,0156073	-152,5	   0,0154127	-151,4
     43,2942	   0,0155514	-151,1	   0,0152725	-151,7
     43,2962	   0,0155759	-154,0	   0,0152754	-151,4
     43,2981	   0,0155681	-154,1	   0,0152444	-153,1
     43,3001	   0,0155122	-151,7	   0,0151736	-150,4
     43,3021	   0,0153959	-151,0	   0,0150931	-149,6
      43,304	   0,0153164	-150,5	   0,0150806	-150,0
      43,306	   0,0152926	-151,7	    0,015081	-152,7
     43,3079	   0,0152365	-151,8	   0,0149651	-151,9
     43,3099	    0,015183	-149,6	   0,0149705	-149,0
     43,3118	   0,0150688	-150,2	   0,0149485	-149,0
     43,3138	   0,0150763	-149,2	   0,0149759	-152,7
     43,3157	   0,0150156	-150,7	   0,0148991	-153,5
     43,3177	   0,0149487	-151,6	   0,0148404	-152,3
     43,3196	   0,0149087	-148,9	    0,014819	-150,7
     43,3216	   0,0148264	-148,7	   0,0148263	-151,1
     43,3236	   0,0148349	-151,7	    0,014785	-152,7
     43,3255	   0,0148907	-151,7	    0,014742	-152,9
     43,3275	   0,0148557	-149,7	   0,0145851	-151,9
     43,3294	   0,0146925	-148,7	   0,0146347	-152,6
     43,3314	   0,0145852	-149,8	   0,0145983	-154,9
     43,3333	   0,0145889	-149,6	   0,0144862	-153,2
     43,3353	   0,0145435	-149,3	    0,014425	-153,6
     43,3372	   0,0144268	-149,3	   0,0143548	-150,2
     43,3392	   0,0145032	-149,0	   0,0143187	-148,9
     43,3412	   0,0145042	-151,3	   0,0143602	-153,0
     43,3431	   0,0144264	-150,2	   0,0143114	-153,0
     43,3451	   0,0142896	-148,5	   0,0141841	-150,8
      43,347	    0,014293	-146,6	   0,0140977	-150,1
      43,349	   0,0142718	-148,9	   0,0141296	-152,7
     43,3509	   0,0142723	-149,3	   0,0141177	-152,7
     43,3529	   0,0142328	-148,8	   0,0140339	-152,1
     43,3548	   0,0142062	-147,8	   0,0139906	-153,0
     43,3568	   0,0141247	-147,9	   0,0139759	-152,6
     43,3587	   0,0140684	-149,5	   0,0139105	-152,7
     43,3607	   0,0139742	-151,1	   0,0138674	-151,2
     43,3627	   0,0139214	-148,6	   0,0138729	-150,2
     43,3646	   0,0137876	-148,5	   0,0138868	-150,2
     43,3666	   0,0137482	-149,8	   0,0139058	-151,2
     43,3685	   0,0138088	-152,7	    0,013796	-148,9
     43,3705	   0,0138724	-148,2	   0,0137011	-146,4
     43,3724	    0,013808	-148,6	   0,0136598	-149,3
     43,3744	   0,0137867	-149,8	    0,013678	-148,8
     43,3763	   0,0137565	-151,9	   0,0136826	-149,3
     43,3783	   0,0136492	-148,5	   0,0135802	-150,9
     43,3803	   0,0135791	-147,4	   0,0134986	-149,6
     43,3822	    0,013527	-147,6	    0,013391	-149,2
     43,3842	   0,0134294	-149,2	   0,0133688	-149,3
     43,3861	   0,0133563	-148,4	   0,0133275	-151,1
     43,3881	   0,0133884	-151,3	   0,0132369	-148,8
       43,39	   0,0133515	-148,9	   0,0132769	-145,9
      43,392	   0,0133498	-148,3	   0,0132965	-146,8
     43,3939	   0,0133021	-149,5	   0,0131684	-149,3
     43,3959	   0,0132715	-147,9	   0,0131407	-146,1
     43,3979	   0,0132615	-147,2	   0,0131276	-145,4
     43,3998	   0,0132303	-147,0	   0,0131644	-147,1
     43,4018	   0,0131953	-148,6	   0,0132088	-146,9
     43,4037	   0,0131984	-146,7	   0,0131651	-147,9
     43,4057	   0,0131877	-144,4	   0,0130807	-147,6
     43,4076	   0,0131124	-144,6	   0,0130172	-150,2
     43,4096	   0,0130818	-145,2	   0,0130179	-150,8
     43,4115	   0,0129826	-146,0	   0,0129722	-147,5
     43,4135	   0,0129553	-144,6	   0,0128801	-146,9
     43,4154	     0,01292	-142,5	   0,0128964	-146,4
     43,4174	   0,0128297	-146,5	   0,0128253	-148,7
     43,4194	   0,0128656	-146,3	   0,0127324	-147,7
     43,4213	   0,0128216	-145,8	   0,0127386	-146,8
     43,4233	    0,012679	-145,4	   0,0126677	-147,6
     43,4252	   0,0127337	-148,2	   0,0126125	-146,0
     43,4272	   0,0126741	-148,6	   0,0125641	-151,1
     43,4291	   0,0126594	-147,2	   0,0125202	-150,6
     43,4311	   0,0126012	-146,6	   0,0125123	-148,1
      43,433	    0,012621	-146,8	   0,0125054	-148,1
      43,435	   0,0125476	-146,9	   0,0125057	-149,5
      43,437	   0,0125526	-147,7	   0,0124753	-149,3
     43,4389	   0,0124945	-146,7	   0,0123477	-149,0
     43,4409	   0,0123969	-146,9	   0,0123975	-146,3
     43,4428	   0,0124277	-147,9	   0,0124586	-146,6
     43,4448	   0,0123819	-147,7	   0,0123407	-146,5
     43,4467	   0,0123322	-147,7	   0,0122338	-143,7
     43,4487	   0,0123504	-145,4	   0,0121638	-145,1
     43,4506	   0,0123566	-146,9	   0,0121013	-145,8
     43,4526	   0,0123625	-147,7	    0,012064	-144,1
     43,4545	   0,0123058	-144,9	    0,012056	-143,2
     43,4565	   0,0120905	-143,4	   0,0120516	-142,3
     43,4585	   0,0120245	-143,6	   0,0121487	-148,5
     43,4604	   0,0120446	-146,5	   0,0120032	-145,1
     43,4624	   0,0119777	-143,4	   0,0120137	-146,6
     43,4643	   0,0119802	-142,4	    0,011954	-145,7
     43,4663	   0,0120011	-145,2	    0,011859	-142,8
     43,4682	   0,0120316	-143,3	   0,0117541	-142,2
     43,4702	   0,0120848	-142,2	   0,0118063	-149,3
     43,4721	    0,012047	-142,6	   0,0118669	-143,3
     43,4741	   0,0119636	-145,4	   0,0118481	-145,7
     43,4761	   0,0119214	-146,1	   0,0117502	-146,6
      43,478	   0,0118503	-145,4	   0,0117436	-145,7
       43,48	   0,0117723	-143,2	   0,0116609	-144,1
     43,4819	   0,0116822	-143,9	    0,011709	-145,0
     43,4839	   0,0117057	-144,5	   0,0116882	-148,1
     43,4858	   0,0117454	-147,4	   0,0116084	-148,8
     43,4878	   0,0117352	-144,4	   0,0115184	-145,7
     43,4897	   0,0115604	-145,3	   0,0114611	-146,5
     43,4917	   0,0115544	-146,5	    0,011493	-144,9
     43,4936	   0,0115473	-145,8	   0,0115332	-144,3
     43,4956	   0,0114795	-143,3	   0,0115178	-149,1
     43,4976	   0,0114145	-145,1	   0,0115123	-145,4
     43,4995	   0,0114568	-145,5	   0,0113798	-146,0
     43,5015	   0,0114088	-144,3	    0,011413	-146,5
     43,5034	   0,0113946	-143,2	   0,0112812	-146,8
     43,5054	   0,0113828	-142,3	    0,011265	-143,6
     43,5073	   0,0112864	-144,1	   0,0113351	-143,6
     43,5093	   0,0113141	-143,2	   0,0112206	-145,3
     43,5112	   0,0113023	-140,3	   0,0111573	-142,4
     43,5132	   0,0112294	-142,5	   0,0111954	-141,2
     43,5152	   0,0112135	-143,8	   0,0112467	-142,8
     43,5171	   0,0111895	-142,9	    0,011196	-142,2
     43,5191	   0,0111206	-142,2	    0,011141	-143,3
      43,521	   0,0110492	-144,9	   0,0110672	-143,2
      43,523	   0,0110624	-145,4	   0,0110118	-143,3
     43,5249	   0,0111272	-143,0	   0,0109717	-145,0
     43,5269	    0,011083	-140,3	   0,0110154	-144,5
     43,5288	   0,0110393	-140,5	   0,0109486	-143,2
     43,5308	     0,01094	-145,2	   0,0109806	-144,5
     43,5327	   0,0109735	-144,2	   0,0109118	-146,7
     43,5347	    0,010847	-143,9	   0,0107962	-144,0
     43,5367	   0,0108112	-144,1	     0,01084	-140,4
     43,5386	   0,0108107	-146,6	    0,010857	-144,8
     43,5406	   0,0107666	-143,8	   0,0108506	-143,6
     43,5425	   0,0107522	-143,0	   0,0108033	-141,3
     43,5445	   0,0107907	-141,7	   0,0107592	-143,3
     43,5464	   0,0108193	-143,7	   0,0106693	-144,1
     43,5484	    0,010787	-142,3	   0,0106913	-142,2
     43,5503	   0,0107176	-138,8	   0,0107149	-139,8
     43,5523	   0,0106559	-141,0	   0,0106552	-139,5
     43,5543	   0,0105382	-140,1	   0,0106126	-141,0
     43,5562	   0,0106189	-140,7	   0,0105567	-141,1
     43,5582	    0,010617	-141,4	   0,0105066	-140,0
     43,5601	   0,0105531	-141,3	   0,0104852	-143,4
     43,5621	   0,0105265	-140,8	   0,0104042	-140,1
      43,564	   0,0105129	-141,7	   0,0104049	-141,7
      43,566	   0,0104917	-141,2	   0,0104219	-148,2
     43,5679	    0,010415	-141,1	   0,0104353	-141,6
     43,5699	   0,0103651	-145,4	   0,0104656	-145,4
     43,5718	   0,0104312	-143,6	   0,0104418	-145,0
     43,5738	   0,0104586	-141,6	   0,0103309	-143,1
     43,5758	   0,0103706	-144,0	   0,0103188	-141,9
     43,5777	   0,0103913	-144,0	   0,0103096	-143,8
     43,5797	   0,0103574	-140,7	   0,0103073	-143,3
     43,5816	   0,0101737	-138,5	   0,0102602	-141,0
     43,5836	   0,0101059	-141,7	   0,0101505	-143,6
     43,5855	   0,0101483	-139,8	    0,010175	-140,7
     43,5875	   0,0100583	-137,7	   0,0101157	-142,3
     43,5894	    0,010009	-141,4	    0,010185	-140,5
     43,5914	   0,0100751	-142,5	   0,0102278	-138,1
     43,5934	   0,0100672	-141,7	   0,0101742	-142,2
     43,5953	   0,0100317	-141,0	   0,0101384	-138,8
     43,5973	    0,010055	-142,4	   0,0100379	-139,6
     43,5992	   0,0100377	-144,9	   0,0100421	-141,9
     43,6012	  0,00997854	-141,9	   0,0100108	-142,9
     43,6031	  0,00998091	-141,7	   0,0100059	-141,8
     43,6051	  0,00991007	-140,3	   0,0100197	-141,8
      43,607	  0,00990874	-144,3	  0,00990517	-145,1
      43,609	  0,00990934	-142,9	  0,00977408	-143,5
     43,6109	  0,00992479	-140,2	  0,00984239	-142,8
     43,6129	  0,00989736	-141,1	  0,00986953	-142,3
     43,6149	  0,00998795	-142,6	  0,00982358	-143,2
     43,6168	  0,00992182	-137,4	  0,00973009	-143,4
     43,6188	  0,00977914	-139,0	  0,00968777	-140,2
     43,6207	  0,00971819	-139,0	  0,00968106	-139,2
     43,6227	  0,00971104	-139,5	  0,00976288	-140,7
     43,6246	  0,00969372	-139,1	   0,0096664	-141,4
     43,6266	  0,00970899	-139,2	  0,00964765	-137,6
     43,6285	  0,00971192	-141,3	  0,00961301	-137,7
     43,6305	   0,0096904	-141,0	  0,00965392	-140,2
     43,6325	  0,00963575	-140,5	  0,00964468	-141,8
     43,6344	  0,00966436	-142,2	  0,00954625	-140,1
     43,6364	  0,00967051	-142,7	  0,00955412	-142,7
     43,6383	  0,00951149	-140,1	  0,00956003	-144,4
     43,6403	   0,0095218	-138,4	   0,0094587	-140,3
     43,6422	  0,00949603	-140,4	  0,00941966	-139,8
     43,6442	  0,00948965	-140,5	    0,009427	-141,2
     43,6461	  0,00952131	-136,9	  0,00949726	-142,7
     43,6481	   0,0094743	-138,4	  0,00940197	-141,6
       43,65	  0,00948166	-138,6	   0,0094708	-138,9
      43,652	  0,00940242	-138,5	  0,00944777	-142,6
      43,654	  0,00929334	-135,6	  0,00942292	-141,0
     43,6559	  0,00938725	-137,1	  0,00931739	-139,7
     43,6579	  0,00935987	-139,9	  0,00918616	-137,4
     43,6598	  0,00926512	-138,0	  0,00924967	-138,2
     43,6618	  0,00921327	-138,5	  0,00928476	-137,8
     43,6637	  0,00916494	-140,2	  0,00923667	-138,7
     43,6657	  0,00916461	-141,8	  0,00927249	-139,5
     43,6676	  0,00918503	-139,7	  0,00924513	-142,0
     43,6696	  0,00921078	-140,2	   0,0091964	-140,1
     43,6716	  0,00908311	-141,8	  0,00921156	-139,0
     43,6735	  0,00918509	-141,8	  0,00913911	-141,2
     43,6755	  0,00910673	-137,9	  0,00902093	-140,9
     43,6774	  0,00904423	-138,9	  0,00913011	-140,8
     43,6794	  0,00904582	-138,8	  0,00911521	-139,0
     43,6813	  0,00904511	-137,0	   0,0091169	-140,5
     43,6833	  0,00900311	-136,5	  0,00902891	-140,9
     43,6852	  0,00901588	-139,2	  0,00899335	-139,1
     43,6872	  0,00900328	-139,9	  0,00892905	-138,3
     43,6891	  0,00899346	-138,3	  0,00892573	-138,2
     43,6911	  0,00895463	-139,5	  0,00890779	-139,3
     43,6931	  0,00894361	-141,7	  0,00891423	-135,4
      43,695	  0,00889355	-141,2	  0,00891565	-137,5
      43,697	  0,00889748	-138,6	  0,00885758	-140,1
     43,6989	   0,0088614	-140,0	  0,00888776	-138,4
     43,7009	  0,00888641	-139,1	  0,00886103	-139,5
     43,7028	  0,00881558	-136,6	  0,00888202	-141,9
     43,7048	  0,00881124	-135,8	  0,00884135	-140,4
     43,7067	  0,00882712	-138,2	  0,00872171	-139,7
     43,7087	  0,00880427	-138,3	  0,00874106	-139,4
     43,7107	  0,00878302	-135,5	  0,00874898	-141,4
     43,7126	  0,00872901	-136,6	   0,0086643	-136,9
     43,7146	  0,00870092	-137,7	  0,00862701	-136,4
     43,7165	  0,00869307	-138,5	  0,00863796	-138,4
     43,7185	  0,00862163	-137,8	  0,00868076	-137,8
     43,7204	  0,00853571	-141,2	  0,00862351	-137,5
     43,7224	  0,00858102	-141,0	  0,00868163	-136,8
     43,7243	  0,00861107	-139,2	  0,00866064	-140,0
     43,7263	  0,00856522	-137,0	   0,0085989	-140,7
     43,7282	  0,00852764	-136,9	    0,008551	-138,5
     43,7302	  0,00846559	-136,7	  0,00846589	-139,9
     43,7322	  0,00847263	-135,7	  0,00848359	-140,6
     43,7341	  0,00858359	-138,0	  0,00845027	-139,2
     43,7361	  0,00864272	-138,8	   0,0085058	-138,5
      43,738	  0,00849956	-137,3	  0,00852484	-137,3
       43,74	  0,00837925	-136,3	   0,0085111	-137,4
     43,7419	  0,00839584	-140,7	  0,00844165	-134,8
     43,7439	  0,00843953	-138,4	   0,0084682	-136,4
     43,7458	  0,00840791	-138,7	  0,00842757	-139,5
     43,7478	  0,00841643	-140,7	   0,0084333	-138,0
     43,7498	  0,00839922	-140,9	  0,00844069	-138,5
     43,7517	  0,00829071	-138,8	  0,00838765	-140,7
     43,7537	  0,00821585	-136,3	  0,00821204	-139,0
     43,7556	  0,00822552	-138,6	  0,00826456	-138,0
     43,7576	  0,00832254	-137,9	  0,00826733	-139,2
     43,7595	  0,00831439	-133,9	   0,0082508	-138,9
     43,7615	  0,00822034	-136,2	  0,00823867	-135,3
     43,7634	  0,00823517	-137,9	  0,00825879	-136,0
     43,7654	  0,00819433	-137,0	  0,00827175	-136,7
     43,7673	  0,00811203	-137,1	  0,00824138	-137,8
     43,7693	   0,0081012	-139,9	  0,00818931	-136,1
     43,7713	  0,00812007	-140,1	  0,00814915	-135,5
     43,7732	  0,00813799	-136,8	  0,00805018	-139,0
     43,7752	  0,00812772	-136,9	  0,00807302	-137,2
     43,7771	  0,00819567	-136,0	  0,00808121	-137,1
     43,7791	  0,00809289	-134,9	  0,00809102	-137,7
      43,781	  0,00811208	-134,7	  0,00811453	-140,4
      43,783	  0,00806528	-137,7	  0,00803286	-139,3
     43,7849	  0,00799758	-136,1	  0,00799873	-137,4
     43,7869	  0,00792781	-139,0	   0,0080162	-137,9
     43,7889	  0,00802514	-140,2	  0,00805437	-137,6
     43,7908	   0,0080499	-138,0	  0,00797449	-134,4
     43,7928	  0,00795883	-138,1	  0,00797648	-135,3
     43,7947	  0,00791118	-137,0	  0,00791158	-136,8
     43,7967	  0,00795874	-140,3	  0,00788921	-137,3
     43,7986	  0,00795275	-136,9	  0,00786384	-135,8
     43,8006	  0,00787258	-135,4	  0,00786679	-138,3
     43,8025	  0,00785064	-135,1	  0,00785321	-138,1
     43,8045	   0,0078815	-137,2	  0,00788802	-137,7
     43,8064	  0,00794646	-134,8	  0,00790353	-138,7
     43,8084	  0,00789669	-135,2	  0,00781289	-139,6
     43,8104	  0,00790811	-137,5	  0,00769399	-135,1
     43,8123	  0,00775519	-137,4	  0,00771443	-135,5
     43,8143	  0,00769274	-136,0	   0,0077436	-136,5
     43,8162	  0,00767517	-139,4	  0,00777377	-133,4
     43,8182	  0,00771001	-138,0	  0,00780902	-135,8
     43,8201	  0,00771328	-136,7	  0,00782991	-138,9
     43,8221	  0,00770555	-135,6	  0,00773964	-139,5
      43,824	  0,00767595	-137,2	  0,00761173	-137,6
      43,826	  0,00768029	-134,3	  0,00763888	-137,2
      43,828	  0,00772194	-137,2	  0,00770423	-136,1
     43,8299	   0,0077546	-136,5	  0,00777176	-132,6
     43,8319	  0,00760185	-134,5	   0,0076656	-138,0
     43,8338	  0,00761938	-136,0	  0,00766403	-138,2
     43,8358	  0,00761325	-138,1	  0,00758925	-136,5
     43,8377	  0,00753659	-136,7	  0,00761733	-132,2
     43,8397	  0,00751001	-135,4	  0,00755948	-136,9
     43,8416	  0,00755746	-135,0	  0,00750921	-137,5
     43,8436	  0,00754328	-136,4	  0,00748404	-134,6
     43,8456	  0,00741013	-133,9	  0,00755692	-136,8
     43,8475	  0,00747164	-134,4	  0,00752764	-137,9
     43,8495	  0,00755652	-136,6	  0,00742881	-135,9
     43,8514	  0,00759221	-136,2	  0,00744902	-135,6
     43,8534	  0,00753321	-134,4	  0,00749488	-137,3
     43,8553	  0,00748363	-137,0	  0,00744157	-134,0
     43,8573	  0,00749417	-140,0	  0,00744234	-134,2
     43,8592	  0,00738131	-136,0	  0,00742728	-137,0
     43,8612	  0,00730743	-135,6	  0,00742294	-136,5
     43,8631	  0,00738045	-137,2	  0,00744856	-136,6
     43,8651	  0,00732962	-132,8	   0,0073983	-139,5
     43,8671	  0,00733907	-134,2	  0,00735472	-140,0
      43,869	  0,00737146	-137,2	  0,00728678	-133,4
      43,871	  0,00736908	-135,4	  0,00739236	-135,6
     43,8729	  0,00727099	-134,2	  0,00730654	-137,0
     43,8749	  0,00732529	-138,9	  0,00720842	-132,5
     43,8768	  0,00732801	-138,9	  0,00724401	-134,4
     43,8788	  0,00729061	-134,8	  0,00726809	-138,2
     43,8807	  0,00719593	-136,4	  0,00728066	-133,5
     43,8827	   0,0072408	-134,5	  0,00724652	-135,0
     43,8847	  0,00722583	-133,9	  0,00725623	-135,1
     43,8866	  0,00715084	-133,2	  0,00723684	-139,3
     43,8886	  0,00721743	-136,0	  0,00707619	-137,0
     43,8905	  0,00720113	-131,1	   0,0071676	-135,7
     43,8925	  0,00698911	-133,4	  0,00722184	-137,1
     43,8944	  0,00697745	-138,8	  0,00722021	-133,9
     43,8964	  0,00713514	-138,4	  0,00710374	-133,7
     43,8983	  0,00714102	-136,1	  0,00703544	-136,5
     43,9003	   0,0071206	-136,3	  0,00704412	-133,6
     43,9022	  0,00714185	-135,7	  0,00710241	-133,2
     43,9042	  0,00709458	-132,5	  0,00711837	-134,4
     43,9062	   0,0069767	-133,5	  0,00708549	-138,4
     43,9081	   0,0070228	-136,6	  0,00703159	-136,8
     43,9101	  0,00705047	-132,8	  0,00700963	-135,8
      43,912	  0,00702026	-136,8	  0,00706078	-135,4
      43,914	  0,00699147	-135,6	  0,00704196	-133,9
     43,9159	    0,006987	-137,5	  0,00699922	-134,8
     43,9179	  0,00695566	-135,7	  0,00701834	-135,5
     43,9198	  0,00692976	-136,3	  0,00697822	-134,3
     43,9218	  0,00692665	-136,3	  0,00696568	-135,9
     43,9238	  0,00689787	-133,0	  0,00690665	-139,0
     43,9257	  0,00686376	-132,7	  0,00691793	-135,5
     43,9277	  0,00688643	-136,4	  0,00700633	-133,7
     43,9296	  0,00690424	-134,6	  0,00688133	-134,6
     43,9316	  0,00695691	-135,7	  0,00675973	-133,7
     43,9335	  0,00686464	-137,2	  0,00681915	-129,9
     43,9355	  0,00684094	-134,1	  0,00687204	-137,0
     43,9374	  0,00677898	-134,9	  0,00680516	-137,5
     43,9394	  0,00687924	-135,1	  0,00670659	-135,1
     43,9413	  0,00688777	-132,3	  0,00681771	-134,0
     43,9433	  0,00679619	-132,0	  0,00679483	-137,9
     43,9453	  0,00676214	-135,3	  0,00681554	-136,6
     43,9472	  0,00673494	-135,5	  0,00682048	-135,3
     43,9492	  0,00679508	-133,1	  0,00679742	-136,0
     43,9511	  0,00680222	-134,0	  0,00675724	-135,4
     43,9531	  0,00673607	-136,0	   0,0067393	-131,9
      43,955	  0,00668289	-133,9	  0,00678481	-134,3
      43,957	   0,0066366	-134,1	  0,00675072	-133,9
     43,9589	  0,00660569	-135,7	  0,00664164	-136,8
     43,9609	  0,00661363	-132,9	  0,00661159	-136,8
     43,9629	  0,00667473	-133,5	  0,00660213	-133,1
     43,9648	  0,00669848	-136,3	  0,00661399	-131,2
     43,9668	  0,00664075	-135,6	  0,00662101	-133,3
     43,9687	  0,00663778	-134,5	   0,0066778	-132,3
     43,9707	   0,0066517	-136,4	  0,00663444	-132,5
     43,9726	  0,00661466	-134,0	  0,00651711	-135,3
     43,9746	  0,00656315	-133,4	  0,00654021	-136,3
     43,9765	  0,00663032	-133,1	  0,00661076	-133,9
     43,9785	   0,0066102	-130,5	  0,00661642	-135,9
     43,9804	  0,00644734	-131,6	  0,00646405	-138,2
     43,9824	  0,00657578	-135,8	  0,00643084	-133,7
     43,9844	  0,00653825	-134,7	  0,00645337	-132,5
     43,9863	  0,00642711	-133,5	  0,00650701	-133,4
     43,9883	  0,00643569	-137,4	  0,00643202	-132,1
     43,9902	   0,0064814	-134,0	   0,0066039	-132,4
     43,9922	  0,00641459	-131,6	  0,00651712	-139,2
     43,9941	  0,00642034	-132,0	  0,00637615	-136,5
     43,9961	  0,00644555	-134,9	  0,00641797	-134,7
      43,998	  0,00647496	-128,8	  0,00639883	-134,7
          44	  0,00651394	-133,5	  0,00645428	-132,2

