X-Data [Hz]	Piezo (M - Filtered) [mV]	Phase [Deg]	Piezo (M - Filtered) [mV]	Phase [Deg]	
	002: [07-09-24 17:51]		003: [07-09-24 17:54]	
        41,5	   0,0365724	-104,4	   0,0353605	-109,8
      41,502	   0,0383467	-106,6	   0,0390645	-95,1
     41,5039	   0,0388908	-112,2	   0,0406668	-99,1
     41,5059	   0,0396002	-101,0	   0,0385476	-93,4
     41,5078	   0,0420869	-109,0	   0,0405105	-102,1
     41,5098	   0,0391496	-93,7	   0,0404378	-93,5
     41,5117	   0,0415276	-101,3	   0,0429802	-111,8
     41,5137	   0,0389849	-97,0	     0,04284	-102,4
     41,5156	   0,0396338	-93,4	   0,0419539	-108,2
     41,5176	   0,0419408	-106,0	   0,0439428	-111,7
     41,5196	   0,0401489	-93,2	   0,0407733	-95,8
     41,5215	   0,0421077	-110,2	   0,0434898	-110,3
     41,5235	   0,0405959	-101,1	   0,0428443	-108,1
     41,5254	   0,0442347	-107,9	   0,0406612	-108,0
     41,5274	   0,0419605	-111,3	   0,0440826	-111,7
     41,5293	   0,0389262	-95,1	   0,0425409	-96,0
     41,5313	   0,0444489	-108,1	   0,0446492	-104,8
     41,5332	   0,0415617	-105,2	   0,0416067	-93,0
     41,5352	   0,0431232	-103,1	    0,041923	-95,0
     41,5371	   0,0439852	-109,0	   0,0420954	-102,1
     41,5391	   0,0397792	-93,2	   0,0425652	-92,2
     41,5411	   0,0432053	-104,2	   0,0451738	-109,7
      41,543	   0,0415635	-95,6	   0,0428528	-97,9
      41,545	   0,0454448	-111,6	   0,0448551	-108,5
     41,5469	   0,0414354	-104,9	   0,0453206	-106,2
     41,5489	   0,0407799	-91,8	   0,0430132	-98,8
     41,5508	   0,0438989	-105,8	   0,0459851	-108,8
     41,5528	   0,0417451	-97,1	   0,0419083	-92,5
     41,5547	   0,0453759	-107,0	   0,0433384	-104,0
     41,5567	   0,0432202	-109,7	   0,0423282	-93,4
     41,5587	   0,0435197	-97,5	   0,0412415	-93,9
     41,5606	   0,0460384	-108,2	   0,0462334	-104,5
     41,5626	   0,0401007	-92,0	   0,0418174	-93,4
     41,5645	    0,044466	-100,2	   0,0440557	-109,2
     41,5665	   0,0414533	-96,3	   0,0469051	-103,3
     41,5684	    0,041784	-91,2	   0,0447869	-103,4
     41,5704	   0,0456582	-109,5	   0,0472311	-109,8
     41,5723	   0,0437194	-97,9	   0,0419132	-93,9
     41,5743	   0,0460217	-107,7	   0,0452457	-105,2
     41,5762	   0,0449136	-108,9	   0,0430873	-90,6
     41,5782	   0,0443912	-99,0	   0,0441023	-100,9
     41,5802	   0,0453742	-110,1	   0,0448042	-96,5
     41,5821	   0,0427694	-93,4	   0,0427815	-91,5
     41,5841	   0,0449008	-98,7	    0,046898	-107,3
      41,586	   0,0440748	-95,5	   0,0450123	-96,9
      41,588	   0,0423054	-93,5	   0,0467256	-108,3
     41,5899	   0,0466719	-107,7	   0,0468461	-103,5
     41,5919	   0,0445994	-99,3	   0,0451897	-99,6
     41,5938	   0,0467368	-109,3	   0,0469728	-108,4
     41,5958	   0,0431522	-92,7	   0,0445237	-92,5
     41,5978	   0,0458342	-96,1	   0,0461524	-105,0
     41,5997	   0,0422636	-96,8	   0,0488261	-106,1
     41,6017	   0,0447206	-91,2	   0,0448547	-97,4
     41,6036	   0,0464503	-101,0	   0,0466512	-106,3
     41,6056	   0,0429293	-91,9	   0,0453934	-93,5
     41,6075	   0,0438727	-92,5	   0,0456669	-96,6
     41,6095	   0,0456244	-101,4	   0,0469522	-98,0
     41,6114	   0,0451921	-92,4	   0,0457274	-89,2
     41,6134	   0,0477721	-109,0	   0,0490731	-106,7
     41,6153	   0,0471535	-107,5	   0,0469414	-98,0
     41,6173	   0,0460526	-101,9	   0,0485523	-107,4
     41,6193	   0,0490519	-105,1	   0,0492626	-103,9
     41,6212	   0,0430925	-92,4	   0,0464511	-97,8
     41,6232	   0,0471633	-106,9	   0,0495928	-107,2
     41,6251	   0,0442973	-94,3	   0,0448953	-94,2
     41,6271	   0,0458969	-92,9	   0,0462732	-95,4
      41,629	   0,0459536	-103,1	   0,0477734	-95,1
      41,631	   0,0439711	-93,7	   0,0464583	-90,8
     41,6329	   0,0493054	-108,7	   0,0481151	-104,5
     41,6349	   0,0469987	-98,8	   0,0467379	-93,3
     41,6369	   0,0479984	-100,6	   0,0471429	-92,3
     41,6388	    0,048836	-109,0	   0,0505374	-99,9
     41,6408	   0,0464074	-93,1	   0,0480347	-93,8
     41,6427	   0,0490884	-105,5	    0,051881	-106,6
     41,6447	   0,0454253	-92,3	   0,0473986	-92,7
     41,6466	   0,0483951	-97,2	   0,0485498	-96,8
     41,6486	   0,0517531	-108,3	   0,0485654	-96,8
     41,6505	   0,0460132	-91,9	    0,047512	-91,4
     41,6525	   0,0482239	-94,4	   0,0474877	-98,6
     41,6544	    0,045787	-98,2	   0,0489257	-94,0
     41,6564	   0,0443578	-92,4	   0,0477021	-88,8
     41,6584	   0,0497495	-105,4	   0,0521651	-102,0
     41,6603	   0,0474003	-93,2	    0,049336	-95,0
     41,6623	   0,0502964	-102,7	   0,0524064	-108,7
     41,6642	   0,0466375	-93,5	   0,0504558	-104,6
     41,6662	   0,0488156	-94,3	   0,0492718	-97,8
     41,6681	    0,050795	-105,8	   0,0518354	-109,5
     41,6701	   0,0483476	-90,0	   0,0481686	-91,3
      41,672	   0,0483587	-96,0	   0,0502279	-94,9
      41,674	   0,0478798	-95,4	   0,0526108	-100,6
      41,676	   0,0486502	-91,4	   0,0486989	-91,7
     41,6779	    0,052082	-104,6	   0,0539539	-104,4
     41,6799	   0,0499154	-100,3	   0,0509657	-96,6
     41,6818	   0,0523145	-99,2	   0,0527366	-106,2
     41,6838	   0,0533551	-105,3	   0,0539577	-102,9
     41,6857	   0,0488868	-93,9	   0,0503765	-95,6
     41,6877	   0,0508816	-99,7	     0,05334	-104,7
     41,6896	   0,0491208	-91,3	   0,0508631	-92,6
     41,6916	   0,0492845	-93,1	   0,0509568	-92,9
     41,6936	   0,0498953	-100,3	   0,0528978	-97,1
     41,6955	    0,048979	-92,4	   0,0516463	-90,3
     41,6975	   0,0525797	-105,0	   0,0552143	-105,7
     41,6994	   0,0528389	-100,6	   0,0522294	-96,6
     41,7014	   0,0517643	-96,7	   0,0523182	-92,1
     41,7033	   0,0552549	-104,8	   0,0558873	-104,4
     41,7053	    0,048674	-89,1	   0,0539429	-96,0
     41,7072	   0,0526391	-97,8	   0,0522214	-99,1
     41,7092	   0,0512502	-92,3	   0,0548822	-104,6
     41,7111	   0,0507081	-90,5	   0,0512598	-88,3
     41,7131	   0,0536601	-96,1	   0,0553832	-103,3
     41,7151	   0,0504426	-92,9	    0,053821	-96,7
      41,717	   0,0494678	-91,0	   0,0550367	-101,9
      41,719	   0,0544439	-102,3	   0,0561537	-104,8
     41,7209	   0,0512701	-92,7	   0,0524074	-91,4
     41,7229	   0,0546923	-103,8	   0,0534684	-100,1
     41,7248	   0,0547125	-106,0	   0,0560776	-103,5
     41,7268	   0,0533834	-96,8	      0,0528	-92,9
     41,7287	   0,0564014	-103,1	   0,0548677	-100,7
     41,7307	   0,0537961	-88,5	   0,0535034	-92,5
     41,7327	   0,0545885	-94,7	   0,0535627	-88,8
     41,7346	   0,0532251	-96,4	   0,0573151	-100,5
     41,7366	   0,0520603	-89,3	   0,0550091	-93,5
     41,7385	   0,0549238	-105,3	   0,0579854	-102,6
     41,7405	   0,0548022	-101,7	   0,0579631	-103,2
     41,7424	   0,0558087	-98,7	   0,0547206	-92,3
     41,7444	   0,0572691	-104,0	   0,0581606	-103,1
     41,7463	   0,0536447	-90,9	   0,0544995	-89,9
     41,7483	   0,0547616	-97,9	   0,0550894	-91,9
     41,7502	   0,0531819	-91,6	   0,0571742	-97,9
     41,7522	   0,0524687	-91,5	   0,0550189	-90,8
     41,7542	   0,0564038	-96,7	   0,0597085	-103,6
     41,7561	   0,0534308	-91,1	   0,0591563	-99,2
     41,7581	   0,0550157	-89,7	   0,0562804	-96,5
       41,76	   0,0576542	-102,6	   0,0583263	-100,9
      41,762	   0,0540006	-90,3	   0,0564561	-89,1
     41,7639	   0,0558525	-94,3	   0,0564207	-89,6
     41,7659	   0,0561483	-95,4	   0,0587443	-96,2
     41,7678	   0,0544772	-90,3	   0,0571188	-89,2
     41,7698	   0,0583099	-100,6	   0,0615019	-101,9
     41,7718	   0,0546631	-93,4	     0,06127	-95,9
     41,7737	   0,0560867	-88,4	   0,0593747	-98,7
     41,7757	   0,0570034	-101,6	   0,0608506	-102,6
     41,7776	   0,0557614	-90,8	   0,0562953	-88,8
     41,7796	   0,0606672	-100,5	   0,0567751	-89,3
     41,7815	   0,0597766	-103,4	   0,0605058	-96,5
     41,7835	   0,0574156	-93,1	   0,0600799	-89,3
     41,7854	    0,059248	-97,6	   0,0624408	-102,5
     41,7874	   0,0558684	-88,4	   0,0635082	-99,1
     41,7893	   0,0573455	-89,6	   0,0597452	-91,5
     41,7913	   0,0602212	-98,4	   0,0625003	-101,5
     41,7933	   0,0571707	-91,2	   0,0644817	-98,0
     41,7952	   0,0581155	-90,1	   0,0600445	-93,9
     41,7972	   0,0602004	-100,1	   0,0632332	-101,5
     41,7991	   0,0583733	-92,9	    0,058973	-89,3
     41,8011	   0,0621352	-99,9	   0,0606733	-90,9
      41,803	    0,058322	-88,7	   0,0641975	-98,0
      41,805	    0,060862	-89,6	   0,0615167	-94,2
     41,8069	   0,0630258	-97,0	   0,0623324	-100,1
     41,8089	   0,0594157	-89,6	   0,0606364	-89,8
     41,8109	   0,0607009	-91,1	    0,061595	-89,4
     41,8128	   0,0606784	-97,7	   0,0661065	-98,1
     41,8148	   0,0594121	-87,5	   0,0623252	-90,5
     41,8167	   0,0645572	-102,3	   0,0646471	-101,6
     41,8187	   0,0621573	-98,3	    0,065145	-97,4
     41,8206	   0,0618832	-90,7	   0,0641729	-93,4
     41,8226	   0,0648801	-95,4	   0,0660648	-98,4
     41,8245	   0,0615395	-88,5	   0,0673541	-100,4
     41,8265	   0,0625913	-91,6	   0,0610572	-90,0
     41,8284	   0,0631493	-96,4	   0,0698694	-98,4
     41,8304	   0,0619536	-89,4	   0,0655402	-93,9
     41,8324	   0,0627937	-89,6	   0,0635035	-95,4
     41,8343	   0,0640495	-95,4	    0,069107	-98,2
     41,8363	   0,0624984	-91,9	   0,0632429	-87,4
     41,8382	   0,0677142	-100,7	   0,0658967	-93,9
     41,8402	   0,0650897	-98,0	   0,0677285	-98,8
     41,8421	   0,0642685	-90,5	   0,0644683	-88,4
     41,8441	   0,0653999	-96,3	   0,0657775	-90,5
      41,846	   0,0639676	-90,7	   0,0673493	-93,9
      41,848	   0,0626819	-87,9	   0,0653099	-88,2
       41,85	   0,0661163	-98,2	   0,0691482	-98,2
     41,8519	   0,0634955	-89,8	   0,0702378	-97,1
     41,8539	   0,0677378	-97,9	   0,0666682	-88,8
     41,8558	   0,0686293	-99,2	   0,0705236	-97,3
     41,8578	   0,0636714	-87,9	   0,0692131	-92,6
     41,8597	    0,066962	-90,4	    0,070338	-95,4
     41,8617	   0,0653545	-92,8	   0,0731915	-96,7
     41,8636	   0,0663211	-86,2	   0,0658014	-87,6
     41,8656	   0,0702262	-98,0	    0,068493	-89,9
     41,8675	   0,0677971	-96,6	   0,0715085	-91,9
     41,8695	   0,0687578	-91,4	   0,0698349	-87,4
     41,8715	   0,0694049	-97,0	     0,07172	-95,5
     41,8734	   0,0667677	-86,2	   0,0719951	-95,6
     41,8754	   0,0684459	-90,9	   0,0693523	-89,4
     41,8773	   0,0694661	-94,2	    0,072146	-96,2
     41,8793	   0,0675525	-85,0	   0,0701962	-85,7
     41,8812	   0,0717185	-95,7	   0,0698467	-87,6
     41,8832	   0,0707828	-96,7	   0,0747024	-94,7
     41,8851	   0,0688616	-87,4	   0,0737744	-89,8
     41,8871	   0,0704258	-92,4	   0,0728328	-94,9
     41,8891	   0,0683276	-90,4	   0,0742596	-98,1
      41,891	    0,066563	-85,4	   0,0716096	-86,6
      41,893	    0,074322	-96,3	   0,0712247	-91,4
     41,8949	   0,0721779	-94,1	   0,0762613	-89,2
     41,8969	   0,0723578	-92,5	   0,0731329	-85,8
     41,8988	   0,0751815	-96,0	   0,0720901	-85,7
     41,9008	   0,0734417	-97,7	   0,0773911	-92,8
     41,9027	   0,0717248	-88,9	   0,0744812	-87,9
     41,9047	   0,0744332	-93,4	   0,0766925	-93,9
     41,9066	   0,0704704	-86,4	   0,0748968	-86,9
     41,9086	   0,0722441	-85,9	   0,0740386	-85,8
     41,9106	   0,0743694	-93,2	   0,0794222	-93,2
     41,9125	   0,0719781	-89,0	   0,0795481	-89,2
     41,9145	   0,0761952	-94,4	   0,0753321	-89,4
     41,9164	   0,0766575	-94,6	   0,0781936	-92,6
     41,9184	   0,0742431	-86,0	   0,0776888	-85,6
     41,9203	    0,078573	-89,5	   0,0743752	-85,3
     41,9223	   0,0741895	-89,0	   0,0817045	-92,5
     41,9242	   0,0743091	-84,2	   0,0799725	-87,7
     41,9262	   0,0772522	-93,5	   0,0779031	-83,2
     41,9282	   0,0778604	-92,8	   0,0824235	-91,9
     41,9301	   0,0768251	-86,1	   0,0784877	-84,7
     41,9321	   0,0793481	-91,3	    0,078707	-87,3
      41,934	   0,0758057	-84,5	   0,0820873	-90,7
      41,936	   0,0766187	-85,1	   0,0802059	-84,3
     41,9379	   0,0809561	-91,3	    0,084521	-92,6
     41,9399	   0,0767028	-84,3	   0,0867624	-90,2
     41,9418	   0,0764398	-84,2	   0,0822898	-82,9
     41,9438	   0,0814473	-93,2	   0,0822646	-84,8
     41,9457	   0,0771508	-82,8	   0,0861933	-89,4
     41,9477	   0,0782995	-83,9	    0,082085	-83,7
     41,9497	    0,079852	-90,7	   0,0876086	-92,0
     41,9516	   0,0799201	-85,3	   0,0859208	-89,0
     41,9536	   0,0833745	-89,3	   0,0851027	-83,1
     41,9555	   0,0836549	-93,0	   0,0900396	-91,1
     41,9575	   0,0808791	-82,7	   0,0891756	-89,5
     41,9594	   0,0828204	-85,6	   0,0836605	-82,7
     41,9614	   0,0841153	-90,9	   0,0859159	-85,3
     41,9633	   0,0797552	-81,4	   0,0913048	-85,5
     41,9653	   0,0821128	-81,6	   0,0865126	-85,0
     41,9673	   0,0853242	-88,9	   0,0889509	-89,0
     41,9692	   0,0825702	-84,5	   0,0890065	-83,7
     41,9712	   0,0868518	-88,3	   0,0882533	-81,1
     41,9731	   0,0871755	-89,9	    0,088523	-83,0
     41,9751	   0,0829612	-82,2	   0,0906988	-83,6
      41,977	   0,0850471	-84,4	    0,089611	-81,9
      41,979	   0,0857108	-84,6	   0,0947743	-88,8
     41,9809	   0,0833632	-81,0	   0,0944682	-87,0
     41,9829	   0,0903763	-89,6	   0,0899139	-80,9
     41,9848	   0,0887796	-88,1	   0,0926226	-85,9
     41,9868	   0,0875315	-82,7	   0,0948849	-80,0
     41,9888	   0,0908016	-87,8	   0,0926823	-79,3
     41,9907	   0,0867714	-82,9	   0,0972445	-86,7
     41,9927	   0,0875408	-81,0	   0,0974323	-85,3
     41,9946	   0,0896071	-82,8	   0,0948564	-81,3
     41,9966	   0,0892708	-84,8	   0,0982345	-85,6
     41,9985	   0,0876594	-79,5	   0,0956269	-79,5
     42,0005	   0,0940644	-88,1	   0,0970149	-79,0
     42,0024	   0,0925449	-86,2	    0,101052	-83,7
     42,0044	   0,0908227	-79,8	     0,10074	-82,2
     42,0064	   0,0937866	-80,6	   0,0993711	-80,6
     42,0083	   0,0908212	-83,4	    0,100906	-82,2
     42,0103	   0,0906915	-80,7	    0,102069	-78,8
     42,0122	   0,0948732	-87,5	     0,09988	-77,9
     42,0142	   0,0961662	-86,5	    0,105691	-84,4
     42,0161	   0,0930381	-79,7	    0,103708	-81,8
     42,0181	   0,0971409	-83,5	    0,103364	-80,6
       42,02	   0,0930742	-79,1	    0,105959	-83,1
      42,022	    0,093596	-77,6	    0,104841	-75,8
     42,0239	    0,100851	-84,6	     0,10443	-74,9
     42,0259	   0,0975168	-83,5	    0,106924	-78,6
     42,0279	   0,0972868	-78,6	    0,109524	-78,0
     42,0298	    0,100594	-82,2	    0,107592	-74,9
     42,0318	   0,0983699	-79,5	    0,112629	-80,7
     42,0337	   0,0982339	-76,2	    0,113613	-80,7
     42,0357	    0,101619	-82,4	    0,109326	-75,6
     42,0376	    0,102409	-81,6	    0,112122	-76,6
     42,0396	    0,100641	-75,7	    0,112656	-75,2
     42,0415	    0,103787	-78,7	    0,112529	-72,5
     42,0435	    0,106203	-82,6	    0,118547	-78,4
     42,0455	    0,101861	-74,7	    0,119331	-76,9
     42,0474	    0,102426	-74,4	    0,114884	-72,2
     42,0494	    0,104616	-80,5	    0,116903	-74,2
     42,0513	    0,102735	-78,2	    0,119394	-73,6
     42,0533	    0,106626	-79,6	    0,117322	-70,6
     42,0552	    0,109447	-80,0	     0,11789	-71,3
     42,0572	    0,103722	-73,7	    0,123022	-75,1
     42,0591	    0,105721	-74,6	    0,122462	-72,1
     42,0611	    0,109302	-77,2	    0,122579	-73,6
      42,063	    0,107431	-74,7	    0,124651	-74,8
      42,065	    0,113905	-76,3	    0,122239	-68,0
      42,067	    0,113744	-78,9	    0,123172	-67,3
     42,0689	    0,109654	-71,8	    0,128337	-71,6
     42,0709	    0,110139	-72,5	    0,128806	-68,6
     42,0728	    0,115863	-78,4	    0,129223	-71,2
     42,0748	     0,11285	-75,4	    0,132468	-72,5
     42,0767	    0,115799	-73,4	    0,130802	-65,6
     42,0787	    0,117677	-76,2	    0,130689	-65,2
     42,0806	    0,115408	-69,8	    0,137195	-68,8
     42,0826	    0,116685	-70,1	    0,135504	-67,5
     42,0846	    0,119011	-72,3	    0,134974	-64,5
     42,0865	    0,118217	-71,8	    0,137271	-67,9
     42,0885	    0,120612	-71,0	    0,138864	-67,5
     42,0904	     0,12259	-72,8	    0,136394	-61,6
     42,0924	    0,118752	-70,1	    0,138218	-63,5
     42,0943	    0,120727	-67,7	    0,142629	-62,7
     42,0963	    0,124215	-73,4	    0,141135	-60,8
     42,0982	    0,125066	-72,7	    0,144527	-64,1
     42,1002	    0,123642	-67,3	    0,146637	-64,9
     42,1021	    0,126141	-69,0	    0,143102	-59,3
     42,1041	    0,126075	-68,5	    0,143223	-59,6
     42,1061	    0,125066	-64,6	      0,1492	-62,6
      42,108	    0,125249	-65,4	    0,148308	-59,1
       42,11	    0,130062	-68,7	     0,14864	-59,3
     42,1119	    0,128373	-67,1	    0,150348	-60,8
     42,1139	    0,132073	-65,7	      0,1481	-55,2
     42,1158	    0,132374	-66,0	    0,148546	-55,2
     42,1178	    0,129749	-64,9	    0,151172	-56,7
     42,1197	    0,135466	-66,2	    0,153954	-55,5
     42,1217	    0,137101	-66,2	    0,152007	-54,3
     42,1237	    0,132357	-61,4	    0,157839	-58,0
     42,1256	    0,135524	-60,9	    0,157827	-56,2
     42,1276	    0,137996	-62,5	    0,153828	-53,6
     42,1295	    0,136924	-61,7	    0,155943	-53,5
     42,1315	    0,136546	-59,5	    0,156872	-51,9
     42,1334	    0,142635	-62,1	    0,157673	-50,9
     42,1354	    0,143509	-62,1	        0,16	-52,6
     42,1373	    0,140952	-57,1	    0,162396	-53,8
     42,1393	    0,143173	-57,4	    0,158556	-48,5
     42,1413	    0,144737	-61,2	    0,155999	-49,1
     42,1432	     0,14535	-58,1	     0,16421	-51,5
     42,1452	    0,147564	-57,5	    0,163573	-49,6
     42,1471	    0,150794	-58,4	    0,159845	-48,2
     42,1491	    0,146366	-54,5	    0,163874	-49,1
      42,151	    0,148263	-55,4	    0,162576	-46,1
      42,153	    0,152769	-56,9	    0,162068	-45,5
     42,1549	     0,15027	-54,9	    0,161839	-45,6
     42,1569	    0,152992	-52,3	    0,168205	-47,6
     42,1588	    0,155565	-54,6	    0,165415	-46,5
     42,1608	    0,152448	-53,1	    0,164793	-44,0
     42,1628	    0,152806	-51,2	    0,168124	-44,7
     42,1647	    0,157848	-53,1	    0,167287	-43,8
     42,1667	    0,161158	-52,3	    0,166669	-42,7
     42,1686	    0,155883	-49,1	    0,169309	-43,9
     42,1706	    0,156164	-47,6	    0,166604	-40,9
     42,1725	     0,16299	-50,1	    0,166968	-39,9
     42,1745	    0,163017	-50,1	    0,167155	-39,7
     42,1764	    0,160666	-45,9	    0,172164	-41,9
     42,1784	    0,160562	-47,7	    0,170378	-40,3
     42,1804	    0,161654	-46,1	    0,168814	-40,2
     42,1823	    0,160909	-43,4	    0,171439	-41,2
     42,1843	    0,166633	-46,6	    0,169664	-37,9
     42,1862	    0,166108	-46,1	    0,168185	-37,2
     42,1882	     0,16392	-41,4	    0,173077	-40,8
     42,1901	    0,163787	-42,0	    0,173913	-40,3
     42,1921	    0,170102	-43,9	    0,170291	-35,2
      42,194	    0,166763	-41,5	    0,170205	-34,9
      42,196	    0,168089	-41,4	    0,174813	-36,5
     42,1979	    0,170499	-41,7	    0,171949	-34,9
     42,1999	    0,167414	-39,1	    0,174411	-35,7
     42,2019	     0,16689	-37,7	    0,175519	-36,8
     42,2038	    0,174142	-41,2	    0,171332	-33,1
     42,2058	    0,172161	-39,6	    0,170926	-32,1
     42,2077	    0,168972	-35,7	    0,176489	-36,1
     42,2097	    0,172219	-36,6	     0,17648	-35,8
     42,2116	    0,172313	-36,8	    0,171404	-31,3
     42,2136	    0,169897	-34,9	     0,17102	-31,9
     42,2155	    0,173801	-34,6	    0,176039	-33,3
     42,2175	    0,175533	-35,5	     0,17434	-32,7
     42,2195	    0,171156	-33,6	    0,174216	-31,5
     42,2214	    0,171779	-32,2	    0,175669	-32,7
     42,2234	    0,177193	-34,7	    0,172375	-28,6
     42,2253	    0,175547	-35,2	    0,173311	-27,5
     42,2273	     0,17249	-31,2	    0,176479	-31,1
     42,2292	    0,172185	-29,6	    0,176838	-30,4
     42,2312	    0,176833	-33,8	    0,171759	-26,5
     42,2331	    0,176169	-32,0	    0,172148	-26,1
     42,2351	    0,175923	-29,8	    0,177259	-29,9
      42,237	    0,176649	-31,3	    0,177748	-29,2
      42,239	    0,173066	-28,6	    0,173287	-25,9
      42,241	    0,174631	-27,0	    0,173418	-25,4
     42,2429	    0,179291	-28,9	    0,177879	-29,1
     42,2449	     0,17876	-28,9	    0,177981	-27,2
     42,2468	    0,172171	-25,4	    0,174709	-26,1
     42,2488	    0,174642	-25,1	    0,174868	-26,7
     42,2507	    0,178107	-27,9	    0,173863	-24,9
     42,2527	    0,175332	-25,2	    0,174216	-23,3
     42,2546	    0,174248	-24,0	    0,177764	-25,7
     42,2566	    0,179402	-26,2	    0,178546	-26,8
     42,2586	    0,179434	-26,1	    0,171941	-21,8
     42,2605	    0,174626	-22,8	     0,17311	-21,0
     42,2625	    0,175539	-22,4	     0,17726	-25,2
     42,2644	    0,178845	-26,8	    0,178057	-24,2
     42,2664	    0,178003	-24,9	    0,172961	-20,5
     42,2683	    0,175349	-22,1	    0,173578	-21,2
     42,2703	    0,178931	-23,3	    0,176279	-22,7
     42,2722	    0,175811	-20,5	    0,175838	-21,9
     42,2742	    0,173449	-20,3	     0,17522	-21,8
     42,2761	     0,17825	-21,5	     0,17643	-21,5
     42,2781	    0,178861	-22,9	    0,173664	-19,2
     42,2801	    0,173404	-18,3	    0,172569	-18,2
      42,282	    0,172267	-18,2	    0,177305	-21,3
      42,284	    0,179378	-21,4	    0,179632	-21,3
     42,2859	    0,178552	-21,0	    0,170592	-17,4
     42,2879	    0,172377	-18,3	    0,172644	-18,8
     42,2898	    0,175019	-17,5	    0,174987	-19,4
     42,2918	    0,177196	-20,5	    0,174562	-18,1
     42,2937	    0,175863	-19,1	    0,172168	-17,1
     42,2957	    0,176115	-18,4	    0,176056	-18,6
     42,2977	    0,176983	-18,0	    0,176185	-18,7
     42,2996	    0,173069	-16,5	    0,171626	-14,5
     42,3016	    0,170829	-16,0	    0,169436	-14,8
     42,3035	     0,17776	-18,9	      0,1771	-17,8
     42,3055	    0,178835	-18,1	    0,176275	-18,1
     42,3074	    0,172764	-13,8	    0,171784	-14,2
     42,3094	    0,173212	-13,4	    0,170405	-13,2
     42,3113	    0,177169	-16,9	    0,174482	-16,4
     42,3133	    0,175319	-16,5	    0,172782	-14,4
     42,3153	    0,171839	-13,0	    0,171756	-12,2
     42,3172	    0,173558	-13,9	    0,172727	-14,7
     42,3192	    0,176513	-15,4	    0,171262	-13,7
     42,3211	      0,1707	-12,2	    0,169655	-12,7
     42,3231	    0,169639	-11,4	     0,17372	-14,3
      42,325	     0,17648	-14,1	    0,173374	-14,8
      42,327	    0,177526	-14,1	    0,169854	-12,1
     42,3289	    0,170658	-10,0	    0,168001	-10,5
     42,3309	    0,171408	-10,6	    0,171804	-14,2
     42,3328	    0,176382	-14,0	    0,174096	-14,2
     42,3348	    0,174781	-12,4	    0,173905	-13,6
     42,3368	    0,171902	-10,6	    0,169131	-9,7
     42,3387	    0,174253	-12,1	    0,167495	-10,8
     42,3407	    0,170669	-11,6	    0,172107	-12,0
     42,3426	    0,168445	-9,9	    0,172835	-11,7
     42,3446	     0,17397	-10,1	    0,167763	-9,5
     42,3465	    0,174498	-11,7	    0,169691	-10,6
     42,3485	    0,169269	-9,1	    0,171066	-9,7
     42,3504	    0,167569	-8,0	    0,166284	-8,6
     42,3524	    0,174052	-10,4	     0,16913	-8,5
     42,3544	     0,17303	-11,4	     0,17102	-10,7
     42,3563	     0,16796	-6,0	    0,169759	-8,0
     42,3583	    0,166929	-6,4	    0,168481	-7,2
     42,3602	    0,170161	-7,2	    0,169432	-9,3
     42,3622	    0,169932	-8,8	    0,170315	-10,4
     42,3641	    0,169123	-8,2	    0,165294	-6,5
     42,3661	    0,168467	-7,1	     0,16373	-5,4
      42,368	    0,169079	-7,7	      0,1706	-10,0
       42,37	    0,168752	-6,8	    0,170175	-9,1
     42,3719	    0,167018	-4,9	    0,164791	-4,4
     42,3739	    0,168374	-6,5	    0,163792	-5,1
     42,3759	    0,171013	-7,5	    0,168314	-9,4
     42,3778	    0,164787	-4,4	    0,169715	-7,6
     42,3798	    0,164019	-3,2	    0,161735	-3,6
     42,3817	    0,169827	-7,3	    0,162393	-4,3
     42,3837	    0,168524	-7,2	    0,169018	-8,0
     42,3856	    0,164385	-2,9	    0,167251	-7,4
     42,3876	    0,165364	-3,4	     0,16285	-5,0
     42,3895	    0,167499	-6,9	    0,163407	-4,4
     42,3915	    0,165654	-5,1	    0,165266	-5,7
     42,3935	    0,164552	-2,9	     0,16405	-5,2
     42,3954	    0,167994	-5,0	    0,162501	-2,5
     42,3974	    0,168431	-5,4	    0,163911	-4,6
     42,3993	    0,163034	-2,2	    0,165069	-3,8
     42,4013	     0,16189	-1,2	    0,163346	-3,1
     42,4032	    0,166635	-4,8	    0,161381	-2,9
     42,4052	    0,167207	-5,3	    0,163825	-3,9
     42,4071	    0,159883	-0,1	    0,162809	-2,4
     42,4091	    0,161371	-0,2	    0,159414	-0,8
      42,411	    0,166769	-3,6	     0,16269	-3,7
      42,413	    0,165469	-4,0	    0,164514	-3,6
      42,415	    0,160589	 0,9	    0,159974	 0,5
     42,4169	    0,162068	-0,3	    0,159686	 0,3
     42,4189	      0,1656	-1,7	    0,162756	-3,3
     42,4208	    0,160339	 0,5	    0,162377	-3,7
     42,4228	    0,159627	 0,8	    0,158095	 0,4
     42,4247	    0,162784	-0,8	    0,158094	 1,4
     42,4267	    0,163954	-0,8	    0,161739	-2,5
     42,4286	    0,158513	 2,0	    0,163479	-2,5
     42,4306	    0,156299	 3,6	      0,1612	-1,7
     42,4326	    0,162904	-1,4	    0,156914	 0,8
     42,4345	    0,162181	-1,7	    0,157062	 1,0
     42,4365	    0,157526	 2,9	    0,162362	-1,5
     42,4384	    0,157389	 3,3	    0,160457	-0,7
     42,4404	    0,161888	-1,8	    0,155134	 2,4
     42,4423	    0,160996	-1,5	    0,155575	 2,1
     42,4443	    0,156805	 3,7	    0,162078	-1,0
     42,4462	    0,158609	 2,3	     0,16048	-0,0
     42,4482	    0,158995	 0,0	    0,154567	 3,1
     42,4501	    0,158303	-0,1	    0,154743	 2,1
     42,4521	    0,156207	 3,3	    0,158676	 0,5
     42,4541	    0,156929	 2,3	    0,157877	 2,4
      42,456	    0,159664	 1,2	    0,154564	 3,5
      42,458	    0,154542	 3,7	    0,154792	 1,9
     42,4599	     0,15408	 4,4	    0,157186	 2,7
     42,4619	    0,156801	 3,0	    0,154711	 3,4
     42,4638	    0,158412	 1,2	    0,153774	 3,7
     42,4658	    0,153351	 3,3	    0,154853	 2,5
     42,4677	     0,15355	 5,3	    0,155501	 3,1
     42,4697	     0,15671	 3,5	    0,154481	 4,0
     42,4717	    0,157506	 1,4	    0,154423	 3,4
     42,4736	    0,153685	 6,5	    0,156437	 1,2
     42,4756	    0,150389	 6,4	    0,153779	 6,1
     42,4775	    0,157511	 3,4	    0,151222	 6,5
     42,4795	    0,156946	 2,2	    0,152853	 3,2
     42,4814	    0,150054	 8,7	    0,155584	 2,9
     42,4834	    0,149369	 8,1	    0,150421	 7,2
     42,4853	    0,154933	 4,4	    0,150766	 7,3
     42,4873	    0,155027	 3,8	    0,150451	 5,0
     42,4892	    0,150262	 8,8	    0,152944	 4,5
     42,4912	    0,147871	 8,8	    0,152172	 6,0
     42,4932	    0,154224	 5,1	    0,148925	 7,0
     42,4951	     0,15254	 4,2	    0,149126	 5,5
     42,4971	    0,147061	10,2	    0,151025	 4,6
      42,499	    0,148575	10,2	    0,152451	 3,9
      42,501	    0,152803	 4,9	    0,146879	 9,5
     42,5029	    0,153554	 5,6	    0,145991	 9,7
     42,5049	    0,145932	11,0	    0,149841	 5,3
     42,5068	    0,148457	10,4	    0,149268	 5,5
     42,5088	    0,151036	 5,1	    0,145885	 9,4
     42,5108	    0,149511	 6,6	    0,146868	10,5
     42,5127	    0,145028	10,1	    0,150937	 5,5
     42,5147	    0,146388	11,4	    0,151164	 5,8
     42,5166	    0,150363	 5,9	    0,143653	10,7
     42,5186	    0,148836	 8,2	    0,143773	10,4
     42,5205	    0,147412	10,2	    0,150305	 6,9
     42,5225	    0,148104	11,0	    0,149448	 7,1
     42,5244	     0,14604	10,3	    0,143966	10,8
     42,5264	    0,147591	 8,9	    0,142455	12,2
     42,5283	    0,143677	10,1	    0,147458	 6,1
     42,5303	    0,143733	11,9	     0,14824	 7,3
     42,5323	    0,148373	 7,2	    0,142544	11,7
     42,5342	    0,145448	 8,6	    0,142366	12,2
     42,5362	     0,14241	12,1	    0,142418	11,7
     42,5381	    0,143032	12,5	    0,147038	 8,1
     42,5401	     0,14368	11,1	    0,145764	 8,6
      42,542	    0,143757	 8,9	    0,140348	12,2
      42,544	    0,142501	10,9	     0,14037	11,4
     42,5459	    0,143083	12,1	    0,145484	 8,3
     42,5479	    0,144084	11,5	    0,145168	 9,2
     42,5499	    0,141347	10,1	    0,139788	13,9
     42,5518	    0,143227	10,3	    0,140385	13,7
     42,5538	    0,141715	13,0	    0,144624	 8,2
     42,5557	    0,141588	12,8	    0,142285	10,0
     42,5577	     0,14248	10,0	    0,137937	13,7
     42,5596	    0,140716	12,0	    0,138027	14,3
     42,5616	    0,139439	14,3	    0,144534	 8,5
     42,5635	    0,140796	12,4	    0,143733	10,3
     42,5655	     0,14202	10,8	    0,136107	15,0
     42,5674	    0,138795	12,2	    0,135438	15,6
     42,5694	    0,137814	14,1	    0,141918	 9,8
     42,5714	    0,139768	13,7	    0,142613	 9,4
     42,5733	    0,140504	11,8	    0,135369	14,7
     42,5753	    0,138133	12,2	    0,135181	15,6
     42,5772	    0,136487	16,6	    0,140792	 9,8
     42,5792	    0,137003	14,8	     0,14138	11,1
     42,5811	     0,13894	 9,9	    0,135618	16,1
     42,5831	    0,139856	11,7	    0,133611	16,3
      42,585	    0,134423	17,2	    0,133649	16,0
      42,587	    0,134852	16,1	    0,141048	11,1
      42,589	    0,138241	11,2	    0,134732	17,0
     42,5909	    0,138508	12,1	    0,133154	16,8
     42,5929	    0,133743	17,7	    0,131522	17,7
     42,5948	    0,134007	16,7	    0,138338	11,7
     42,5968	    0,137154	12,1	    0,138006	11,8
     42,5987	    0,136191	12,0	    0,130178	17,3
     42,6007	    0,132203	18,0	      0,1323	17,2
     42,6026	    0,130901	18,0	    0,136772	12,1
     42,6046	     0,13742	13,0	    0,137479	12,7
     42,6065	    0,134314	13,1	    0,130999	16,8
     42,6085	    0,131217	18,7	    0,130537	19,3
     42,6105	    0,129595	18,3	    0,134853	12,7
     42,6124	    0,136919	14,6	    0,134983	12,3
     42,6144	    0,135445	13,9	    0,130369	18,7
     42,6163	    0,135812	14,2	    0,130206	19,0
     42,6183	     0,12723	19,3	    0,128804	18,8
     42,6202	    0,128662	20,4	    0,133973	13,1
     42,6222	    0,134472	13,8	    0,133289	14,4
     42,6241	     0,13359	14,2	    0,127202	19,2
     42,6261	    0,127239	19,7	    0,126931	20,2
     42,6281	    0,126758	20,1	    0,130867	14,0
       42,63	    0,133504	15,0	    0,133131	14,0
      42,632	    0,132372	15,0	    0,127489	19,6
     42,6339	    0,127199	20,3	    0,125748	21,3
     42,6359	    0,126025	20,9	    0,130698	14,5
     42,6378	    0,134381	16,0	    0,130844	15,0
     42,6398	    0,132131	15,0	    0,126625	19,8
     42,6417	    0,126405	18,8	    0,126746	20,3
     42,6437	    0,124253	19,7	    0,128754	16,9
     42,6456	    0,128821	18,2	    0,130212	16,6
     42,6476	    0,127753	17,6	    0,129117	17,9
     42,6496	    0,125762	18,9	    0,128227	19,5
     42,6515	    0,125115	19,9	    0,125857	20,7
     42,6535	    0,126943	18,3	    0,127919	18,9
     42,6554	    0,128062	17,0	    0,126879	17,8
     42,6574	     0,12778	17,2	    0,127018	20,3
     42,6593	    0,124332	18,7	    0,123216	21,2
     42,6613	    0,122555	20,8	    0,124087	20,2
     42,6632	    0,125463	20,2	    0,124876	19,7
     42,6652	    0,126193	19,7	    0,127257	19,0
     42,6672	    0,125535	17,1	    0,128352	20,2
     42,6691	     0,12406	19,3	    0,120963	22,1
     42,6711	     0,12266	22,3	    0,122416	20,7
      42,673	    0,124004	20,5	    0,127677	18,5
      42,675	    0,125533	16,9	    0,125471	19,9
     42,6769	    0,124073	19,3	    0,125132	19,9
     42,6789	    0,120971	23,7	    0,120759	22,3
     42,6808	    0,121351	24,5	    0,121285	21,2
     42,6828	    0,124448	18,5	    0,125715	18,5
     42,6847	    0,126509	17,8	    0,124613	18,4
     42,6867	    0,117954	23,9	    0,118788	23,5
     42,6887	    0,119473	25,8	    0,118847	24,0
     42,6906	     0,12457	19,7	    0,123882	18,5
     42,6926	    0,123646	18,4	    0,123817	19,0
     42,6945	    0,123315	18,3	    0,119002	24,8
     42,6965	    0,116002	23,9	    0,118365	24,9
     42,6984	    0,118085	26,1	    0,121434	18,8
     42,7004	    0,123736	20,1	    0,122164	18,9
     42,7023	    0,122995	19,9	    0,117082	24,2
     42,7043	    0,117524	23,8	    0,117665	24,7
     42,7063	    0,115681	24,8	    0,117182	25,3
     42,7082	    0,119625	23,8	    0,120529	18,6
     42,7102	    0,120983	23,2	     0,12066	18,9
     42,7121	    0,119528	21,5	    0,118926	24,6
     42,7141	    0,116264	24,2	    0,116589	23,4
      42,716	    0,116474	25,5	    0,116502	22,5
      42,718	    0,118715	24,4	    0,115827	21,7
     42,7199	    0,118815	21,4	    0,120504	20,8
     42,7219	    0,117034	20,6	    0,118996	20,8
     42,7239	    0,113919	27,8	    0,111862	24,8
     42,7258	    0,113741	26,8	    0,112793	26,6
     42,7278	    0,120197	21,8	    0,118756	19,5
     42,7297	    0,119315	20,6	    0,120251	20,3
     42,7317	    0,112577	24,6	    0,112529	26,4
     42,7336	     0,11327	25,7	    0,113122	26,8
     42,7356	    0,115067	25,6	    0,117189	19,9
     42,7375	    0,116345	23,9	    0,117858	20,0
     42,7395	    0,112841	24,0	    0,114645	25,3
     42,7414	    0,113263	23,8	     0,11383	25,5
     42,7434	    0,113716	27,3	    0,112112	26,5
     42,7454	    0,114088	25,3	    0,112132	25,1
     42,7473	    0,116049	21,1	    0,116331	21,7
     42,7493	    0,115164	21,8	    0,109853	27,5
     42,7512	     0,11119	28,1	    0,108966	28,0
     42,7532	    0,108718	28,6	    0,115255	21,9
     42,7551	    0,116355	22,9	    0,113386	22,0
     42,7571	    0,116021	22,1	    0,111918	24,5
      42,759	    0,109149	25,3	    0,111015	27,1
      42,761	    0,108815	27,9	    0,109907	27,6
      42,763	    0,109484	29,6	    0,110775	24,3
     42,7649	     0,11326	24,8	    0,112243	23,3
     42,7669	    0,113755	25,8	    0,112478	23,6
     42,7688	    0,108819	24,2	    0,112105	25,2
     42,7708	    0,107249	29,3	    0,106763	29,7
     42,7727	     0,10691	29,1	    0,106995	28,4
     42,7747	    0,114886	23,7	    0,113027	22,6
     42,7766	    0,113054	24,0	    0,112395	22,3
     42,7786	     0,10595	26,6	    0,107791	27,8
     42,7805	    0,105738	29,5	    0,106815	28,7
     42,7825	    0,108572	27,3	    0,109441	23,3
     42,7845	    0,108149	27,9	    0,111056	22,3
     42,7864	    0,107862	24,4	    0,109326	27,3
     42,7884	     0,10879	25,4	    0,108412	26,8
     42,7903	     0,10514	30,2	    0,104163	28,6
     42,7923	    0,105767	30,0	    0,104164	28,5
     42,7942	    0,107617	27,9	     0,11001	24,0
     42,7962	    0,109722	24,0	    0,109403	23,2
     42,7981	     0,10259	31,3	    0,104506	29,3
     42,8001	    0,101827	31,2	    0,103394	30,0
     42,8021	    0,107797	26,9	    0,106245	25,9
      42,804	    0,106685	27,5	    0,107651	25,5
      42,806	    0,107022	25,3	    0,107266	27,9
     42,8079	    0,105352	25,4	    0,105182	28,9
     42,8099	    0,103053	31,6	    0,103208	29,0
     42,8118	    0,102812	29,6	    0,103119	27,2
     42,8138	    0,104045	30,2	    0,108055	25,2
     42,8157	      0,1063	24,5	    0,108431	24,8
     42,8177	    0,106731	24,7	    0,101767	31,7
     42,8196	    0,100396	30,5	    0,102546	31,9
     42,8216	    0,100126	32,6	    0,104156	26,8
     42,8236	    0,103887	28,0	    0,103567	26,1
     42,8255	    0,103378	25,6	    0,105952	27,2
     42,8275	    0,105202	25,8	    0,105709	26,5
     42,8294	   0,0985578	32,7	   0,0993394	31,6
     42,8314	    0,101079	33,1	   0,0970178	31,8
     42,8333	    0,104844	26,1	    0,105859	25,5
     42,8353	     0,10508	25,8	     0,10509	25,2
     42,8372	    0,104687	26,4	   0,0999663	31,6
     42,8392	   0,0973302	33,9	    0,100045	33,5
     42,8412	   0,0977301	32,2	    0,100416	28,3
     42,8431	    0,103126	30,2	    0,102346	27,5
     42,8451	    0,103261	28,5	    0,103724	26,5
      42,847	    0,101487	27,6	    0,102696	26,9
      42,849	    0,100864	28,0	   0,0976413	32,8
     42,8509	    0,098705	34,8	   0,0970336	33,4
     42,8529	   0,0969432	34,6	    0,101123	26,4
     42,8548	    0,103345	27,1	    0,101971	25,3
     42,8568	    0,103443	26,9	   0,0998461	30,9
     42,8587	   0,0968599	32,1	   0,0979341	33,1
     42,8607	   0,0952969	33,2	   0,0973361	33,2
     42,8627	   0,0999261	29,4	   0,0980389	30,1
     42,8646	    0,101398	29,5	   0,0989515	29,3
     42,8666	    0,100724	27,5	    0,101153	26,9
     42,8685	   0,0983337	26,8	   0,0949582	35,3
     42,8705	   0,0948062	34,5	   0,0953857	35,5
     42,8724	    0,093592	35,1	   0,0962344	28,6
     42,8744	   0,0990213	28,7	   0,0974589	28,1
     42,8763	   0,0998814	29,8	   0,0979521	26,6
     42,8783	    0,097211	27,3	     0,09753	31,6
     42,8803	   0,0969676	29,6	   0,0976038	31,0
     42,8822	   0,0938834	35,3	   0,0941785	31,1
     42,8842	   0,0950388	35,0	   0,0944255	31,5
     42,8861	   0,0986727	28,5	    0,100181	26,4
     42,8881	   0,0992249	27,5	   0,0980492	25,8
       42,89	   0,0923742	35,5	   0,0953568	34,6
      42,892	   0,0919068	37,3	   0,0936065	33,6
     42,8939	   0,0910968	36,1	   0,0938729	31,6
     42,8959	   0,0971646	29,0	   0,0939729	32,0
     42,8979	   0,0966305	29,0	   0,0972022	28,5
     42,8998	   0,0924381	31,2	   0,0952506	29,8
     42,9018	   0,0917643	33,7	   0,0901233	36,5
     42,9037	   0,0926454	34,7	   0,0914906	35,6
     42,9057	   0,0935472	34,3	   0,0962093	27,6
     42,9076	     0,09672	26,5	   0,0970606	28,3
     42,9096	   0,0960897	27,5	   0,0938332	33,9
     42,9115	   0,0907917	35,8	   0,0922806	33,4
     42,9135	   0,0878562	35,5	   0,0909918	35,5
     42,9154	   0,0937497	31,7	   0,0904447	35,5
     42,9174	   0,0954739	30,4	   0,0960299	27,9
     42,9194	   0,0946967	30,0	   0,0941712	26,9
     42,9213	   0,0917871	32,4	   0,0920655	34,0
     42,9233	    0,091246	32,6	   0,0909022	36,0
     42,9252	    0,090398	36,7	   0,0904619	33,6
     42,9272	   0,0908826	37,2	   0,0907104	30,8
     42,9291	   0,0943078	30,3	   0,0915862	31,4
     42,9311	   0,0935607	29,6	   0,0944386	30,3
      42,933	   0,0874894	36,5	   0,0892471	37,1
      42,935	   0,0867595	37,4	   0,0877631	36,9
      42,937	   0,0915065	33,1	   0,0883637	32,6
     42,9389	   0,0920404	32,4	   0,0903317	32,9
     42,9409	   0,0892571	30,5	   0,0929771	29,4
     42,9428	   0,0898352	29,6	   0,0931363	30,6
     42,9448	   0,0857485	37,7	     0,08734	38,3
     42,9467	   0,0850708	38,4	   0,0869568	38,3
     42,9487	   0,0864388	38,9	   0,0897463	30,3
     42,9506	   0,0917697	29,2	   0,0884966	30,3
     42,9526	   0,0926269	31,2	   0,0891881	34,2
     42,9545	   0,0866987	35,8	   0,0911213	32,1
     42,9565	   0,0861664	36,7	   0,0852932	38,7
     42,9585	    0,086281	37,5	   0,0851738	38,2
     42,9604	   0,0868667	36,1	    0,089139	30,0
     42,9624	   0,0905768	30,7	   0,0885419	29,5
     42,9643	   0,0904798	30,5	   0,0896283	33,8
     42,9663	     0,08612	35,0	    0,087512	34,4
     42,9682	   0,0841298	36,7	   0,0874936	36,1
     42,9702	   0,0849294	38,4	   0,0842386	38,5
     42,9721	   0,0843527	37,4	   0,0843799	36,9
     42,9741	   0,0910406	29,8	   0,0888559	31,3
     42,9761	   0,0859694	34,3	   0,0912666	30,1
      42,978	   0,0844441	34,6	   0,0859518	36,5
       42,98	   0,0840689	38,2	   0,0859876	36,6
     42,9819	   0,0851864	36,5	   0,0826394	38,6
     42,9839	    0,085015	38,2	   0,0830539	37,8
     42,9858	   0,0888943	29,5	   0,0877943	28,4
     42,9878	   0,0897666	30,8	   0,0855859	36,3
     42,9897	   0,0809032	36,5	   0,0857473	34,9
     42,9917	   0,0809841	37,8	   0,0847448	36,8
     42,9936	    0,083761	39,0	   0,0807987	38,0
     42,9956	   0,0873493	32,2	   0,0821548	37,9
     42,9976	   0,0863665	30,7	   0,0871213	31,4
     42,9995	   0,0794193	36,6	   0,0865262	31,2
     43,0015	   0,0807731	38,3	   0,0825891	38,8
     43,0034	   0,0805089	38,0	   0,0823166	38,9
     43,0054	   0,0831797	37,7	   0,0801591	38,2
     43,0073	   0,0832676	37,0	    0,080693	37,5
     43,0093	   0,0838968	31,1	   0,0859184	30,6
     43,0112	   0,0848053	31,4	   0,0859945	31,1
     43,0132	   0,0791677	39,2	   0,0811429	38,5
     43,0152	   0,0790398	40,5	    0,079606	39,8
     43,0171	   0,0823913	35,9	   0,0790419	40,9
     43,0191	   0,0829148	37,6	   0,0806881	34,2
      43,021	   0,0830009	32,6	   0,0813344	32,6
      43,023	   0,0839425	31,7	   0,0849398	33,1
     43,0249	   0,0777858	42,4	   0,0853882	31,4
     43,0269	   0,0767155	41,4	   0,0797401	41,5
     43,0288	   0,0801738	37,1	   0,0802149	39,8
     43,0308	   0,0829291	38,1	    0,080563	38,5
     43,0327	   0,0823953	32,8	   0,0784587	37,6
     43,0347	   0,0840957	31,9	   0,0829312	32,2
     43,0367	   0,0759346	40,8	   0,0837005	31,7
     43,0386	    0,077822	39,9	   0,0800335	40,6
     43,0406	   0,0755611	43,2	   0,0794382	39,9
     43,0425	   0,0811529	36,9	     0,07915	36,8
     43,0445	   0,0819665	35,7	   0,0780824	35,3
     43,0464	   0,0800781	33,9	   0,0829188	31,8
     43,0484	   0,0796068	35,2	   0,0820777	32,5
     43,0503	   0,0763494	43,7	   0,0793722	37,8
     43,0523	   0,0759616	43,0	   0,0794973	40,4
     43,0543	   0,0805504	38,2	   0,0752251	41,9
     43,0562	    0,079574	36,7	   0,0737851	41,1
     43,0582	   0,0788862	35,0	   0,0802214	32,7
     43,0601	   0,0787575	33,8	   0,0818011	31,8
     43,0621	   0,0744338	42,5	    0,077867	39,8
      43,064	   0,0750444	42,3	   0,0776577	39,3
      43,066	    0,072846	43,8	   0,0750037	39,8
     43,0679	   0,0799792	37,5	   0,0731436	40,3
     43,0699	   0,0793396	31,6	   0,0805071	31,8
     43,0718	   0,0774783	35,5	   0,0793919	32,0
     43,0738	   0,0741328	43,7	    0,077438	37,7
     43,0758	   0,0722081	44,9	   0,0790798	37,9
     43,0777	   0,0730485	43,2	   0,0722263	43,3
     43,0797	   0,0787285	36,2	     0,07357	43,3
     43,0816	   0,0786971	37,4	    0,077636	33,0
     43,0836	   0,0758365	33,9	   0,0786415	33,3
     43,0855	   0,0766649	33,8	   0,0780208	37,0
     43,0875	   0,0713686	42,8	   0,0787958	36,6
     43,0894	   0,0712621	43,5	   0,0712963	43,2
     43,0914	   0,0781042	39,0	   0,0716239	43,4
     43,0934	   0,0755027	41,2	   0,0711621	42,6
     43,0953	   0,0780194	32,6	   0,0757932	37,6
     43,0973	    0,076966	33,9	   0,0791158	32,6
     43,0992	    0,070978	41,4	   0,0775717	33,5
     43,1012	   0,0729423	43,0	   0,0782642	35,9
     43,1031	   0,0751747	41,8	    0,072242	44,2
     43,1051	   0,0744064	41,4	   0,0711961	44,9
      43,107	   0,0775056	34,2	   0,0728475	37,2
      43,109	   0,0773395	32,9	   0,0726238	34,8
     43,1109	   0,0792207	32,9	   0,0794472	35,5
     43,1129	   0,0706892	40,2	   0,0778129	33,7
     43,1149	   0,0714987	42,6	   0,0727214	39,7
     43,1168	   0,0716071	42,8	   0,0689905	43,5
     43,1188	   0,0764487	35,7	   0,0692974	45,1
     43,1207	   0,0761597	36,3	    0,074373	34,8
     43,1227	    0,076605	35,7	   0,0748499	35,1
     43,1246	   0,0719586	40,0	   0,0748186	37,4
     43,1266	   0,0718323	38,4	    0,074678	37,9
     43,1285	    0,067985	44,5	   0,0708855	45,9
     43,1305	   0,0691499	45,1	   0,0686026	44,0
     43,1325	   0,0743057	36,9	   0,0689932	45,0
     43,1344	   0,0749988	38,9	   0,0719475	35,9
     43,1364	   0,0742183	33,5	   0,0721352	35,6
     43,1383	   0,0746803	36,0	   0,0756587	35,0
     43,1403	   0,0694705	43,0	   0,0750318	35,6
     43,1422	   0,0682621	43,1	   0,0707534	42,9
     43,1442	   0,0710023	42,7	    0,071693	42,9
     43,1461	   0,0725782	41,0	   0,0685075	40,6
     43,1481	   0,0739102	34,6	   0,0680965	42,7
       43,15	   0,0728471	33,4	    0,073763	33,6
      43,152	   0,0670531	41,9	   0,0741223	33,7
      43,154	   0,0676422	41,3	   0,0705453	41,7
     43,1559	   0,0663296	44,6	   0,0705877	41,9
     43,1579	   0,0671201	45,7	   0,0671586	45,2
     43,1598	   0,0734751	38,8	   0,0649025	44,2
     43,1618	   0,0735255	38,9	   0,0738354	34,0
     43,1637	   0,0714135	36,1	   0,0699582	35,8
     43,1657	   0,0717135	36,0	   0,0713945	36,3
     43,1676	   0,0654787	46,5	    0,072723	37,4
     43,1696	   0,0644702	44,5	    0,066659	45,3
     43,1716	   0,0692765	41,6	   0,0670724	44,9
     43,1735	    0,069075	42,3	   0,0667158	43,0
     43,1755	   0,0695991	44,0	   0,0675741	41,4
     43,1774	   0,0715309	34,3	   0,0668791	39,7
     43,1794	   0,0666578	41,5	   0,0729151	35,0
     43,1813	   0,0659236	39,8	   0,0694758	42,3
     43,1833	   0,0677907	39,6	   0,0693277	41,0
     43,1852	   0,0659026	44,2	   0,0627252	46,9
     43,1872	    0,065011	45,4	   0,0636801	47,6
     43,1891	   0,0713159	37,2	   0,0663042	39,2
     43,1911	   0,0712377	36,9	   0,0669404	41,4
     43,1931	    0,067441	35,9	   0,0707705	35,4
      43,195	   0,0676358	36,3	   0,0705097	35,0
      43,197	   0,0642734	47,6	   0,0679497	41,3
     43,1989	   0,0633631	46,6	   0,0683465	38,7
     43,2009	   0,0665872	44,9	   0,0626087	46,6
     43,2028	   0,0656481	46,1	   0,0631308	48,4
     43,2048	   0,0713475	37,2	   0,0662978	37,7
     43,2067	   0,0700149	36,7	   0,0661729	37,7
     43,2087	   0,0657491	40,6	   0,0693505	35,8
     43,2107	   0,0661689	39,6	   0,0706944	36,1
     43,2126	   0,0624799	46,3	   0,0643577	46,4
     43,2146	   0,0616139	45,7	   0,0659105	42,7
     43,2165	   0,0682006	41,1	   0,0625715	47,2
     43,2185	   0,0657579	43,6	   0,0620016	47,2
     43,2204	   0,0696046	37,0	   0,0673498	36,2
     43,2224	   0,0685845	34,9	   0,0659827	41,3
     43,2243	   0,0638968	42,9	   0,0698655	35,1
     43,2263	   0,0645529	39,7	   0,0701577	35,9
     43,2282	   0,0626155	49,4	   0,0651434	42,6
     43,2302	   0,0614079	47,3	   0,0611205	48,2
     43,2322	   0,0652751	43,7	   0,0615469	47,0
     43,2341	   0,0644622	47,0	   0,0651549	35,4
     43,2361	    0,070299	36,2	    0,064782	36,6
      43,238	   0,0686194	37,7	    0,064587	37,8
       43,24	   0,0641798	40,2	   0,0676586	37,1
     43,2419	    0,064137	39,8	   0,0666868	37,5
     43,2439	   0,0593514	48,1	   0,0627313	46,2
     43,2458	   0,0611348	48,2	   0,0631522	43,5
     43,2478	   0,0656005	40,7	   0,0602285	47,1
     43,2498	   0,0649335	42,5	   0,0606561	46,6
     43,2517	   0,0667696	36,0	   0,0647568	36,3
     43,2537	   0,0672236	38,5	   0,0638612	36,0
     43,2556	   0,0610882	40,9	   0,0669557	35,7
     43,2576	   0,0640691	39,4	   0,0662413	36,1
     43,2595	   0,0589714	48,9	   0,0621355	45,5
     43,2615	   0,0602087	49,8	   0,0619826	45,1
     43,2634	   0,0634033	41,9	   0,0584401	47,6
     43,2654	   0,0627715	42,9	   0,0591637	48,9
     43,2673	   0,0644759	37,0	   0,0637913	36,6
     43,2693	   0,0645862	37,7	   0,0628472	36,6
     43,2713	   0,0600958	44,4	   0,0654909	38,3
     43,2732	   0,0607939	42,0	   0,0664808	36,2
     43,2752	   0,0594423	49,2	   0,0606701	44,9
     43,2771	   0,0574377	50,2	   0,0623701	46,4
     43,2791	   0,0623401	43,6	    0,057788	48,4
      43,281	   0,0601587	45,0	   0,0585715	45,9
      43,283	   0,0643421	36,4	   0,0579091	48,1
     43,2849	   0,0655596	38,9	   0,0631037	37,7
     43,2869	   0,0603896	41,3	   0,0619078	38,0
     43,2889	   0,0598319	40,9	   0,0639194	38,3
     43,2908	    0,057297	50,4	   0,0653113	37,0
     43,2928	   0,0572766	49,2	   0,0608554	47,4
     43,2947	   0,0611769	46,1	    0,059989	47,3
     43,2967	   0,0594165	47,3	   0,0561379	46,7
     43,2986	   0,0647337	38,2	   0,0578907	49,6
     43,3006	   0,0635712	38,8	   0,0607394	39,9
     43,3025	   0,0602204	37,2	   0,0613737	38,2
     43,3045	   0,0617146	35,1	   0,0634811	39,6
     43,3064	   0,0580439	48,9	   0,0641236	37,2
     43,3084	   0,0556917	48,2	   0,0574442	47,1
     43,3104	   0,0590043	48,4	   0,0586569	47,5
     43,3123	   0,0594509	49,7	   0,0563198	47,9
     43,3143	    0,058352	46,5	   0,0570172	50,4
     43,3162	   0,0632567	38,6	   0,0601387	38,3
     43,3182	   0,0593683	36,7	   0,0591857	39,4
     43,3201	   0,0614917	35,6	   0,0630732	37,3
     43,3221	   0,0618495	38,7	   0,0625802	38,3
      43,324	   0,0571396	45,8	   0,0627262	36,1
      43,326	   0,0574549	42,2	    0,060096	43,8
      43,328	    0,056082	49,6	   0,0610685	43,7
     43,3299	   0,0548269	48,6	    0,055313	50,0
     43,3319	   0,0603479	41,2	   0,0558254	41,7
     43,3338	   0,0619518	40,4	   0,0558033	44,8
     43,3358	   0,0605871	36,8	   0,0622022	36,6
     43,3377	    0,061161	36,4	   0,0602214	35,9
     43,3397	   0,0557518	44,6	   0,0614624	42,0
     43,3416	   0,0577357	40,3	   0,0616431	39,8
     43,3436	   0,0557401	50,1	   0,0614483	39,0
     43,3456	   0,0541889	51,6	   0,0546785	50,5
     43,3475	   0,0585608	44,4	   0,0568877	47,2
     43,3495	   0,0571942	45,0	   0,0545953	48,9
     43,3514	   0,0604539	37,1	   0,0531395	50,5
     43,3534	   0,0603888	38,0	   0,0590692	36,8
     43,3553	   0,0624305	40,9	   0,0565376	42,6
     43,3573	    0,058997	39,6	   0,0617399	38,6
     43,3592	   0,0568579	37,0	   0,0611631	37,7
     43,3612	   0,0529479	48,2	   0,0586817	44,9
     43,3631	   0,0554146	48,3	   0,0602253	40,4
     43,3651	   0,0539167	48,7	   0,0538976	50,8
     43,3671	    0,059156	45,6	    0,053495	51,7
      43,369	   0,0579716	45,7	   0,0555104	44,2
      43,371	    0,059867	38,4	   0,0542126	42,2
     43,3729	    0,059809	38,9	   0,0592996	35,5
     43,3749	   0,0557949	39,5	    0,058082	38,0
     43,3768	   0,0576809	39,5	   0,0592335	41,4
     43,3788	   0,0533453	53,0	   0,0595029	39,7
     43,3807	   0,0522826	49,5	   0,0553955	49,7
     43,3827	   0,0548463	48,9	   0,0563973	46,7
     43,3847	   0,0526157	52,7	   0,0520142	50,9
     43,3866	   0,0583117	44,1	   0,0527156	51,6
     43,3886	   0,0582548	43,6	   0,0550315	42,7
     43,3905	   0,0604401	38,0	   0,0545832	40,5
     43,3925	   0,0587891	37,8	    0,052992	44,5
     43,3944	   0,0551165	41,4	   0,0580388	35,9
     43,3964	   0,0550901	36,0	   0,0576544	45,6
     43,3983	   0,0522637	49,4	   0,0589903	41,3
     43,4003	   0,0526535	47,0	    0,052653	50,1
     43,4022	   0,0518541	53,0	   0,0542228	48,8
     43,4042	   0,0525115	52,6	   0,0515637	49,3
     43,4062	   0,0575198	42,1	   0,0508217	51,9
     43,4081	   0,0564308	45,2	   0,0545768	38,9
     43,4101	   0,0578039	37,9	   0,0523189	45,6
      43,412	   0,0589146	36,5	   0,0532856	43,8
      43,414	   0,0528548	43,3	   0,0583212	35,5
     43,4159	    0,054009	41,0	   0,0573028	36,1
     43,4179	   0,0499192	52,2	   0,0560144	43,8
     43,4198	   0,0509311	50,3	   0,0574378	40,3
     43,4218	   0,0501307	48,6	   0,0520964	51,0
     43,4238	   0,0509492	51,9	   0,0530397	48,2
     43,4257	    0,052133	51,7	   0,0481088	52,0
     43,4277	   0,0581073	39,0	   0,0504528	51,8
     43,4296	   0,0565348	42,9	   0,0540304	40,5
     43,4316	   0,0561553	37,3	   0,0516316	45,5
     43,4335	   0,0580402	39,3	    0,056863	38,3
     43,4355	   0,0516569	42,9	    0,057261	36,1
     43,4374	   0,0533637	39,3	   0,0549728	45,7
     43,4394	   0,0485343	52,5	   0,0560833	41,3
     43,4413	   0,0506458	50,1	   0,0560793	41,1
     43,4433	   0,0501475	51,5	    0,049813	52,0
     43,4453	   0,0512336	51,2	   0,0524233	51,0
     43,4472	   0,0490558	52,8	     0,04866	49,8
     43,4492	   0,0551091	42,7	   0,0478473	52,0
     43,4511	   0,0538929	47,5	   0,0524098	37,6
     43,4531	   0,0562949	37,3	   0,0523635	42,3
      43,455	   0,0564925	41,8	    0,054903	37,5
      43,457	   0,0542889	38,3	   0,0542586	37,0
     43,4589	   0,0488695	49,0	   0,0550747	43,4
     43,4609	    0,049084	45,4	   0,0555241	40,9
     43,4629	     0,04863	55,7	   0,0507991	50,7
     43,4648	   0,0489607	53,3	   0,0513021	45,4
     43,4668	   0,0482581	53,8	   0,0484369	52,1
     43,4687	   0,0537159	45,5	   0,0487767	52,9
     43,4707	   0,0500006	51,5	   0,0481153	54,3
     43,4726	   0,0539204	41,8	   0,0490944	45,4
     43,4746	   0,0536685	45,6	    0,053604	38,4
     43,4765	   0,0537597	39,2	   0,0532461	39,5
     43,4785	   0,0568478	40,6	   0,0554589	37,9
     43,4804	   0,0500665	39,7	   0,0553703	37,1
     43,4824	   0,0526966	39,2	   0,0524252	45,9
     43,4844	   0,0479525	52,9	   0,0542039	42,3
     43,4863	   0,0489001	53,4	    0,048511	50,2
     43,4883	   0,0468267	55,0	    0,051075	49,4
     43,4902	   0,0518732	48,4	   0,0476473	53,3
     43,4922	   0,0510288	47,6	   0,0486134	51,5
     43,4941	   0,0497246	51,5	     0,04916	42,6
     43,4961	   0,0546949	40,8	   0,0489621	47,1
      43,498	   0,0517976	43,5	   0,0467109	49,4
        43,5	   0,0471778	52,4	   0,0484937	38,3

