X-Data [Hz]	Laser (M - Filtered) [m/s]	Phase [Deg]	Laser (M - Filtered) [m/s]	Phase [Deg]	
	002: [07-09-24 14:22]		003: [07-09-24 14:26]	
        40,5	    0,050664	74,1	   0,0557339	72,2
     40,5029	   0,0516493	71,4	   0,0556734	72,2
     40,5059	   0,0531009	71,5	   0,0556578	73,1
     40,5088	   0,0533288	71,6	   0,0557203	72,0
     40,5117	   0,0532708	71,5	   0,0555459	71,4
     40,5147	   0,0536914	73,5	   0,0558475	71,6
     40,5176	   0,0536952	72,0	   0,0560049	72,2
     40,5205	   0,0545088	71,4	    0,055659	71,2
     40,5235	   0,0544568	71,1	   0,0557942	71,9
     40,5264	   0,0544412	73,0	   0,0559467	71,3
     40,5293	   0,0542888	71,7	     0,05625	72,2
     40,5323	   0,0537982	74,3	   0,0562842	72,7
     40,5352	   0,0539465	73,6	   0,0561737	73,3
     40,5381	   0,0549795	72,2	   0,0561054	71,9
     40,5411	    0,055205	70,9	   0,0561844	71,4
      40,544	    0,055655	73,9	   0,0563204	71,2
     40,5469	   0,0555826	72,4	   0,0564805	71,9
     40,5499	   0,0547515	73,6	   0,0563249	71,4
     40,5528	   0,0553228	71,7	   0,0566492	72,2
     40,5557	   0,0542712	71,3	   0,0566663	72,1
     40,5587	   0,0550578	74,1	   0,0567753	71,6
     40,5616	   0,0545129	74,4	   0,0567679	71,3
     40,5645	   0,0542469	73,6	   0,0565435	72,1
     40,5674	   0,0551933	70,6	   0,0567306	71,0
     40,5704	   0,0550286	74,3	   0,0567414	70,8
     40,5733	   0,0550867	74,1	   0,0568767	71,4
     40,5762	   0,0569181	72,4	   0,0573586	72,6
     40,5792	    0,055503	72,1	   0,0568664	71,5
     40,5821	   0,0565133	70,6	   0,0570559	71,5
      40,585	     0,05499	74,1	    0,057193	71,0
      40,588	   0,0561128	71,9	   0,0573863	70,9
     40,5909	   0,0548838	71,4	    0,057041	71,1
     40,5938	   0,0565556	72,6	   0,0574409	71,0
     40,5968	   0,0559661	73,4	    0,057637	71,2
     40,5997	   0,0555567	73,8	   0,0570497	71,0
     40,6026	   0,0547912	74,0	   0,0573253	71,7
     40,6056	   0,0562253	72,0	   0,0575477	71,7
     40,6085	   0,0553648	73,8	   0,0578104	71,6
     40,6114	   0,0562584	74,3	   0,0582125	72,2
     40,6144	   0,0564946	74,3	   0,0582199	72,6
     40,6173	   0,0579444	73,4	   0,0576615	70,7
     40,6202	    0,057854	73,6	   0,0582023	71,7
     40,6232	   0,0563689	74,5	   0,0582872	72,2
     40,6261	   0,0563434	74,5	   0,0582831	71,7
      40,629	   0,0577243	70,6	   0,0583158	72,4
      40,632	   0,0571426	73,3	   0,0585943	72,0
     40,6349	   0,0569784	72,0	   0,0585406	71,9
     40,6378	   0,0581372	73,5	   0,0581794	71,7
     40,6408	   0,0584775	71,0	   0,0582595	71,6
     40,6437	   0,0570507	74,3	   0,0584692	70,9
     40,6466	    0,057543	71,8	   0,0582516	70,9
     40,6496	   0,0586135	71,2	   0,0585066	71,3
     40,6525	   0,0586956	72,4	   0,0585253	70,5
     40,6554	   0,0568134	71,5	    0,058818	71,5
     40,6584	   0,0577358	72,9	   0,0582592	70,9
     40,6613	   0,0581872	74,1	   0,0583952	71,0
     40,6642	   0,0589003	73,4	   0,0587585	71,7
     40,6672	   0,0579001	74,2	   0,0589764	71,8
     40,6701	   0,0588034	73,6	   0,0587289	70,7
      40,673	   0,0592599	73,6	   0,0586906	71,0
      40,676	   0,0592837	73,5	   0,0592654	72,5
     40,6789	   0,0588929	71,6	   0,0597097	72,6
     40,6818	   0,0579084	73,7	   0,0593827	72,7
     40,6847	   0,0579911	72,3	   0,0595277	71,7
     40,6877	   0,0591531	71,5	    0,059151	71,5
     40,6906	   0,0595405	72,9	   0,0591235	71,7
     40,6936	   0,0587447	73,6	   0,0589938	71,0
     40,6965	   0,0594041	72,0	   0,0596081	71,4
     40,6994	   0,0592685	70,7	   0,0597499	72,0
     40,7023	     0,05949	71,4	    0,059884	72,0
     40,7053	   0,0588187	71,7	   0,0603498	73,6
     40,7082	   0,0602388	71,8	   0,0596341	71,1
     40,7111	   0,0601739	72,7	   0,0601427	72,6
     40,7141	   0,0595521	71,9	   0,0603862	72,8
      40,717	   0,0605038	72,3	   0,0602231	72,2
     40,7199	    0,060783	72,6	   0,0603758	72,2
     40,7229	   0,0609628	73,6	   0,0603206	72,0
     40,7258	   0,0606388	71,8	   0,0604493	71,6
     40,7287	   0,0601458	72,6	   0,0613002	72,9
     40,7317	   0,0614248	74,2	   0,0605494	73,1
     40,7346	   0,0606748	73,4	   0,0598239	71,4
     40,7375	      0,0604	72,0	   0,0598562	71,5
     40,7405	   0,0602453	71,9	   0,0607459	73,9
     40,7434	   0,0603516	72,1	   0,0619883	73,9
     40,7463	   0,0601242	72,5	    0,061121	74,2
     40,7493	   0,0610925	74,2	    0,060997	73,2
     40,7522	   0,0607857	71,9	   0,0607858	71,2
     40,7551	   0,0608288	71,9	   0,0605288	72,0
     40,7581	   0,0604578	72,2	   0,0610196	71,9
      40,761	   0,0601755	72,4	   0,0609297	71,4
     40,7639	    0,061953	74,4	   0,0609122	71,4
     40,7669	   0,0612434	72,7	   0,0607371	71,3
     40,7698	   0,0612285	72,0	   0,0610767	71,3
     40,7727	   0,0606993	72,1	   0,0611463	71,0
     40,7757	   0,0613501	71,7	   0,0613098	71,2
     40,7786	    0,061447	71,6	   0,0612889	71,5
     40,7815	   0,0619086	71,6	   0,0614764	71,3
     40,7845	   0,0616598	72,6	   0,0613138	71,2
     40,7874	   0,0625028	71,9	   0,0617797	71,8
     40,7903	   0,0617391	72,1	   0,0613895	71,0
     40,7933	   0,0631563	73,4	   0,0619564	72,3
     40,7962	   0,0627327	74,1	   0,0618507	71,2
     40,7991	   0,0628365	72,3	   0,0617379	71,5
     40,8021	   0,0621398	72,5	   0,0620905	71,8
      40,805	   0,0638411	74,7	   0,0618001	71,8
     40,8079	   0,0622192	72,2	   0,0618033	71,1
     40,8109	   0,0624665	72,2	   0,0620676	71,9
     40,8138	   0,0628212	74,7	    0,062321	72,1
     40,8167	   0,0643278	74,8	   0,0625402	71,9
     40,8196	   0,0626065	73,6	   0,0623832	71,4
     40,8226	   0,0645472	74,5	   0,0623794	72,5
     40,8255	   0,0646966	74,5	   0,0627073	71,9
     40,8284	   0,0640954	74,3	   0,0624393	71,2
     40,8314	   0,0649152	74,5	   0,0627792	71,2
     40,8343	   0,0637293	72,7	   0,0627678	71,6
     40,8372	   0,0650518	74,8	   0,0627941	71,7
     40,8402	   0,0641335	72,3	   0,0628852	71,3
     40,8431	   0,0643281	73,0	   0,0627002	70,9
      40,846	   0,0650331	73,7	   0,0633159	72,0
      40,849	     0,06549	74,7	   0,0633013	71,7
     40,8519	    0,064678	74,7	   0,0633815	72,0
     40,8548	    0,065123	74,9	   0,0634135	72,1
     40,8578	   0,0657121	74,8	   0,0637424	72,1
     40,8607	   0,0638473	73,2	   0,0635759	72,2
     40,8636	   0,0646006	72,6	   0,0641488	72,9
     40,8666	   0,0653067	74,9	   0,0639293	72,7
     40,8695	   0,0649888	75,0	   0,0641791	72,3
     40,8724	   0,0662261	74,4	   0,0641411	72,6
     40,8754	   0,0665218	74,9	   0,0644094	72,4
     40,8783	   0,0664282	74,8	   0,0641501	71,9
     40,8812	   0,0667213	75,1	   0,0642722	72,9
     40,8842	    0,065537	72,6	   0,0641255	71,8
     40,8871	   0,0668741	74,9	   0,0643448	71,8
       40,89	   0,0669176	75,0	   0,0648584	72,1
      40,893	   0,0670925	75,1	   0,0647165	72,2
     40,8959	    0,067238	74,9	   0,0650602	72,3
     40,8988	   0,0673355	75,0	   0,0648386	72,3
     40,9018	   0,0668363	74,9	   0,0649251	72,6
     40,9047	   0,0667094	75,4	   0,0651433	72,4
     40,9076	   0,0655353	73,2	   0,0654392	72,7
     40,9106	   0,0676888	75,3	   0,0655602	72,3
     40,9135	   0,0672638	75,2	    0,065377	72,4
     40,9164	   0,0676544	74,8	   0,0649398	72,1
     40,9194	   0,0681503	75,1	   0,0661848	73,2
     40,9223	   0,0683542	75,2	    0,065638	72,6
     40,9252	   0,0672344	72,9	   0,0660074	72,8
     40,9282	   0,0685071	75,4	   0,0659246	72,7
     40,9311	   0,0677285	75,3	   0,0658849	72,4
      40,934	   0,0687512	75,3	   0,0660078	72,2
      40,937	    0,068856	75,5	    0,066455	73,1
     40,9399	   0,0691494	75,5	   0,0664613	73,2
     40,9428	   0,0690634	75,3	   0,0665062	73,5
     40,9457	   0,0691579	75,5	    0,066552	73,3
     40,9487	   0,0691838	75,2	    0,066777	73,5
     40,9516	   0,0692458	75,4	   0,0666665	73,4
     40,9545	   0,0684736	73,7	   0,0671556	73,7
     40,9575	   0,0687768	73,9	   0,0673139	73,5
     40,9604	   0,0697875	75,7	   0,0675285	73,5
     40,9633	   0,0697827	75,6	   0,0669485	72,2
     40,9663	   0,0701744	75,8	   0,0675398	73,1
     40,9692	   0,0702594	75,8	    0,068035	73,4
     40,9721	    0,069373	75,8	   0,0677084	73,3
     40,9751	   0,0705361	75,6	   0,0683565	74,4
      40,978	   0,0704716	76,0	   0,0689283	73,7
     40,9809	   0,0708706	76,0	   0,0685364	74,1
     40,9839	   0,0708995	75,7	    0,068865	74,7
     40,9868	   0,0710012	75,7	   0,0693642	75,2
     40,9897	   0,0713058	75,6	   0,0696593	74,7
     40,9927	   0,0711734	75,9	   0,0704684	75,5
     40,9956	   0,0715034	75,6	   0,0692041	74,1
     40,9985	   0,0714964	75,8	   0,0697561	73,2
     41,0015	   0,0717364	76,2	   0,0694435	73,7
     41,0044	   0,0718104	76,2	   0,0699911	74,8
     41,0073	   0,0719319	76,3	   0,0705556	73,6
     41,0103	   0,0721458	76,2	   0,0706882	74,3
     41,0132	   0,0722479	76,2	   0,0706932	76,0
     41,0161	    0,072373	76,2	   0,0709669	75,7
     41,0191	   0,0724177	75,9	   0,0702295	74,7
      41,022	    0,072667	75,9	   0,0718481	75,8
     41,0249	   0,0728187	76,2	   0,0718712	74,9
     41,0279	   0,0728885	76,1	   0,0732079	75,9
     41,0308	   0,0730475	76,1	    0,070906	74,4
     41,0337	    0,073188	76,4	   0,0714062	73,9
     41,0367	   0,0733516	76,4	    0,070188	74,2
     41,0396	   0,0735401	76,4	   0,0719315	75,9
     41,0425	   0,0736315	76,0	   0,0725266	76,3
     41,0455	   0,0735629	76,1	   0,0730335	75,7
     41,0484	   0,0739907	76,3	   0,0725456	76,4
     41,0513	   0,0740196	76,4	   0,0723172	75,2
     41,0543	   0,0742815	76,5	   0,0728905	74,2
     41,0572	   0,0743873	76,5	   0,0741847	75,5
     41,0601	   0,0742011	76,7	   0,0728156	75,0
      41,063	   0,0746624	76,4	   0,0735704	74,7
      41,066	   0,0748765	76,7	   0,0748277	75,9
     41,0689	   0,0750371	76,6	   0,0740763	76,5
     41,0718	   0,0750887	76,4	   0,0751479	76,3
     41,0748	   0,0752949	76,7	   0,0745921	77,0
     41,0777	   0,0754135	76,5	    0,073501	75,7
     41,0806	   0,0756229	76,6	   0,0725847	74,3
     41,0836	   0,0757979	76,9	   0,0721769	73,4
     41,0865	   0,0759316	77,0	   0,0736842	74,6
     41,0894	   0,0759008	76,9	   0,0740894	76,3
     41,0924	   0,0763079	76,8	    0,073537	75,1
     41,0953	   0,0763011	76,7	   0,0737228	75,4
     41,0982	    0,076645	76,9	   0,0748423	76,6
     41,1012	   0,0767081	77,1	   0,0765596	77,2
     41,1041	   0,0768083	77,0	   0,0757639	77,3
      41,107	   0,0769215	77,1	   0,0761757	76,8
       41,11	   0,0773062	77,3	   0,0756393	75,2
     41,1129	   0,0774582	77,3	   0,0771818	76,4
     41,1158	   0,0775496	77,0	   0,0771403	76,4
     41,1188	   0,0774324	76,8	    0,076345	76,7
     41,1217	   0,0779451	77,0	   0,0767347	77,8
     41,1246	   0,0780677	77,3	    0,078264	78,4
     41,1276	   0,0782504	77,5	   0,0779879	76,9
     41,1305	   0,0782832	77,5	   0,0780902	77,5
     41,1334	   0,0786449	77,5	   0,0769624	75,7
     41,1364	     0,07875	77,5	    0,078108	76,7
     41,1393	    0,078842	77,4	   0,0780255	77,9
     41,1422	   0,0791289	77,4	   0,0767476	76,5
     41,1452	   0,0792821	77,2	   0,0781153	78,1
     41,1481	   0,0794675	77,5	    0,079519	78,4
      41,151	   0,0793522	77,8	   0,0797739	78,4
      41,154	   0,0798214	77,9	    0,078716	76,6
     41,1569	   0,0801163	77,6	   0,0798959	76,8
     41,1598	   0,0801483	77,6	   0,0795162	76,7
     41,1628	   0,0803947	77,6	   0,0806473	76,8
     41,1657	   0,0805606	77,7	   0,0804992	77,5
     41,1686	   0,0806727	78,0	   0,0793639	78,5
     41,1716	   0,0809973	77,7	   0,0808877	78,7
     41,1745	   0,0811299	77,9	   0,0809878	77,5
     41,1774	   0,0813379	77,6	   0,0814785	76,8
     41,1804	   0,0816291	77,9	   0,0808783	77,1
     41,1833	   0,0816768	77,7	    0,082088	77,2
     41,1862	   0,0815601	77,9	   0,0823304	77,1
     41,1891	   0,0820751	77,9	   0,0826123	78,7
     41,1921	   0,0823089	78,3	   0,0826534	77,3
      41,195	   0,0825048	77,7	    0,083247	78,2
     41,1979	   0,0826441	78,3	   0,0835723	77,6
     41,2009	   0,0828456	77,5	   0,0824936	76,7
     41,2038	   0,0826324	78,0	   0,0823307	77,1
     41,2067	   0,0832926	78,2	   0,0836105	77,4
     41,2097	    0,083445	78,6	   0,0837572	76,9
     41,2126	    0,083684	78,6	   0,0844211	78,0
     41,2155	   0,0837552	78,5	      0,0842	77,2
     41,2185	   0,0838538	78,4	    0,084464	76,9
     41,2214	   0,0839171	78,8	   0,0847991	77,1
     41,2243	   0,0840105	78,8	   0,0853021	77,9
     41,2273	   0,0847888	78,4	   0,0855281	78,3
     41,2302	    0,084903	78,8	   0,0856396	78,2
     41,2331	   0,0847462	78,8	   0,0844389	79,2
     41,2361	   0,0852046	79,2	   0,0855529	78,6
      41,239	   0,0853511	79,0	   0,0863463	77,8
     41,2419	   0,0857805	78,8	   0,0862475	78,2
     41,2449	   0,0861462	78,9	   0,0862287	77,8
     41,2478	   0,0859297	79,0	   0,0867998	78,3
     41,2507	   0,0864156	79,2	   0,0870076	78,3
     41,2537	    0,086767	79,4	   0,0875766	78,2
     41,2566	   0,0864962	79,4	   0,0875499	78,3
     41,2595	   0,0867213	79,1	   0,0879116	77,9
     41,2625	   0,0875545	79,2	   0,0879677	78,3
     41,2654	   0,0878147	79,3	   0,0883184	78,7
     41,2683	   0,0879855	79,5	   0,0885005	78,8
     41,2713	   0,0882116	79,7	   0,0887684	78,5
     41,2742	   0,0877357	79,4	   0,0893177	78,4
     41,2771	   0,0885001	79,7	   0,0890618	78,3
     41,2801	   0,0887473	79,7	   0,0895578	78,7
      41,283	   0,0890532	79,8	    0,089609	78,9
     41,2859	    0,089463	80,0	   0,0897672	78,8
     41,2889	   0,0894637	79,9	   0,0900023	78,2
     41,2918	   0,0898922	79,8	   0,0905889	78,8
     41,2947	   0,0900227	79,8	   0,0913135	79,1
     41,2977	   0,0901704	80,1	    0,090929	79,8
     41,3006	   0,0906578	80,2	   0,0909728	79,0
     41,3035	   0,0910874	80,4	   0,0914658	79,2
     41,3064	   0,0910187	80,2	   0,0919017	79,0
     41,3094	   0,0913316	80,3	   0,0918562	78,9
     41,3123	   0,0918487	80,3	   0,0919386	79,4
     41,3153	   0,0915758	80,5	   0,0924802	79,4
     41,3182	   0,0923586	80,6	   0,0934013	79,8
     41,3211	   0,0927089	80,3	    0,093264	79,6
      41,324	   0,0928293	80,4	   0,0931447	78,7
      41,327	   0,0930927	80,8	   0,0937535	79,3
     41,3299	   0,0936686	80,7	   0,0939738	79,7
     41,3328	   0,0937355	80,5	   0,0943408	80,4
     41,3358	   0,0941809	80,7	    0,094914	80,4
     41,3387	   0,0943248	80,9	   0,0955973	80,6
     41,3416	   0,0947743	80,6	   0,0956754	80,2
     41,3446	   0,0949426	80,8	    0,095971	80,3
     41,3475	   0,0953328	81,1	   0,0961295	80,8
     41,3504	   0,0959281	80,9	   0,0964993	80,6
     41,3534	   0,0960769	81,1	   0,0969104	80,5
     41,3563	   0,0960016	81,3	   0,0975605	80,7
     41,3592	   0,0965347	81,0	   0,0977156	80,7
     41,3622	    0,096785	81,1	   0,0978895	80,7
     41,3651	   0,0973993	81,5	   0,0981743	81,1
      41,368	   0,0977401	81,4	   0,0985787	81,5
      41,371	   0,0976875	81,7	   0,0986254	80,7
     41,3739	   0,0980759	81,2	   0,0991832	80,7
     41,3768	   0,0984397	81,3	   0,0994875	80,8
     41,3798	   0,0990984	81,9	   0,0999366	81,5
     41,3827	     0,09904	82,1	    0,100426	82,1
     41,3856	   0,0994449	82,4	    0,101366	82,3
     41,3886	    0,100143	82,2	    0,101491	81,7
     41,3915	    0,100294	81,8	    0,101762	82,0
     41,3944	    0,100791	82,2	    0,102273	82,2
     41,3974	    0,101173	82,4	    0,102605	82,6
     41,4003	    0,101462	82,4	    0,103254	83,0
     41,4032	    0,101697	82,4	    0,103569	82,4
     41,4062	    0,102242	82,5	    0,103849	82,6
     41,4091	    0,102627	82,3	    0,104297	82,9
      41,412	    0,102878	82,6	     0,10484	83,0
      41,415	    0,103504	83,0	    0,105658	83,2
     41,4179	    0,103514	83,0	    0,105887	83,0
     41,4208	    0,104036	83,1	    0,105458	82,1
     41,4238	    0,104439	82,9	     0,10671	83,5
     41,4267	    0,104716	82,9	    0,107264	84,1
     41,4296	    0,105219	83,0	    0,108316	83,6
     41,4326	    0,106033	83,7	    0,108385	82,4
     41,4355	    0,106535	83,9	    0,109306	82,9
     41,4384	    0,106704	83,8	    0,109176	83,8
     41,4413	    0,107063	83,2	    0,110637	85,3
     41,4443	    0,107873	84,1	    0,112375	84,6
     41,4472	     0,10844	84,3	    0,112615	83,3
     41,4501	    0,108527	84,2	    0,117208	83,1
     41,4531	    0,108859	84,5	    0,122454	84,4
      41,456	      0,1095	84,1	    0,133244	86,6
     41,4589	    0,110145	84,5	    0,145393	88,7
     41,4619	    0,110698	85,2	    0,155572	91,7
     41,4648	    0,111363	85,1	    0,169376	96,9
     41,4677	    0,111397	84,7	     0,17762	102,1
     41,4707	    0,112344	84,8	    0,188724	106,0
     41,4736	    0,112712	85,2	    0,194672	109,6
     41,4765	    0,113725	85,7	    0,197106	112,4
     41,4795	    0,113797	85,2	    0,201534	115,8
     41,4824	       0,114	85,1	    0,205296	118,7
     41,4853	    0,115129	85,5	    0,208859	121,2
     41,4883	    0,115965	86,2	    0,213862	123,3
     41,4912	    0,116565	86,7	    0,212132	125,4
     41,4941	    0,116826	86,8	    0,214665	127,4
     41,4971	     0,11727	86,4	    0,217766	128,4
        41,5	    0,118431	87,0	    0,220872	130,3
     41,5029	    0,119045	87,5	    0,219538	130,9
     41,5059	    0,119866	87,4	    0,220758	132,6
     41,5088	    0,120023	87,0	    0,222735	134,3
     41,5117	    0,121289	87,5	    0,221872	134,6
     41,5147	    0,122246	87,9	    0,227364	135,5
     41,5176	    0,122655	88,3	     0,22572	136,0
     41,5205	    0,123773	88,2	     0,22793	137,9
     41,5235	    0,123965	88,3	    0,228157	139,0
     41,5264	    0,125057	88,5	    0,229405	139,5
     41,5293	    0,125855	89,2	    0,228781	139,9
     41,5323	    0,126444	88,9	    0,228816	141,0
     41,5352	    0,127682	89,6	    0,230792	142,1
     41,5381	    0,128867	90,0	    0,231208	142,4
     41,5411	    0,129564	90,2	    0,230865	142,4
      41,544	    0,130817	90,9	     0,22864	143,5
     41,5469	    0,131511	90,8	    0,231807	144,2
     41,5499	     0,13291	91,6	    0,231799	145,4
     41,5528	    0,134062	91,6	    0,231447	145,4
     41,5557	    0,135339	92,2	    0,230707	146,0
     41,5587	    0,136415	92,2	    0,230423	146,7
     41,5616	     0,13743	92,3	    0,231518	147,1
     41,5645	    0,138948	93,1	    0,232394	147,4
     41,5674	    0,140152	93,6	    0,230735	147,8
     41,5704	    0,141019	94,1	    0,232129	148,7
     41,5733	    0,142913	94,3	    0,231967	149,3
     41,5762	    0,144432	94,9	     0,23153	149,4
     41,5792	    0,146156	95,5	    0,230932	149,8
     41,5821	    0,147765	96,1	    0,229825	150,7
      41,585	    0,149428	96,7	    0,232616	151,0
      41,588	    0,151359	97,2	     0,23214	151,1
     41,5909	    0,153435	98,5	     0,22998	151,4
     41,5938	    0,155627	99,1	     0,23111	151,7
     41,5968	     0,15847	99,7	     0,23179	152,3
     41,5997	    0,160244	100,5	       0,232	153,4
     41,6026	    0,163619	102,1	    0,232725	153,2
     41,6056	    0,166586	103,3	    0,231048	153,5
     41,6085	    0,170897	105,3	    0,231241	154,4
     41,6114	    0,174624	106,7	    0,231294	154,3
     41,6144	    0,178618	108,7	    0,228257	154,6
     41,6173	    0,182859	110,9	    0,234477	155,1
     41,6202	    0,188259	113,4	    0,231708	155,2
     41,6232	    0,193338	116,1	    0,231538	155,7
     41,6261	    0,198484	119,5	    0,223445	155,8
      41,629	    0,204045	122,9	    0,232505	156,3
      41,632	    0,209651	126,6	    0,232743	157,4
     41,6349	    0,216611	132,0	     0,23334	157,4
     41,6378	    0,221815	137,0	    0,230344	157,4
     41,6408	    0,227103	141,9	    0,228624	158,1
     41,6437	    0,231081	146,1	    0,229403	158,2
     41,6466	    0,234902	151,0	    0,230801	158,6
     41,6496	       0,236	154,5	    0,228443	158,3
     41,6525	    0,237002	157,4	    0,229975	158,5
     41,6554	    0,236989	158,8	    0,230772	159,5
     41,6584	    0,236615	159,9	    0,226978	159,6
     41,6613	    0,236025	160,7	    0,229933	160,2
     41,6642	    0,235485	161,1	    0,230173	160,2
     41,6672	    0,235111	161,0	    0,230513	161,1
     41,6701	    0,234761	161,4	    0,228822	161,1
      41,673	    0,234464	161,9	    0,229197	160,9
      41,676	    0,233951	162,4	    0,228956	161,4
     41,6789	    0,233873	162,3	    0,229674	161,9
     41,6818	    0,233595	162,6	    0,228505	161,8
     41,6847	     0,23334	163,1	    0,228577	162,1
     41,6877	    0,232763	163,2	    0,228708	162,7
     41,6906	    0,231929	163,1	     0,22852	162,9
     41,6936	    0,232394	163,1	    0,227574	162,8
     41,6965	    0,232203	163,9	    0,226988	163,3
     41,6994	    0,231628	163,8	    0,227752	163,8
     41,7023	    0,231546	164,4	    0,227667	164,0
     41,7053	    0,231237	164,6	     0,22604	163,9
     41,7082	     0,23064	165,0	    0,227049	164,8
     41,7111	    0,230439	164,9	    0,227046	164,8
     41,7141	     0,23048	165,2	    0,226427	164,8
      41,717	    0,230365	165,5	    0,225333	164,4
     41,7199	     0,22998	166,0	    0,225767	165,6
     41,7229	    0,229692	166,0	    0,225998	166,2
     41,7258	     0,22936	166,4	    0,224808	165,9
     41,7287	    0,228954	166,7	    0,223241	165,7
     41,7317	    0,228515	167,1	    0,224597	166,7
     41,7346	    0,228241	166,8	    0,225561	166,4
     41,7375	    0,227902	167,3	    0,224947	167,3
     41,7405	    0,227747	167,7	     0,22399	167,2
     41,7434	    0,227936	167,8	    0,224547	167,7
     41,7463	    0,227639	168,6	    0,223745	167,6
     41,7493	    0,227231	168,7	    0,222663	167,5
     41,7522	    0,226957	169,2	    0,223772	168,2
     41,7551	      0,2268	169,4	    0,223174	168,4
     41,7581	    0,226434	169,3	     0,22308	167,9
      41,761	    0,226047	169,8	     0,22194	168,5
     41,7639	    0,225628	169,7	     0,22255	168,8
     41,7669	    0,225302	170,0	    0,222879	169,6
     41,7698	    0,225049	170,6	    0,222132	169,0
     41,7727	    0,224608	170,6	    0,222453	169,7
     41,7757	     0,22452	171,1	    0,221916	170,3
     41,7786	     0,22402	170,7	    0,221889	170,2
     41,7815	    0,224041	171,3	    0,221206	170,7
     41,7845	     0,22362	171,7	    0,220903	170,9
     41,7874	    0,223267	171,7	    0,220419	170,4
     41,7903	    0,222918	172,0	    0,220037	170,6
     41,7933	    0,222698	172,5	    0,219372	171,1
     41,7962	    0,222332	172,4	    0,220186	171,3
     41,7991	    0,221975	172,2	    0,219736	171,1
     41,8021	    0,221521	172,7	    0,217356	170,6
      41,805	    0,221446	172,8	    0,218534	172,1
     41,8079	     0,22101	172,9	    0,218718	171,6
     41,8109	    0,220698	173,2	    0,218598	172,4
     41,8138	    0,220388	173,5	    0,218465	173,1
     41,8167	    0,220212	173,4	    0,217861	172,8
     41,8196	    0,219832	174,0	    0,217426	173,3
     41,8226	     0,21952	174,2	    0,216779	173,5
     41,8255	    0,219238	174,4	    0,217559	173,7
     41,8284	    0,218776	174,4	    0,216744	173,6
     41,8314	     0,21844	174,8	    0,216123	173,8
     41,8343	    0,218137	174,8	     0,21655	174,6
     41,8372	    0,217683	175,0	    0,216153	174,0
     41,8402	    0,217405	175,4	    0,214692	174,2
     41,8431	    0,217147	175,6	    0,214865	174,9
      41,846	    0,216857	175,5	    0,215157	174,7
      41,849	    0,216589	175,6	    0,213663	174,8
     41,8519	    0,216281	176,1	    0,213984	175,2
     41,8548	     0,21598	176,2	    0,213525	175,6
     41,8578	    0,215576	176,3	    0,213869	175,4
     41,8607	    0,215176	176,7	    0,213351	175,7
     41,8636	    0,214647	176,5	    0,212568	175,4
     41,8666	    0,214195	176,5	    0,213202	175,7
     41,8695	    0,213808	176,7	    0,212898	176,2
     41,8724	    0,213814	176,5	    0,212663	176,5
     41,8754	    0,213753	177,1	    0,211938	176,3
     41,8783	    0,213487	177,7	     0,21179	176,7
     41,8812	    0,213106	178,0	    0,211845	177,4
     41,8842	    0,212779	177,9	    0,211526	177,1
     41,8871	    0,212434	178,5	    0,210354	177,4
       41,89	    0,211924	178,8	    0,210257	178,0
      41,893	    0,211567	178,6	    0,210293	178,2
     41,8959	    0,211288	178,8	    0,209561	177,5
     41,8988	    0,210973	179,1	    0,209766	178,8
     41,9018	    0,210624	179,0	    0,209531	178,3
     41,9047	    0,210288	179,2	    0,209463	178,6
     41,9076	    0,210039	179,8	    0,207656	178,8
     41,9106	    0,209726	179,8	    0,208978	179,4
     41,9135	    0,209455	180,1	     0,20738	178,8
     41,9164	    0,208979	180,2	    0,207373	179,3
     41,9194	    0,208725	180,2	    0,207178	179,7
     41,9223	    0,208358	180,4	     0,20684	179,5
     41,9252	    0,208115	180,9	     0,20633	179,9
     41,9282	    0,207636	180,7	    0,205966	179,6
     41,9311	    0,207324	180,6	     0,20641	180,1
      41,934	    0,207042	181,2	    0,205478	180,4
      41,937	    0,206616	181,2	    0,206022	180,9
     41,9399	    0,206371	181,2	    0,205667	181,0
     41,9428	    0,206025	181,7	    0,204725	180,4
     41,9457	     0,20567	181,7	    0,204193	180,9
     41,9487	    0,205284	181,5	    0,204031	180,7
     41,9516	    0,205049	182,0	    0,203544	181,4
     41,9545	    0,204615	182,4	    0,203653	181,7
     41,9575	    0,204184	182,1	    0,203139	181,3
     41,9604	    0,203893	182,4	    0,202951	181,9
     41,9633	     0,20357	182,5	    0,202373	182,0
     41,9663	    0,203143	182,3	    0,202736	181,9
     41,9692	    0,202578	182,7	    0,201955	182,3
     41,9721	     0,20213	182,8	    0,201693	182,5
     41,9751	    0,202207	182,7	    0,200982	182,1
      41,978	    0,201954	183,2	    0,200543	182,2
     41,9809	    0,201578	183,8	    0,200605	182,8
     41,9839	    0,201074	183,6	    0,200523	182,7
     41,9868	    0,200506	183,7	     0,19961	183,0
     41,9897	    0,200002	183,4	    0,200053	183,6
     41,9927	    0,199843	183,6	    0,199406	183,0
     41,9956	    0,199439	183,9	    0,198993	183,8
     41,9985	     0,19926	184,0	    0,199444	183,8
     42,0015	    0,198901	183,9	    0,197837	183,7
     42,0044	    0,198678	184,5	    0,198016	184,0
     42,0073	    0,198354	184,7	    0,197942	184,4
     42,0103	    0,198153	184,7	    0,197617	184,3
     42,0132	    0,197794	185,2	    0,197448	184,7
     42,0161	    0,197259	185,0	    0,196928	184,5
     42,0191	    0,196929	185,5	    0,196469	184,5
      42,022	    0,196545	185,9	    0,195965	185,2
     42,0249	    0,196257	185,7	    0,196267	185,0
     42,0279	    0,196053	185,8	    0,195397	185,2
     42,0308	    0,195359	186,1	    0,195312	185,6
     42,0337	     0,19489	186,2	     0,19492	185,6
     42,0367	     0,19531	186,4	    0,194293	185,7
     42,0396	    0,194946	186,9	    0,194598	186,1
     42,0425	    0,194442	186,6	    0,193805	185,8
     42,0455	    0,194007	187,1	    0,193581	186,5
     42,0484	    0,193563	187,5	    0,193213	186,6
     42,0513	    0,193151	186,9	    0,192901	186,2
     42,0543	    0,192881	187,6	    0,192649	186,8
     42,0572	    0,192518	187,3	    0,192293	186,7
     42,0601	    0,191871	187,6	    0,191996	186,7
      42,063	    0,191701	188,0	    0,191489	187,0
      42,066	    0,191317	187,9	    0,191469	187,1
     42,0689	    0,191108	187,9	    0,191016	187,2
     42,0718	    0,190802	188,6	    0,190793	187,6
     42,0748	    0,190648	188,3	    0,190456	187,8
     42,0777	    0,190441	188,7	    0,189786	187,8
     42,0806	    0,189907	189,1	    0,189823	188,3
     42,0836	    0,189391	188,9	    0,189107	188,0
     42,0865	    0,189325	189,1	    0,189043	188,7
     42,0894	    0,188523	189,2	    0,188961	188,4
     42,0924	    0,188467	189,0	    0,188546	188,5
     42,0953	    0,188085	189,3	    0,188239	189,1
     42,0982	    0,187511	189,6	    0,188152	189,1
     42,1012	    0,187424	189,4	    0,187706	189,2
     42,1041	    0,187074	189,9	     0,18608	190,2
      42,107	    0,186647	190,3	    0,187038	189,2
       42,11	    0,186487	190,0	    0,186637	189,8
     42,1129	    0,185834	190,3	    0,186371	189,7
     42,1158	    0,185625	189,9	    0,186145	190,0
     42,1188	    0,185477	190,5	    0,185549	190,2
     42,1217	    0,184782	190,8	     0,18522	190,0
     42,1246	    0,184448	190,2	    0,184961	190,3
     42,1276	    0,184069	190,6	    0,184632	190,5
     42,1305	    0,183829	190,7	    0,184215	190,4
     42,1334	    0,183437	190,7	    0,184185	190,9
     42,1364	    0,183048	191,2	    0,184207	191,2
     42,1393	     0,18277	190,8	     0,18357	191,3
     42,1422	    0,182446	190,9	    0,183513	191,7
     42,1452	    0,182084	191,5	    0,182958	191,3
     42,1481	    0,181837	191,3	    0,182659	191,8
      42,151	    0,181307	191,7	    0,182178	191,6
      42,154	    0,180763	191,5	    0,182167	191,6
     42,1569	    0,180708	191,4	    0,181884	192,0
     42,1598	    0,180371	192,3	    0,181367	192,3
     42,1628	     0,18014	192,0	    0,181096	192,2
     42,1657	    0,179753	192,6	    0,180891	192,7
     42,1686	    0,179118	192,3	    0,180375	192,2
     42,1716	    0,178961	192,3	    0,180235	192,4
     42,1745	    0,178658	192,9	    0,179573	192,7
     42,1774	    0,178223	192,7	    0,179398	192,8
     42,1804	    0,178128	193,1	    0,178865	192,7
     42,1833	    0,177796	193,3	    0,178564	192,8
     42,1862	    0,177589	193,4	    0,178517	193,1
     42,1891	    0,177197	193,7	    0,178238	193,3
     42,1921	     0,17684	193,8	    0,177748	193,1
      42,195	    0,175896	194,1	    0,177339	193,6
     42,1979	    0,175216	194,2	    0,177113	193,5
     42,2009	    0,175214	193,9	    0,176652	193,3
     42,2038	    0,175469	194,3	    0,176493	193,9
     42,2067	    0,175116	194,2	    0,175796	193,9
     42,2097	    0,174319	193,9	    0,175604	194,1
     42,2126	    0,174394	194,7	    0,175274	194,1
     42,2155	    0,173912	194,4	    0,174983	194,3
     42,2185	    0,173749	194,8	    0,174568	194,2
     42,2214	    0,172805	194,5	    0,174479	194,7
     42,2243	    0,173039	194,9	    0,174049	194,9
     42,2273	    0,172643	195,3	    0,173837	194,9
     42,2302	    0,172268	195,3	    0,173418	194,9
     42,2331	     0,17185	195,4	    0,172955	195,5
     42,2361	    0,171535	195,1	    0,172939	195,2
      42,239	    0,171239	195,5	    0,172519	195,1
     42,2419	     0,17094	195,6	     0,17208	195,3
     42,2449	    0,170418	195,6	    0,171805	195,3
     42,2478	    0,170075	196,0	     0,17141	195,6
     42,2507	    0,169688	196,0	    0,171152	195,4
     42,2537	    0,169427	196,4	    0,170942	195,9
     42,2566	    0,169156	196,5	    0,170596	196,2
     42,2595	    0,168272	196,4	    0,170349	195,9
     42,2625	    0,168633	196,8	     0,16985	196,4
     42,2654	    0,168466	196,8	    0,169629	196,4
     42,2683	    0,167785	196,6	    0,169287	196,8
     42,2713	    0,167568	197,3	    0,168973	196,7
     42,2742	    0,167207	196,9	    0,168645	196,9
     42,2771	    0,166894	197,1	    0,168077	196,8
     42,2801	    0,166594	197,1	    0,168037	197,2
      42,283	    0,166251	197,2	    0,167714	197,4
     42,2859	    0,166106	197,5	    0,167351	197,5
     42,2889	    0,165677	197,6	    0,167004	197,5
     42,2918	    0,165285	197,9	    0,166444	197,4
     42,2947	    0,165016	197,9	    0,166406	197,6
     42,2977	    0,164706	198,1	    0,166068	198,0
     42,3006	    0,164401	198,2	    0,165671	197,8
     42,3035	    0,164018	198,0	    0,165374	198,0
     42,3064	    0,163681	198,7	    0,165042	198,1
     42,3094	    0,163296	198,5	    0,164755	198,4
     42,3123	    0,162863	198,9	    0,164463	198,5
     42,3153	    0,162566	198,9	    0,164111	198,3
     42,3182	    0,162211	198,8	    0,163724	198,9
     42,3211	    0,161997	198,9	    0,163459	198,9
      42,324	    0,161618	198,8	    0,163127	199,1
      42,327	    0,161428	199,3	      0,1628	199,0
     42,3299	    0,161067	199,3	    0,162461	199,0
     42,3328	    0,160542	199,3	    0,162089	199,4
     42,3358	    0,160211	199,5	    0,161703	199,1
     42,3387	    0,159993	199,4	    0,161452	199,6
     42,3416	    0,159625	200,0	    0,161199	199,7
     42,3446	    0,159339	199,7	    0,160851	199,4
     42,3475	    0,158962	-159,8	    0,160559	199,7
     42,3504	    0,158478	-160,0	    0,160192	199,7
     42,3534	     0,15834	-159,6	    0,159725	-159,8
     42,3563	     0,15793	-159,5	    0,159463	-159,7
     42,3592	    0,157683	-159,6	    0,159253	-159,4
     42,3622	    0,157322	-159,3	    0,158952	-159,5
     42,3651	     0,15703	-159,6	    0,158547	-159,2
      42,368	    0,156715	-159,3	    0,158134	-159,0
      42,371	    0,156401	-159,2	     0,15787	-159,2
     42,3739	    0,156011	-159,1	    0,157586	-159,1
     42,3768	    0,155454	-159,1	    0,157283	-159,3
     42,3798	    0,155269	-158,5	    0,156949	-158,9
     42,3827	    0,155026	-158,7	    0,156581	-158,9
     42,3856	    0,154679	-158,7	    0,156102	-158,8
     42,3886	    0,154401	-158,1	    0,155382	-158,8
     42,3915	    0,154035	-158,5	    0,155664	-158,2
     42,3944	    0,153697	-157,9	    0,155366	-158,2
     42,3974	    0,153427	-158,1	    0,154972	-158,2
     42,4003	     0,15305	-157,9	    0,154633	-157,8
     42,4032	    0,152647	-157,8	     0,15431	-158,0
     42,4062	     0,15234	-158,0	    0,153998	-157,7
     42,4091	    0,152031	-157,7	    0,153741	-158,0
      42,412	    0,151739	-157,7	    0,153307	-157,9
      42,415	    0,151477	-157,2	    0,153026	-157,7
     42,4179	    0,151078	-157,6	    0,152813	-157,6
     42,4208	    0,150856	-156,9	    0,152543	-157,3
     42,4238	     0,15053	-157,1	    0,152099	-157,5
     42,4267	    0,150122	-156,9	    0,151773	-157,0
     42,4296	    0,149698	-156,8	    0,151467	-157,1
     42,4326	    0,149335	-157,0	     0,15116	-156,5
     42,4355	    0,149208	-156,8	     0,15094	-157,0
     42,4384	    0,148921	-156,9	    0,150507	-156,7
     42,4413	    0,148504	-156,6	    0,150146	-156,5
     42,4443	    0,148163	-156,8	    0,149888	-156,5
     42,4472	    0,147838	-156,1	    0,149568	-156,5
     42,4501	    0,147613	-156,2	    0,149217	-156,4
     42,4531	    0,147219	-156,2	    0,148863	-156,1
      42,456	    0,146894	-155,8	    0,148279	-156,1
     42,4589	    0,146694	-156,0	    0,148297	-155,7
     42,4619	    0,146363	-155,8	    0,148031	-155,9
     42,4648	    0,146077	-156,0	      0,1476	-155,7
     42,4677	    0,145636	-155,7	    0,147241	-155,4
     42,4707	    0,145084	-155,7	    0,146984	-155,6
     42,4736	    0,145028	-155,5	    0,146692	-155,7
     42,4765	     0,14469	-155,4	    0,146269	-155,5
     42,4795	    0,144382	-154,8	    0,146028	-155,2
     42,4824	     0,14398	-155,0	    0,145741	-155,3
     42,4853	    0,143725	-154,9	    0,145368	-154,9
     42,4883	    0,143378	-155,0	     0,14509	-154,8
     42,4912	    0,143195	-154,9	    0,144222	-154,3
     42,4941	    0,142809	-154,9	    0,144485	-154,5
     42,4971	    0,142422	-155,0	    0,144097	-154,5
        42,5	    0,142133	-154,5	    0,143937	-154,9
     42,5029	    0,141942	-154,6	    0,143682	-154,3
     42,5059	    0,141639	-154,0	    0,143196	-154,4
     42,5088	    0,141291	-154,2	    0,142838	-154,4
     42,5117	    0,141001	-153,9	    0,142598	-154,1
     42,5147	    0,140485	-153,9	    0,142266	-153,8
     42,5176	    0,140287	-153,8	    0,141973	-154,2
     42,5205	    0,140027	-154,2	    0,141663	-153,8
     42,5235	    0,139723	-153,7	    0,141221	-153,7
     42,5264	    0,139372	-153,6	    0,140951	-154,0
     42,5293	    0,139036	-153,8	     0,14067	-153,6
     42,5323	    0,138607	-153,2	    0,140387	-153,8
     42,5352	    0,138544	-153,1	    0,140042	-153,2
     42,5381	    0,138198	-153,4	    0,139725	-153,3
     42,5411	    0,137759	-153,1	    0,139376	-152,9
      42,544	    0,137581	-153,0	    0,139168	-153,1
     42,5469	    0,137267	-153,2	    0,138861	-152,8
     42,5499	     0,13693	-152,8	    0,138578	-153,0
     42,5528	    0,136267	-152,7	    0,138224	-152,7
     42,5557	    0,136032	-152,2	    0,137862	-152,7
     42,5587	    0,135573	-152,3	    0,137566	-152,5
     42,5616	     0,13571	-152,5	    0,137287	-152,4
     42,5645	    0,135482	-152,4	    0,136979	-152,3
     42,5674	    0,135123	-152,0	    0,136587	-152,6
     42,5704	    0,134854	-152,4	    0,136288	-152,2
     42,5733	    0,134552	-152,0	    0,136023	-152,1
     42,5762	    0,134196	-151,9	    0,135692	-152,1
     42,5792	    0,133909	-151,7	    0,135441	-152,0
     42,5821	    0,133407	-151,6	    0,135066	-152,0
      42,585	    0,133272	-151,6	    0,134884	-151,6
      42,588	    0,133071	-152,0	    0,134572	-151,5
     42,5909	    0,132395	-151,4	    0,134237	-151,9
     42,5938	    0,132009	-151,5	    0,133871	-151,7
     42,5968	    0,132091	-151,4	    0,133496	-151,3
     42,5997	    0,131792	-151,2	    0,133245	-151,4
     42,6026	    0,131534	-150,9	    0,133152	-151,0
     42,6056	    0,131057	-150,6	    0,132741	-151,2
     42,6085	    0,130522	-150,8	    0,132368	-150,7
     42,6114	    0,130113	-151,0	    0,132045	-151,0
     42,6144	    0,130184	-150,8	    0,131721	-150,5
     42,6173	    0,130001	-150,7	    0,131553	-151,0
     42,6202	    0,129614	-150,7	    0,131237	-150,5
     42,6232	    0,129362	-150,2	    0,130851	-150,5
     42,6261	    0,129207	-150,6	    0,130581	-150,2
      42,629	    0,128714	-150,4	    0,130294	-150,5
      42,632	    0,128282	-150,0	    0,129957	-149,9
     42,6349	    0,128297	-150,1	    0,129759	-150,3
     42,6378	    0,127923	-150,1	    0,129376	-150,0
     42,6408	    0,127577	-149,8	    0,129119	-150,3
     42,6437	    0,127185	-149,6	    0,128771	-149,7
     42,6466	    0,127071	-149,4	    0,128478	-149,8
     42,6496	    0,126578	-149,5	     0,12817	-149,5
     42,6525	    0,126366	-149,6	    0,127895	-149,8
     42,6554	    0,126035	-149,5	    0,127563	-149,7
     42,6584	    0,125886	-149,4	    0,127214	-149,7
     42,6613	    0,125569	-149,6	    0,127066	-149,4
     42,6642	     0,12525	-149,0	    0,126715	-149,5
     42,6672	     0,12503	-149,2	    0,126313	-149,0
     42,6701	    0,124587	-149,2	    0,125975	-149,1
      42,673	    0,124304	-149,1	    0,125851	-149,0
      42,676	    0,124116	-148,9	    0,125594	-149,3
     42,6789	     0,12372	-149,0	    0,125122	-148,8
     42,6818	    0,123528	-148,5	    0,124966	-149,0
     42,6847	    0,123141	-148,2	    0,124587	-148,5
     42,6877	    0,123031	-148,2	     0,12432	-148,6
     42,6906	    0,122636	-148,5	    0,124074	-148,6
     42,6936	    0,122401	-148,6	    0,123583	-148,6
     42,6965	    0,122178	-148,3	    0,123448	-148,4
     42,6994	    0,121871	-148,1	     0,12313	-148,2
     42,7023	    0,121271	-147,9	    0,122916	-148,1
     42,7053	    0,121205	-147,8	    0,122397	-148,2
     42,7082	    0,120825	-147,7	    0,122361	-147,9
     42,7111	    0,120752	-147,8	    0,121886	-148,0
     42,7141	    0,120536	-147,8	    0,121646	-148,0
      42,717	    0,120152	-147,7	     0,12146	-147,5
     42,7199	    0,119916	-147,2	    0,121277	-147,6
     42,7229	    0,119295	-147,4	    0,120849	-147,5
     42,7258	    0,119299	-147,5	    0,120602	-147,7
     42,7287	    0,118598	-147,6	    0,120254	-147,3
     42,7317	    0,118718	-147,2	    0,120072	-147,6
     42,7346	    0,118336	-147,3	     0,11968	-147,5
     42,7375	     0,11788	-146,6	    0,119466	-147,2
     42,7405	     0,11752	-147,0	    0,119249	-146,8
     42,7434	    0,117617	-146,9	    0,118819	-147,2
     42,7463	    0,116857	-146,7	    0,118525	-146,8
     42,7493	    0,116794	-146,5	    0,118294	-147,2
     42,7522	    0,116368	-146,9	    0,117998	-146,8
     42,7551	    0,116495	-146,2	    0,117804	-146,6
     42,7581	     0,11616	-146,5	    0,117502	-146,6
      42,761	    0,115826	-146,7	    0,117126	-146,7
     42,7639	    0,115254	-146,4	    0,116877	-146,5
     42,7669	    0,115434	-146,3	    0,116619	-146,5
     42,7698	    0,114997	-146,2	    0,116427	-146,3
     42,7727	    0,114835	-145,8	    0,115948	-146,2
     42,7757	    0,114389	-145,9	    0,115651	-145,8
     42,7786	    0,114228	-146,0	    0,115404	-146,0
     42,7815	    0,113895	-145,8	    0,115266	-146,3
     42,7845	    0,113754	-146,0	    0,114951	-145,8
     42,7874	    0,113501	-145,7	    0,114043	-145,3
     42,7903	    0,112366	-145,5	    0,114393	-145,6
     42,7933	    0,112867	-145,4	    0,114093	-145,7
     42,7962	    0,112401	-145,8	     0,11384	-145,6
     42,7991	    0,112406	-145,4	    0,113597	-145,6
     42,8021	    0,111338	-144,9	    0,113219	-145,3
      42,805	    0,111651	-145,0	    0,113137	-145,5
     42,8079	    0,111157	-145,3	    0,112805	-145,3
     42,8109	    0,111225	-144,9	    0,112112	-145,4
     42,8138	    0,110797	-144,8	    0,112058	-145,0
     42,8167	    0,110632	-145,1	    0,111856	-145,3
     42,8196	    0,110064	-144,4	    0,111521	-145,0
     42,8226	    0,109923	-144,8	    0,111102	-144,4
     42,8255	    0,109909	-144,4	    0,110962	-145,1
     42,8284	    0,109296	-144,8	    0,110896	-144,8
     42,8314	    0,109465	-144,8	    0,110628	-144,9
     42,8343	    0,109146	-144,7	    0,110331	-144,3
     42,8372	    0,108998	-144,1	    0,110116	-144,5
     42,8402	    0,108402	-144,2	    0,109747	-144,6
     42,8431	    0,108438	-144,2	     0,10957	-144,2
      42,846	    0,108061	-144,7	    0,109267	-144,1
      42,849	    0,107736	-144,2	    0,108996	-144,1
     42,8519	    0,107683	-144,1	    0,108658	-144,2
     42,8548	    0,107139	-144,2	    0,108413	-144,0
     42,8578	      0,1069	-143,8	    0,107854	-144,2
     42,8607	    0,106621	-144,1	    0,107706	-143,8
     42,8636	    0,106611	-143,8	    0,107386	-143,5
     42,8666	    0,105638	-143,2	    0,107165	-143,0
     42,8695	    0,106023	-143,5	    0,106729	-144,0
     42,8724	    0,105597	-143,3	    0,106529	-143,6
     42,8754	    0,104726	-143,6	    0,106522	-143,6
     42,8783	    0,105126	-143,6	     0,10638	-143,5
     42,8812	     0,10496	-143,3	    0,106104	-143,3
     42,8842	    0,104722	-143,2	    0,105496	-143,6
     42,8871	    0,104519	-143,6	     0,10547	-143,4
       42,89	    0,104045	-142,5	    0,105074	-143,1
      42,893	    0,103983	-143,4	    0,105015	-143,0
     42,8959	    0,103706	-142,7	    0,104561	-143,2
     42,8988	    0,103209	-142,6	    0,104431	-143,2
     42,9018	    0,103257	-143,2	    0,104227	-142,9
     42,9047	    0,102962	-142,8	    0,103898	-142,9
     42,9076	    0,102477	-142,9	    0,103712	-142,6
     42,9106	    0,102495	-142,6	    0,103485	-142,8
     42,9135	    0,101608	-142,5	    0,103236	-142,8
     42,9164	    0,101847	-142,4	    0,103001	-142,8
     42,9194	    0,101322	-141,9	    0,102653	-142,3
     42,9223	    0,101587	-142,3	    0,102108	-142,4
     42,9252	    0,100869	-142,2	    0,102102	-142,7
     42,9282	    0,100694	-142,4	    0,101862	-142,3
     42,9311	    0,100721	-142,1	    0,101638	-142,2
      42,934	    0,100096	-141,9	    0,101443	-141,9
      42,937	   0,0999712	-141,7	    0,100889	-141,7
     42,9399	   0,0998245	-142,1	    0,100622	-141,7
     42,9428	   0,0996489	-142,1	      0,1006	-141,9
     42,9457	   0,0994245	-141,8	    0,100439	-141,8
     42,9487	   0,0991945	-141,7	   0,0998654	-141,7
     42,9516	    0,098573	-141,3	   0,0997895	-141,8
     42,9545	   0,0983043	-141,9	     0,09967	-141,9
     42,9575	   0,0978402	-141,1	   0,0992363	-141,6
     42,9604	   0,0979571	-142,0	   0,0989944	-141,3
     42,9633	   0,0978946	-141,3	   0,0987335	-141,5
     42,9663	   0,0975265	-140,8	   0,0983114	-141,4
     42,9692	   0,0969188	-141,4	   0,0983893	-141,3
     42,9721	   0,0973404	-141,4	   0,0979373	-140,9
     42,9751	    0,096664	-141,0	   0,0978817	-141,1
      42,978	   0,0966447	-141,2	   0,0975055	-141,2
     42,9809	   0,0964017	-140,9	   0,0973077	-141,0
     42,9839	   0,0961792	-141,2	   0,0970141	-141,1
     42,9868	   0,0958954	-140,4	    0,096649	-140,6
     42,9897	   0,0953549	-140,5	   0,0964262	-140,6
     42,9927	   0,0954776	-140,8	   0,0962514	-140,7
     42,9956	   0,0953749	-141,1	   0,0960239	-140,5
     42,9985	   0,0946122	-140,3	   0,0959504	-140,6
     43,0015	   0,0948969	-140,5	   0,0955137	-140,7
     43,0044	   0,0945935	-140,5	   0,0955059	-140,6
     43,0073	    0,093981	-140,2	   0,0952134	-140,6
     43,0103	   0,0941439	-140,9	   0,0947621	-139,9
     43,0132	   0,0938793	-140,1	   0,0946435	-139,6
     43,0161	   0,0934674	-139,9	   0,0941634	-140,1
     43,0191	   0,0932577	-140,4	    0,094141	-140,4
      43,022	   0,0932852	-140,0	   0,0938676	-139,8
     43,0249	   0,0929159	-140,0	   0,0938758	-140,3
     43,0279	   0,0929548	-140,0	   0,0935924	-140,4
     43,0308	   0,0924945	-139,9	   0,0933244	-139,5
     43,0337	   0,0922167	-139,9	   0,0931103	-140,2
     43,0367	   0,0920999	-139,7	   0,0927279	-139,4
     43,0396	   0,0914986	-139,1	   0,0926783	-139,7
     43,0425	   0,0915051	-139,6	   0,0923359	-139,9
     43,0455	   0,0914851	-139,4	   0,0920752	-139,4
     43,0484	   0,0909977	-138,7	   0,0919138	-139,6
     43,0513	   0,0908319	-138,7	   0,0914653	-139,2
     43,0543	   0,0905402	-138,9	   0,0913364	-139,0
     43,0572	   0,0903123	-138,9	   0,0912507	-139,4
     43,0601	   0,0901793	-138,8	   0,0911964	-139,0
      43,063	   0,0900317	-137,8	   0,0907818	-139,5
      43,066	   0,0896086	-137,5	   0,0904861	-138,8
     43,0689	   0,0898009	-139,0	    0,090338	-138,0
     43,0718	   0,0893434	-138,0	   0,0899871	-139,2
     43,0748	   0,0893152	-139,0	   0,0898729	-136,5
     43,0777	   0,0889097	-138,2	   0,0896918	-139,1
     43,0806	   0,0889076	-139,0	   0,0892955	-137,8
     43,0836	   0,0885838	-136,4	   0,0892316	-138,6
     43,0865	   0,0883062	-137,2	   0,0889829	-138,9
     43,0894	   0,0881336	-137,6	   0,0889133	-138,7
     43,0924	   0,0880142	-139,3	    0,088628	-138,8
     43,0953	   0,0877845	-137,7	   0,0883137	-138,8
     43,0982	   0,0874787	-138,8	   0,0881874	-138,5
     43,1012	   0,0874046	-138,4	   0,0879112	-139,1
     43,1041	   0,0872332	-138,5	   0,0877078	-138,6
      43,107	   0,0869738	-138,7	   0,0875153	-138,1
       43,11	   0,0866859	-138,6	   0,0872924	-138,8
     43,1129	   0,0865165	-138,7	   0,0870377	-138,7
     43,1158	    0,086233	-138,6	   0,0868089	-138,5
     43,1188	   0,0861046	-138,2	   0,0867123	-138,7
     43,1217	   0,0858563	-138,6	   0,0864097	-138,6
     43,1246	   0,0856812	-138,4	    0,086187	-138,4
     43,1276	   0,0854565	-138,4	   0,0859554	-138,4
     43,1305	   0,0852291	-138,3	   0,0856871	-138,5
     43,1334	   0,0849193	-138,1	   0,0855241	-138,7
     43,1364	   0,0848591	-138,3	    0,085322	-138,3
     43,1393	   0,0846248	-138,2	   0,0851184	-137,9
     43,1422	   0,0843589	-138,0	   0,0848682	-138,5
     43,1452	    0,084212	-138,3	   0,0847052	-138,0
     43,1481	   0,0839695	-137,9	   0,0845699	-138,1
      43,151	   0,0836653	-138,0	    0,084243	-138,0
      43,154	   0,0834448	-137,8	   0,0840411	-137,8
     43,1569	   0,0834026	-137,7	   0,0838323	-137,9
     43,1598	   0,0831756	-137,9	    0,083567	-137,6
     43,1628	    0,082868	-137,7	   0,0834208	-137,8
     43,1657	   0,0827446	-137,6	   0,0832565	-138,1
     43,1686	   0,0825575	-138,0	   0,0830683	-137,5
     43,1716	    0,082236	-137,3	   0,0827979	-137,7
     43,1745	   0,0820546	-137,5	   0,0825494	-137,5
     43,1774	   0,0818846	-137,5	   0,0823773	-137,5
     43,1804	   0,0816465	-137,3	   0,0822023	-137,4
     43,1833	   0,0815031	-137,3	   0,0819972	-137,5
     43,1862	   0,0812337	-137,3	   0,0818565	-137,6
     43,1891	   0,0811023	-137,3	   0,0815834	-137,6
     43,1921	   0,0809854	-137,4	   0,0813678	-136,9
      43,195	   0,0807289	-137,1	   0,0812058	-137,4
     43,1979	   0,0804486	-137,1	   0,0810206	-137,6
     43,2009	   0,0803539	-137,4	   0,0807686	-136,9
     43,2038	   0,0801421	-136,8	   0,0806176	-137,1
     43,2067	   0,0799093	-136,9	    0,080394	-137,2
     43,2097	   0,0797738	-137,1	   0,0800955	-137,0
     43,2126	   0,0794068	-136,6	     0,08002	-136,9
     43,2155	   0,0793398	-136,9	   0,0797776	-136,6
     43,2185	   0,0791058	-137,0	   0,0795291	-137,1
     43,2214	   0,0789496	-136,8	   0,0792719	-136,9
     43,2243	   0,0788017	-136,7	   0,0791412	-136,6
     43,2273	   0,0784668	-136,4	   0,0789695	-137,0
     43,2302	   0,0783373	-136,8	   0,0787334	-136,9
     43,2331	   0,0782252	-136,8	   0,0785496	-136,4
     43,2361	   0,0778796	-136,2	   0,0783804	-136,8
      43,239	   0,0777066	-136,6	   0,0781235	-136,7
     43,2419	   0,0776248	-136,7	   0,0779468	-136,3
     43,2449	   0,0774077	-136,3	    0,077776	-136,7
     43,2478	   0,0773463	-136,3	   0,0775541	-136,5
     43,2507	    0,077073	-136,6	   0,0774631	-136,1
     43,2537	   0,0767781	-136,0	   0,0772218	-136,3
     43,2566	   0,0767182	-136,2	   0,0769721	-136,4
     43,2595	   0,0765547	-136,3	   0,0768129	-136,2
     43,2625	    0,076242	-136,0	   0,0766694	-136,2
     43,2654	   0,0760914	-136,1	     0,07636	-135,9
     43,2683	   0,0759436	-136,5	   0,0762708	-136,3
     43,2713	   0,0757295	-135,7	   0,0760902	-136,2
     43,2742	   0,0755879	-135,9	   0,0757953	-135,9
     43,2771	   0,0753333	-135,9	   0,0756424	-136,1
     43,2801	   0,0751755	-135,9	    0,075499	-136,1
      43,283	   0,0749536	-135,4	   0,0753345	-135,6
     43,2859	   0,0747553	-136,1	   0,0751024	-136,1
     43,2889	   0,0747087	-135,7	   0,0749347	-135,9
     43,2918	   0,0743736	-135,8	   0,0747432	-135,6
     43,2947	   0,0742171	-135,8	   0,0745655	-135,7
     43,2977	   0,0741377	-135,7	    0,074426	-136,1
     43,3006	   0,0739545	-135,8	   0,0741734	-135,3
     43,3035	   0,0736237	-135,3	   0,0739157	-135,8
     43,3064	   0,0735587	-135,5	   0,0738199	-135,7
     43,3094	   0,0734385	-135,5	   0,0737017	-135,3
     43,3123	   0,0731781	-135,4	   0,0735373	-135,5
     43,3153	   0,0729107	-135,3	   0,0733102	-135,7
     43,3182	   0,0729046	-135,6	    0,073071	-135,3
     43,3211	    0,072716	-135,4	   0,0729019	-135,4
      43,324	   0,0724144	-135,0	   0,0727642	-135,7
      43,327	   0,0723383	-135,2	   0,0726161	-135,1
     43,3299	    0,072301	-135,5	   0,0724114	-135,3
     43,3328	   0,0720638	-135,1	   0,0721709	-135,4
     43,3358	   0,0717502	-135,3	   0,0720256	-135,2
     43,3387	   0,0715799	-135,0	   0,0717633	-135,1
     43,3416	   0,0714374	-134,5	   0,0718175	-135,2
     43,3446	    0,071265	-135,2	   0,0714625	-135,2
     43,3475	   0,0710342	-135,3	    0,071251	-135,0
     43,3504	   0,0709715	-134,9	   0,0711574	-135,3
     43,3534	   0,0707851	-134,9	   0,0710802	-135,0
     43,3563	   0,0705112	-135,1	   0,0707202	-135,0
     43,3592	   0,0702989	-134,7	   0,0705921	-134,9
     43,3622	   0,0703155	-134,8	   0,0704833	-134,9
     43,3651	   0,0700383	-135,1	   0,0701753	-134,7
      43,368	    0,069802	-134,5	   0,0701207	-134,9
      43,371	   0,0697167	-134,8	   0,0700004	-134,8
     43,3739	   0,0696048	-134,8	   0,0697663	-134,5
     43,3768	   0,0693177	-134,6	   0,0695462	-135,0
     43,3798	   0,0691096	-134,7	    0,069407	-134,7
     43,3827	   0,0691938	-134,7	   0,0693176	-134,2
     43,3856	   0,0688549	-134,1	   0,0691099	-134,8
     43,3886	   0,0687224	-134,4	   0,0690368	-134,7
     43,3915	   0,0685652	-134,9	   0,0687192	-134,2
     43,3944	   0,0684529	-134,0	   0,0685725	-134,6
     43,3974	   0,0682473	-134,3	   0,0684193	-134,6
     43,4003	    0,068092	-134,4	   0,0682785	-134,2
     43,4032	   0,0679848	-134,1	   0,0681702	-134,5
     43,4062	   0,0677186	-134,0	   0,0679128	-134,7
     43,4091	   0,0676075	-134,4	   0,0677676	-133,9
      43,412	   0,0673963	-134,1	   0,0676279	-134,4
      43,415	   0,0672343	-134,0	   0,0674869	-134,5
     43,4179	   0,0671302	-134,0	   0,0672785	-134,0
     43,4208	   0,0668625	-134,1	   0,0670791	-134,0
     43,4238	   0,0667161	-133,8	    0,066846	-134,4
     43,4267	   0,0666192	-133,8	   0,0667656	-133,9
     43,4296	   0,0664274	-134,0	   0,0665491	-134,1
     43,4326	   0,0662473	-133,9	   0,0664296	-134,3
     43,4355	   0,0661417	-133,8	    0,066306	-133,8
     43,4384	   0,0659305	-133,8	   0,0660956	-133,9
     43,4413	   0,0658592	-134,1	   0,0659791	-133,9
     43,4443	   0,0657336	-133,6	   0,0657865	-133,9
     43,4472	   0,0654956	-133,8	   0,0656481	-134,0
     43,4501	   0,0653174	-134,1	   0,0655109	-134,1
     43,4531	   0,0651291	-133,4	   0,0652081	-133,8
      43,456	   0,0650073	-133,6	   0,0652121	-133,8
     43,4589	   0,0649818	-133,8	   0,0650805	-133,5
     43,4619	   0,0648118	-133,6	   0,0648631	-133,8
     43,4648	    0,064605	-133,2	   0,0646616	-134,0
     43,4677	    0,064341	-133,8	   0,0645752	-133,2
     43,4707	   0,0642572	-133,3	   0,0644077	-133,6
     43,4736	   0,0640939	-133,4	   0,0642636	-134,0
     43,4765	   0,0638902	-133,6	   0,0640061	-133,4
     43,4795	   0,0637352	-133,5	   0,0639301	-133,4
     43,4824	   0,0636622	-133,3	   0,0637227	-133,9
     43,4853	     0,06354	-133,1	   0,0636193	-133,3
     43,4883	   0,0633715	-133,4	   0,0633961	-133,3
     43,4912	   0,0630928	-133,3	   0,0632903	-133,4
     43,4941	   0,0631083	-133,1	   0,0631951	-133,5
     43,4971	   0,0629295	-133,1	   0,0628566	-133,2
        43,5	    0,062816	-132,9	   0,0626958	-133,2

