X-Data [Hz]	Laser (M - Filtered) [m/s]	Phase [Deg]	Laser (M - Filtered) [m/s]	Phase [Deg]	
	003: [06-04-24 20:23]		005: [06-04-24 20:29]	
         100	   0,0045359	63,3	  0,00533287	66,4
     100,108	  0,00497804	64,0	  0,00479118	72,7
     100,215	  0,00485832	64,7	  0,00506164	65,6
     100,323	  0,00462964	68,4	  0,00521194	68,7
      100,43	  0,00497894	67,5	  0,00531756	67,7
     100,538	  0,00517521	64,5	  0,00536546	67,5
     100,645	  0,00525401	69,3	  0,00527388	63,6
     100,753	  0,00511262	67,7	  0,00545453	62,5
      100,86	  0,00532754	65,4	  0,00520926	68,8
     100,968	  0,00525115	64,1	  0,00535303	71,0
     101,075	  0,00553498	65,6	  0,00530131	66,2
     101,183	  0,00499569	66,3	  0,00501609	64,8
      101,29	  0,00547022	69,7	  0,00542157	68,6
     101,398	  0,00493103	65,8	  0,00482159	62,0
     101,505	  0,00544095	69,6	  0,00556941	66,3
     101,613	  0,00550577	64,4	  0,00530935	63,0
      101,72	   0,0056494	72,6	   0,0056682	66,4
     101,828	  0,00470859	61,0	  0,00541521	67,7
     101,935	  0,00592349	63,7	  0,00526606	67,2
     102,043	  0,00494283	68,7	   0,0057007	68,9
     102,151	  0,00538365	72,7	  0,00565196	63,6
     102,258	  0,00532902	62,0	  0,00539436	73,0
     102,366	  0,00549505	68,8	  0,00536132	67,2
     102,473	  0,00604686	65,7	   0,0052829	65,1
     102,581	  0,00590227	66,0	  0,00570784	70,2
     102,688	  0,00557795	68,3	  0,00486494	67,3
     102,796	  0,00536989	64,3	  0,00523034	67,5
     102,903	  0,00600411	63,9	  0,00524705	70,2
     103,011	  0,00587434	63,1	  0,00534975	68,0
     103,118	  0,00531943	65,0	  0,00554999	67,7
     103,226	  0,00578573	64,9	  0,00560944	64,4
     103,333	  0,00569461	69,9	  0,00560512	64,3
     103,441	  0,00550148	67,6	  0,00576902	65,1
     103,548	  0,00610797	67,7	  0,00590183	65,8
     103,656	  0,00545685	65,5	  0,00565238	66,7
     103,763	  0,00593743	69,9	  0,00576235	68,9
     103,871	   0,0055006	72,6	  0,00555493	68,6
     103,978	  0,00537889	63,0	  0,00569481	69,6
     104,086	  0,00605382	62,7	  0,00537632	71,0
     104,194	  0,00615646	70,4	  0,00606168	61,4
     104,301	   0,0055284	64,8	  0,00577336	61,0
     104,409	  0,00587433	66,8	  0,00575309	69,2
     104,516	  0,00572814	65,5	  0,00590724	64,5
     104,624	  0,00592613	67,3	  0,00622103	64,1
     104,731	  0,00567385	69,9	  0,00537949	69,4
     104,839	  0,00600188	67,3	  0,00570261	64,8
     104,946	  0,00570672	65,4	  0,00608862	70,8
     105,054	  0,00621523	68,0	  0,00571611	67,4
     105,161	  0,00576662	61,4	  0,00566142	64,0
     105,269	  0,00593393	69,2	  0,00607671	62,1
     105,376	  0,00608316	66,2	  0,00617242	69,9
     105,484	   0,0055463	62,4	  0,00590196	64,4
     105,591	  0,00600076	67,8	  0,00597268	68,3
     105,699	  0,00639732	66,4	  0,00575445	66,6
     105,806	  0,00592458	61,4	  0,00562764	61,7
     105,914	  0,00557745	67,0	  0,00641325	63,6
     106,022	  0,00617232	66,9	  0,00618749	66,1
     106,129	  0,00636802	69,0	  0,00559666	68,1
     106,237	  0,00667941	66,2	  0,00565319	57,4
     106,344	  0,00627617	67,9	  0,00635845	65,3
     106,452	  0,00609044	62,4	  0,00680564	66,5
     106,559	  0,00583349	62,3	  0,00637368	67,7
     106,667	    0,005999	62,7	  0,00612715	63,7
     106,774	  0,00604959	66,1	  0,00639001	65,4
     106,882	  0,00632637	69,6	  0,00629171	66,2
     106,989	  0,00636598	65,5	   0,0063553	61,4
     107,097	  0,00625783	66,5	  0,00619719	67,1
     107,204	   0,0063888	64,3	   0,0066306	65,1
     107,312	  0,00641341	65,1	  0,00645863	62,5
     107,419	  0,00630216	67,4	  0,00632227	67,7
     107,527	  0,00634758	72,4	   0,0065467	64,7
     107,634	  0,00612782	58,4	  0,00703865	65,9
     107,742	  0,00649423	72,2	   0,0065861	65,3
     107,849	  0,00590298	65,6	  0,00677864	63,0
     107,957	  0,00691925	64,9	  0,00632657	66,5
     108,065	  0,00630898	64,8	  0,00752612	68,7
     108,172	  0,00697404	69,5	  0,00658689	65,0
      108,28	  0,00659826	66,0	  0,00671125	66,5
     108,387	  0,00680567	66,9	  0,00688177	63,2
     108,495	  0,00669957	66,7	  0,00647409	64,5
     108,602	  0,00667563	61,2	  0,00719358	63,7
      108,71	  0,00657284	61,9	  0,00695499	68,1
     108,817	  0,00647458	60,3	  0,00665103	67,5
     108,925	  0,00682252	67,2	   0,0067034	66,3
     109,032	  0,00706273	67,7	  0,00671587	65,0
      109,14	  0,00701076	62,4	  0,00683002	61,5
     109,247	  0,00712809	62,6	  0,00700074	64,7
     109,355	  0,00685377	60,7	  0,00717035	69,3
     109,462	  0,00720521	66,7	  0,00713008	66,8
      109,57	  0,00715013	67,1	  0,00680425	64,2
     109,677	  0,00680843	66,1	   0,0071209	68,6
     109,785	  0,00681581	66,9	  0,00733011	71,7
     109,892	   0,0074616	68,3	  0,00721407	65,6
         110	  0,00710469	66,2	   0,0075423	65,5
     110,108	  0,00687962	59,6	  0,00682689	61,8
     110,215	  0,00752856	67,3	  0,00718066	64,4
     110,323	  0,00694384	64,4	  0,00712746	64,1
      110,43	  0,00727024	60,4	  0,00715327	66,8
     110,538	  0,00719068	65,0	  0,00705948	64,2
     110,645	  0,00753858	68,3	   0,0074799	65,4
     110,753	  0,00719769	62,0	  0,00767309	65,5
      110,86	  0,00744171	66,6	  0,00719442	63,3
     110,968	  0,00757567	64,6	   0,0077526	67,9
     111,075	  0,00759696	61,6	  0,00744686	62,1
     111,183	  0,00764051	68,5	  0,00786547	65,9
      111,29	  0,00752165	63,0	  0,00750789	66,1
     111,398	  0,00760896	66,7	  0,00778108	65,2
     111,505	  0,00718918	61,1	  0,00762468	65,6
     111,613	  0,00760912	66,1	   0,0078571	65,8
      111,72	  0,00778507	62,9	  0,00773241	68,3
     111,828	  0,00784604	64,6	  0,00771797	63,0
     111,935	  0,00764798	62,6	  0,00759245	66,8
     112,043	  0,00756067	62,2	  0,00781342	58,7
     112,151	  0,00762396	63,3	  0,00771547	64,0
     112,258	  0,00794361	66,7	  0,00822603	64,1
     112,366	  0,00809894	64,9	  0,00774723	62,1
     112,473	  0,00811135	65,8	  0,00779741	62,7
     112,581	  0,00822241	64,1	  0,00790682	62,7
     112,688	  0,00805628	65,6	  0,00830379	63,1
     112,796	  0,00780551	61,5	  0,00830418	62,4
     112,903	  0,00779167	60,4	  0,00792827	62,6
     113,011	  0,00812295	63,1	  0,00827468	68,1
     113,118	  0,00791765	62,6	  0,00821551	64,5
     113,226	  0,00817447	66,0	  0,00818961	63,1
     113,333	  0,00848932	65,7	  0,00838175	67,0
     113,441	  0,00831013	64,7	  0,00836173	64,6
     113,548	  0,00841427	61,7	  0,00849735	60,8
     113,656	  0,00854966	64,0	  0,00845907	62,5
     113,763	  0,00813618	61,5	  0,00847311	63,9
     113,871	   0,0085033	62,1	  0,00864484	64,1
     113,978	  0,00872634	64,6	  0,00864576	65,7
     114,086	  0,00834367	64,8	   0,0086077	62,1
     114,194	  0,00887325	64,1	  0,00893839	64,0
     114,301	  0,00879719	63,8	  0,00899461	68,4
     114,409	  0,00857954	61,2	  0,00915916	66,8
     114,516	  0,00886934	64,6	  0,00917366	63,7
     114,624	  0,00888291	63,5	  0,00904761	64,3
     114,731	   0,0090729	62,9	  0,00902701	60,8
     114,839	   0,0088002	62,1	  0,00917197	66,4
     114,946	  0,00911889	63,8	  0,00929347	64,2
     115,054	  0,00893867	61,7	  0,00921012	62,1
     115,161	  0,00905918	62,5	  0,00912828	62,5
     115,269	  0,00929668	64,0	  0,00936071	62,1
     115,376	  0,00917513	61,3	  0,00954753	66,5
     115,484	  0,00918063	60,4	  0,00951637	65,4
     115,591	  0,00922011	63,8	  0,00960382	60,4
     115,699	  0,00936137	64,9	  0,00955375	64,5
     115,806	  0,00934376	65,4	  0,00965237	63,4
     115,914	  0,00964291	68,1	  0,00972137	66,1
     116,022	  0,00971786	65,7	  0,00967909	63,8
     116,129	  0,00981302	62,8	  0,00987886	63,0
     116,237	  0,00979539	65,1	  0,00994197	64,8
     116,344	  0,00963062	61,5	   0,0101101	61,7
     116,452	  0,00990806	62,9	   0,0101033	63,1
     116,559	   0,0100416	63,4	   0,0101988	62,9
     116,667	  0,00983637	62,9	   0,0102339	60,8
     116,774	   0,0100766	64,2	   0,0103267	64,1
     116,882	   0,0102895	61,2	   0,0102938	62,8
     116,989	   0,0104008	65,2	   0,0103955	64,5
     117,097	  0,00996668	63,7	   0,0104553	62,2
     117,204	   0,0102534	62,4	   0,0104012	62,6
     117,312	   0,0102905	62,7	   0,0103497	64,2
     117,419	   0,0102762	63,5	   0,0107986	62,5
     117,527	   0,0105743	65,8	   0,0106982	60,8
     117,634	   0,0103195	62,6	   0,0109242	64,1
     117,742	   0,0106257	62,1	   0,0107338	59,2
     117,849	   0,0106913	61,8	   0,0109405	62,8
     117,957	   0,0108452	66,5	   0,0107914	64,6
     118,065	   0,0110605	63,5	   0,0112584	63,3
     118,172	   0,0108855	66,2	   0,0111579	64,0
      118,28	   0,0109574	63,0	   0,0113619	62,9
     118,387	   0,0111395	61,5	   0,0114518	64,0
     118,495	   0,0113449	60,4	   0,0114276	61,2
     118,602	   0,0112269	60,4	    0,011507	61,1
      118,71	   0,0114655	64,5	   0,0116139	61,0
     118,817	   0,0116671	62,7	   0,0116034	66,1
     118,925	   0,0118492	64,6	   0,0116602	63,6
     119,032	   0,0118135	61,3	   0,0117246	66,4
      119,14	   0,0119396	59,6	   0,0118636	61,9
     119,247	   0,0118723	62,0	   0,0119253	64,8
     119,355	   0,0118376	65,7	   0,0122824	62,1
     119,462	   0,0119087	64,6	   0,0121872	63,5
      119,57	   0,0120367	62,1	   0,0122782	65,2
     119,677	   0,0120195	63,1	   0,0125578	62,1
     119,785	   0,0120606	61,5	    0,012811	63,7
     119,892	    0,012208	61,8	   0,0127844	62,7
         120	   0,0125016	61,5	   0,0126285	60,0
     120,108	   0,0125255	59,2	   0,0126103	64,0
     120,215	   0,0127778	63,3	   0,0131175	62,4
     120,323	    0,012708	63,4	   0,0131516	62,7
      120,43	   0,0128274	61,3	   0,0132353	62,2
     120,538	   0,0131672	63,8	   0,0133945	64,8
     120,645	   0,0130678	62,4	   0,0134521	62,9
     120,753	   0,0130434	61,6	   0,0134221	64,6
      120,86	   0,0132622	65,3	   0,0137215	61,5
     120,968	   0,0137728	62,3	   0,0138046	64,6
     121,075	    0,013375	62,9	    0,014095	63,2
     121,183	   0,0138698	64,8	    0,014376	61,9
      121,29	   0,0138609	60,9	   0,0142606	61,6
     121,398	   0,0139539	62,1	   0,0142525	62,7
     121,505	   0,0143715	61,9	   0,0143838	61,3
     121,613	   0,0142261	60,3	   0,0147412	61,1
      121,72	   0,0142445	61,8	   0,0147989	63,4
     121,828	   0,0142624	61,2	   0,0149771	62,3
     121,935	   0,0144324	62,3	   0,0151114	62,3
     122,043	   0,0146509	64,4	   0,0151244	63,9
     122,151	   0,0149377	64,0	    0,015439	62,1
     122,258	   0,0151137	61,3	    0,015599	64,8
     122,366	   0,0151392	62,7	   0,0158975	62,1
     122,473	   0,0152377	61,6	   0,0157791	62,8
     122,581	   0,0156233	63,1	   0,0160258	62,0
     122,688	   0,0157372	61,6	   0,0159891	63,0
     122,796	   0,0160603	61,1	   0,0165013	63,0
     122,903	   0,0162068	65,2	   0,0167985	61,1
     123,011	   0,0161949	64,1	   0,0167455	61,9
     123,118	   0,0164903	63,3	   0,0171264	61,5
     123,226	   0,0167751	62,5	   0,0170221	63,3
     123,333	    0,016605	62,2	   0,0173473	62,2
     123,441	   0,0168609	63,9	   0,0178295	61,8
     123,548	   0,0172168	61,7	   0,0175673	63,5
     123,656	   0,0171236	64,8	   0,0179863	63,7
     123,763	   0,0177161	63,3	    0,018135	62,0
     123,871	   0,0176266	60,8	   0,0185048	64,2
     123,978	   0,0180519	62,1	   0,0185975	63,5
     124,086	   0,0181888	60,1	   0,0188753	60,8
     124,194	   0,0179776	65,6	    0,019376	62,3
     124,301	   0,0189521	62,5	   0,0197206	61,2
     124,409	   0,0187017	61,5	   0,0196659	62,8
     124,516	   0,0187626	63,5	   0,0198918	61,4
     124,624	   0,0192521	61,0	   0,0201171	60,9
     124,731	   0,0195973	61,1	   0,0205471	62,3
     124,839	    0,019795	64,3	   0,0206046	64,5
     124,946	   0,0200549	63,9	   0,0209676	65,9
     125,054	   0,0206592	63,6	   0,0211925	63,1
     125,161	   0,0207446	61,4	   0,0217302	60,4
     125,269	   0,0209625	60,9	   0,0219996	60,9
     125,376	   0,0211113	63,6	   0,0221419	62,4
     125,484	   0,0214394	63,0	   0,0225879	60,7
     125,591	   0,0220445	62,8	   0,0226797	62,6
     125,699	   0,0224411	63,1	   0,0236975	61,0
     125,806	   0,0222455	64,2	   0,0229995	62,3
     125,914	   0,0232312	62,4	   0,0244622	60,5
     126,022	   0,0229845	62,8	    0,024392	61,4
     126,129	    0,023314	61,8	   0,0247774	62,3
     126,237	   0,0238103	63,4	   0,0251425	62,1
     126,344	   0,0241387	62,9	    0,024975	64,6
     126,452	   0,0245167	62,3	   0,0261432	61,0
     126,559	   0,0251228	61,9	   0,0268014	62,9
     126,667	    0,025445	62,1	   0,0266238	63,0
     126,774	   0,0257809	63,6	   0,0272124	63,9
     126,882	   0,0267539	60,8	   0,0277902	62,9
     126,989	   0,0270534	62,2	     0,02852	63,5
     127,097	   0,0273518	62,1	   0,0287919	62,8
     127,204	   0,0275615	64,5	    0,029691	62,9
     127,312	   0,0279813	62,8	    0,030566	63,0
     127,419	   0,0289126	64,2	   0,0304983	63,1
     127,527	   0,0293027	63,9	   0,0316476	63,2
     127,634	   0,0296508	63,6	   0,0316544	63,0
     127,742	   0,0304401	62,1	   0,0323294	64,1
     127,849	   0,0311817	61,5	   0,0331816	64,1
     127,957	   0,0319996	62,2	   0,0337588	65,0
     128,065	   0,0323703	64,5	   0,0342608	63,2
     128,172	   0,0331235	63,4	   0,0354214	62,4
      128,28	   0,0337769	62,9	   0,0360763	62,3
     128,387	   0,0345492	62,4	   0,0371276	64,8
     128,495	    0,035264	62,9	   0,0380258	63,1
     128,602	   0,0355546	64,2	   0,0388293	63,4
      128,71	   0,0367091	62,3	   0,0402268	63,8
     128,817	   0,0375086	63,9	    0,040774	64,5
     128,925	   0,0383992	65,5	   0,0420528	63,5
     129,032	   0,0390742	63,3	   0,0432531	65,2
      129,14	   0,0406027	62,7	   0,0439461	64,7
     129,247	   0,0413807	64,4	   0,0447789	64,2
     129,355	   0,0426313	65,7	    0,046454	63,9
     129,462	    0,044019	62,5	   0,0485331	64,2
      129,57	   0,0447671	64,1	   0,0491455	64,3
     129,677	   0,0466263	65,4	   0,0511803	64,5
     129,785	   0,0478555	64,5	   0,0529046	64,5
     129,892	   0,0490138	63,1	   0,0539979	65,7
         130	    0,050188	64,9	   0,0564409	63,2
     130,108	   0,0519139	64,7	   0,0581166	66,9
     130,215	   0,0536106	65,8	   0,0600232	64,1
     130,323	   0,0556151	65,8	   0,0625751	64,4
      130,43	   0,0577082	65,5	   0,0652171	64,9
     130,538	   0,0599771	64,9	   0,0676908	66,3
     130,645	   0,0627369	66,8	   0,0700143	66,1
     130,753	   0,0648266	65,3	   0,0721472	64,3
      130,86	   0,0669378	66,2	     0,07512	65,6
     130,968	   0,0697259	66,9	   0,0781153	66,3
     131,075	   0,0721594	67,1	   0,0815783	65,8
     131,183	   0,0749665	66,8	   0,0844085	65,4
      131,29	    0,077707	66,4	   0,0871314	66,2
     131,398	   0,0817638	67,0	   0,0905773	66,9
     131,505	   0,0853795	68,2	   0,0944368	65,8
     131,613	   0,0884863	68,8	   0,0984465	66,2
      131,72	   0,0918003	68,2	    0,102073	70,3
     131,828	   0,0964499	68,6	    0,105727	68,6
     131,935	    0,100273	68,8	    0,109609	68,8
     132,043	    0,104041	68,8	    0,113489	68,5
     132,151	     0,10872	69,3	    0,117241	68,0
     132,258	    0,112084	69,6	     0,12172	70,0
     132,366	    0,116519	69,5	    0,125099	69,3
     132,473	    0,121142	71,5	    0,128753	68,5
     132,581	    0,124686	70,7	    0,133244	71,2
     132,688	    0,128751	70,6	    0,137019	70,4
     132,796	    0,133486	71,5	    0,141092	71,1
     132,903	    0,137481	73,2	     0,14507	72,1
     133,011	    0,141428	72,7	    0,149509	70,1
     133,118	    0,145673	73,3	    0,153389	72,5
     133,226	     0,15009	72,3	    0,157568	73,6
     133,333	    0,153917	73,5	    0,161312	73,9
     133,441	    0,158405	72,7	    0,165354	73,9
     133,548	    0,162802	72,2	     0,16937	72,1
     133,656	    0,166892	74,3	    0,173102	73,3
     133,763	    0,170663	73,7	    0,176866	74,8
     133,871	    0,174644	74,6	    0,180704	75,8
     133,979	    0,178447	75,3	    0,184359	75,2
     134,086	    0,182441	74,9	    0,188358	74,8
     134,194	    0,186611	75,9	    0,192113	74,9
     134,301	    0,189915	76,7	    0,195477	75,3
     134,409	    0,193496	75,9	    0,198878	74,7
     134,516	    0,197287	76,8	    0,202286	75,8
     134,624	    0,201223	77,6	    0,206481	76,5
     134,731	    0,205342	78,0	    0,210535	77,6
     134,839	      0,2087	77,3	    0,215629	80,4
     134,946	    0,211955	78,7	     0,17183	-153,1
     135,054	    0,215701	78,1	    0,118267	-136,7
     135,161	    0,219252	78,4	   0,0996851	-133,1
     135,269	    0,222532	79,4	   0,0899481	-129,0
     135,376	    0,226372	80,0	    0,082755	-132,2
     135,484	    0,229811	79,6	   0,0769897	-129,4
     135,591	    0,233018	80,4	   0,0725375	-128,9
     135,699	    0,236612	80,0	   0,0686812	-128,2
     135,806	    0,239581	80,2	   0,0663677	-127,8
     135,914	    0,242944	80,4	   0,0631288	-128,5
     136,021	    0,246293	80,6	   0,0609424	-127,5
     136,129	    0,249793	80,9	   0,0579982	-128,5
     136,237	     0,25301	80,6	   0,0556512	-127,0
     136,344	    0,256052	80,9	   0,0538813	-128,7
     136,452	    0,259446	82,2	   0,0524392	-125,6
     136,559	     0,26222	82,9	    0,051127	-126,4
     136,667	    0,265754	82,0	   0,0494858	-126,3
     136,774	    0,268876	81,1	   0,0479359	-125,7
     136,882	    0,272321	81,6	    0,046332	-127,3
     136,989	    0,275016	82,5	   0,0447718	-128,3
     137,097	    0,278256	82,3	   0,0433156	-128,3
     137,204	     0,28119	81,9	   0,0419915	-128,1
     137,312	    0,284167	82,4	   0,0412868	-128,1
     137,419	    0,287014	81,5	   0,0404445	-127,5
     137,527	    0,290181	82,2	   0,0400233	-126,9
     137,634	    0,293383	83,1	   0,0391065	-127,8
     137,742	    0,296826	83,6	   0,0381151	-126,7
     137,849	    0,299453	83,2	   0,0369908	-126,7
     137,957	    0,302396	84,1	   0,0370099	-128,1
     138,065	    0,305613	83,9	    0,035651	-126,8
     138,172	    0,308324	82,5	   0,0352662	-125,9
      138,28	    0,311134	84,2	   0,0346007	-124,1
     138,387	    0,314017	84,3	   0,0336525	-127,3
     138,495	    0,316695	84,8	   0,0331095	-127,3
     138,602	    0,320195	83,8	   0,0330318	-127,5
      138,71	    0,322839	86,6	   0,0318403	-124,9
     138,817	    0,325641	85,4	   0,0317929	-125,1
     138,925	    0,328358	87,0	   0,0312138	-124,3
     139,032	    0,331167	85,8	   0,0300475	-127,6
      139,14	    0,333894	87,0	    0,029773	-125,3
     139,247	    0,336755	85,3	   0,0290441	-127,9
     139,355	    0,339186	87,3	    0,029333	-124,9
     139,462	    0,341656	87,8	   0,0285438	-124,5
      139,57	    0,344565	87,8	   0,0276614	-126,4
     139,677	    0,346877	87,1	    0,028017	-126,3
     139,785	    0,349642	89,2	    0,027439	-125,6
     139,892	    0,352703	89,6	   0,0270774	-125,1
         140	    0,355308	87,8	    0,026607	-123,8
     140,108	    0,357541	88,0	   0,0260682	-124,5
     140,215	    0,360254	89,4	   0,0257448	-125,3
     140,323	    0,362681	89,1	   0,0256396	-125,1
      140,43	    0,365404	89,8	   0,0251173	-127,0
     140,538	    0,367536	89,2	   0,0249128	-124,6
     140,645	    0,369946	90,3	   0,0245136	-123,9
     140,753	     0,37296	90,0	   0,0237351	-123,4
      140,86	    0,375207	90,8	    0,023831	-124,3
     140,968	    0,377727	90,2	   0,0237189	-124,8
     141,075	    0,380857	90,1	   0,0232381	-123,7
     141,183	    0,383054	92,8	   0,0232051	-123,9
      141,29	    0,384956	92,5	    0,022674	-124,7
     141,398	    0,388044	90,7	   0,0218789	-124,7
     141,505	    0,390348	92,0	    0,021995	-125,0
     141,613	    0,392829	92,5	   0,0216819	-126,0
      141,72	    0,395157	91,9	   0,0215716	-121,6
     141,828	    0,397888	91,5	   0,0209565	-124,5
     141,935	     0,39997	93,3	   0,0215065	-124,4
     142,043	    0,402998	91,7	   0,0206209	-124,2
     142,151	    0,405207	93,4	   0,0206687	-123,9
     142,258	    0,407771	93,5	     0,01994	-123,8
     142,366	    0,409436	93,0	   0,0201189	-123,5
     142,473	    0,412365	94,1	   0,0197765	-125,2
     142,581	    0,414687	92,0	    0,019877	-123,9
     142,688	    0,416517	94,0	    0,019089	-126,2
     142,796	    0,419939	96,1	   0,0188403	-125,5
     142,903	    0,422218	93,4	   0,0191811	-123,5
     143,011	    0,423862	94,6	   0,0189729	-123,1
     143,118	    0,426304	95,0	   0,0186308	-121,9
     143,226	    0,428873	96,7	   0,0183503	-122,5
     143,333	    0,432173	96,0	   0,0185254	-124,1
     143,441	    0,434361	94,9	    0,018457	-123,4
     143,548	    0,436937	94,9	   0,0183815	-122,1
     143,656	    0,439068	96,1	   0,0179167	-124,9
     143,763	    0,441378	96,6	   0,0176516	-123,5
     143,871	    0,443893	97,5	   0,0175346	-124,4
     143,979	     0,44582	98,2	   0,0173603	-124,7
     144,086	    0,447494	97,1	   0,0171965	-126,2
     144,194	    0,448661	97,4	   0,0166062	-126,8
     144,301	    0,451182	97,0	   0,0170075	-122,4
     144,409	    0,455371	93,6	   0,0169896	-124,8
     144,516	    0,458307	98,1	   0,0164016	-123,9
     144,624	       0,459	100,2	   0,0163954	-123,4
     144,731	    0,460046	96,3	    0,016365	-124,7
     144,839	    0,465431	94,0	   0,0160338	-123,9
     144,946	     0,46494	102,3	   0,0160958	-123,4
     145,054	    0,467114	95,5	   0,0154642	-126,3
     145,161	    0,472617	99,0	   0,0154725	-126,4
     145,269	    0,471238	96,6	   0,0157772	-125,9
     145,376	    0,476629	101,0	   0,0153646	-125,7
     145,484	    0,476495	96,6	   0,0152905	-123,5
     145,591	     0,48014	100,0	   0,0149688	-125,3
     145,699	    0,483352	98,8	    0,014694	-126,6
     145,806	    0,483191	100,1	   0,0149078	-128,5
     145,914	    0,487646	99,1	   0,0145102	-126,1
     146,021	    0,490306	98,0	    0,014564	-124,0
     146,129	    0,491337	99,2	    0,014676	-123,0
     146,237	     0,49324	102,2	   0,0145976	-124,7
     146,344	    0,495914	102,2	   0,0142118	-123,6
     146,452	    0,498107	101,5	   0,0138948	-125,1
     146,559	    0,501036	100,3	   0,0138993	-125,8
     146,667	    0,503469	100,1	   0,0136638	-125,7
     146,774	     0,50569	100,0	   0,0138728	-126,2
     146,882	    0,508402	99,2	   0,0137075	-125,4
     146,989	    0,509579	102,0	   0,0136582	-125,5
     147,097	     0,51205	102,1	   0,0136411	-125,2
     147,204	    0,513541	102,0	   0,0135909	-124,7
     147,312	    0,515866	100,6	   0,0134564	-122,9
     147,419	    0,517751	101,0	   0,0136934	-123,6
     147,527	     0,52067	100,7	   0,0133987	-123,4
     147,634	    0,522931	101,7	   0,0134581	-124,7
     147,742	    0,524851	102,8	   0,0128664	-126,5
     147,849	    0,526957	101,8	   0,0129926	-125,4
     147,957	    0,529465	101,9	   0,0129671	-124,7
     148,065	    0,531663	101,5	   0,0130461	-125,3
     148,172	     0,53388	102,0	   0,0127183	-126,4
      148,28	    0,535748	102,0	   0,0129524	-126,1
     148,387	    0,538271	103,5	   0,0125174	-126,4
     148,495	    0,540147	102,7	   0,0126106	-123,9
     148,602	     0,54273	103,2	   0,0125655	-126,2
      148,71	    0,544607	103,0	    0,012478	-123,7
     148,817	    0,546891	103,2	   0,0124326	-125,5
     148,925	     0,54918	105,4	   0,0122533	-125,1
     149,032	    0,550955	104,4	   0,0121593	-124,0
      149,14	    0,553632	103,6	   0,0121635	-123,4
     149,247	     0,55587	103,8	   0,0120585	-123,6
     149,355	    0,558098	105,6	   0,0118734	-124,9
     149,462	     0,55993	105,2	   0,0118166	-126,2
      149,57	    0,561874	105,1	   0,0119288	-123,2
     149,677	    0,564445	104,5	   0,0116544	-127,9
     149,785	    0,566894	105,4	   0,0117051	-124,9
     149,892	    0,569193	105,3	   0,0117845	-124,3
         150	    0,571456	104,2	   0,0115204	-128,9
     150,108	    0,573443	106,1	   0,0114174	-124,5
     150,215	    0,575488	106,3	   0,0114854	-123,8
     150,323	    0,577588	106,4	   0,0113884	-127,2
      150,43	    0,579887	105,9	    0,011298	-127,0
     150,538	    0,581586	106,2	   0,0113804	-122,9
     150,645	    0,584006	106,9	   0,0110913	-126,4
     150,753	    0,586421	106,0	   0,0112017	-125,2
      150,86	    0,588326	106,1	   0,0110982	-128,2
     150,968	    0,590516	107,7	   0,0111634	-127,8
     151,075	    0,592757	108,0	   0,0109929	-122,1
     151,183	    0,594804	106,2	   0,0109524	-127,2
      151,29	    0,596962	108,0	   0,0109595	-123,8
     151,398	    0,599187	108,2	   0,0108418	-126,9
     151,505	    0,601307	108,6	   0,0109236	-125,4
     151,613	    0,603244	107,9	   0,0106164	-124,5
      151,72	    0,605543	107,9	   0,0109035	-129,9
     151,828	    0,607679	106,1	   0,0105304	-128,7
     151,935	    0,609815	108,6	   0,0105088	-125,0
     152,043	    0,611709	110,6	   0,0106043	-123,7
     152,151	     0,61397	109,9	   0,0105359	-124,6
     152,258	    0,616264	106,6	   0,0103504	-125,4
     152,366	      0,6189	108,4	   0,0105129	-124,7
     152,473	    0,620946	108,4	   0,0106164	-127,3
     152,581	    0,622685	108,0	   0,0103558	-126,7
     152,688	    0,624937	109,2	   0,0102258	-124,3
     152,796	    0,626829	110,3	   0,0101547	-123,6
     152,903	    0,628959	111,1	   0,0101308	-125,5
     153,011	    0,631236	109,1	  0,00999546	-123,5
     153,118	    0,633248	110,4	  0,00997979	-125,4
     153,226	    0,635283	110,3	  0,00989015	-122,7
     153,333	    0,637429	112,1	  0,00982719	-122,9
     153,441	    0,639602	111,6	  0,00982063	-124,3
     153,548	    0,642056	113,8	  0,00994457	-125,8
     153,656	    0,644619	112,7	  0,00987672	-124,2
     153,763	    0,646146	111,4	  0,00990535	-124,1
     153,871	    0,647882	113,4	  0,00970443	-127,8
     153,979	    0,650418	113,6	   0,0097445	-125,7
     154,086	    0,652553	112,1	  0,00985884	-129,2
     154,194	    0,654146	112,7	  0,00975804	-125,9
     154,301	    0,657111	114,7	  0,00961861	-123,4
     154,409	    0,658614	112,6	  0,00986422	-127,1
     154,516	    0,661489	114,8	  0,00946801	-130,1
     154,624	    0,662386	114,4	  0,00967199	-126,7
     154,731	    0,665214	116,8	  0,00936607	-124,4
     154,839	    0,666447	118,6	  0,00961761	-126,1
     154,946	    0,669833	116,7	   0,0091446	-123,4
     155,054	    0,670849	120,7	  0,00955994	-127,1
     155,161	    0,672348	119,4	  0,00948618	-124,3
     155,269	    0,675515	121,2	  0,00933355	-124,1
     155,376	    0,678168	123,2	  0,00903686	-123,4
     155,484	    0,679859	121,2	  0,00937362	-123,5
     155,591	    0,681208	116,3	  0,00916046	-125,7
     155,699	    0,683582	118,6	  0,00909595	-126,0
     155,806	    0,687286	115,3	  0,00908375	-126,1
     155,914	    0,689925	114,5	  0,00901619	-123,0
     156,021	    0,692198	116,1	    0,008981	-121,5
     156,129	    0,694849	114,4	  0,00902522	-123,9
     156,237	    0,696869	115,8	  0,00894317	-123,2
     156,344	    0,697913	114,3	  0,00895737	-124,7
     156,452	    0,700491	115,2	  0,00878319	-124,5
     156,559	     0,70112	116,6	  0,00875372	-128,6
     156,667	    0,702141	119,3	  0,00900554	-127,9
     156,774	    0,704399	119,5	   0,0089393	-122,9
     156,882	     0,70882	120,7	  0,00910434	-129,1
     156,989	    0,711005	116,7	  0,00866742	-125,4
     157,097	    0,710232	119,8	   0,0087074	-126,2
     157,204	    0,713864	120,1	  0,00880558	-128,7
     157,312	    0,717104	118,9	  0,00850845	-122,5
     157,419	    0,716897	121,7	  0,00868563	-127,5
     157,527	    0,721215	118,7	  0,00871377	-125,6
     157,634	    0,721005	120,9	  0,00853195	-126,1
     157,742	    0,724902	121,3	  0,00861968	-126,8
     157,849	    0,725867	119,7	  0,00850297	-126,8
     157,957	    0,729119	119,8	  0,00881892	-128,9
     158,065	    0,730508	123,8	  0,00858269	-127,4
     158,172	     0,73204	121,2	  0,00841944	-122,1
      158,28	    0,735346	121,3	  0,00837152	-122,5
     158,387	    0,736578	121,5	  0,00830808	-126,0
     158,495	     0,73822	123,2	  0,00837125	-127,2
     158,602	    0,741055	123,6	  0,00865288	-126,5
      158,71	    0,743276	124,1	  0,00839688	-129,3
     158,817	    0,745312	123,7	  0,00807755	-124,9
     158,925	    0,746863	123,4	  0,00815017	-124,4
     159,032	     0,74864	123,6	  0,00804105	-123,9
      159,14	    0,750292	125,0	  0,00828246	-125,1
     159,247	    0,752478	125,9	  0,00819153	-125,9
     159,355	    0,755082	125,2	  0,00806232	-123,8
     159,462	    0,757375	123,6	  0,00810979	-125,1
      159,57	    0,759722	124,7	   0,0080337	-124,4
     159,677	    0,761733	125,8	  0,00799626	-124,9
     159,785	    0,763886	125,3	  0,00824641	-129,4
     159,892	    0,765553	127,7	  0,00819175	-129,7
         160	    0,768046	126,9	  0,00827331	-128,5
     160,108	    0,770526	125,0	     0,00829	-128,4
     160,215	    0,772218	126,6	  0,00795899	-125,1
     160,323	    0,773656	128,3	  0,00787506	-123,8
      160,43	    0,776705	127,0	  0,00833705	-130,7
     160,538	    0,778199	127,7	  0,00799841	-123,9
     160,645	    0,780514	127,5	  0,00813014	-126,5
     160,753	    0,782218	130,0	  0,00777572	-122,5
      160,86	    0,784919	128,9	  0,00776771	-124,3
     160,968	    0,787039	129,3	  0,00799047	-128,0
     161,075	    0,788883	130,6	  0,00774456	-123,9
     161,183	    0,790588	131,4	   0,0076552	-122,6
      161,29	    0,793124	130,6	  0,00769441	-126,1
     161,398	    0,795303	130,0	  0,00766411	-124,0
     161,505	    0,796953	131,6	   0,0077791	-129,1
     161,613	    0,799188	133,5	  0,00800297	-128,6
      161,72	    0,801213	131,4	  0,00766892	-124,8
     161,828	    0,803474	131,7	  0,00778624	-125,5
     161,935	    0,805692	131,3	  0,00763462	-128,2
     162,043	    0,807956	132,3	  0,00745931	-123,7
     162,151	    0,809207	133,7	  0,00755174	-125,2
     162,258	     0,81108	133,7	  0,00756605	-126,6
     162,366	    0,813485	135,9	  0,00733429	-124,9
     162,473	     0,81535	133,8	  0,00764051	-126,9
     162,581	    0,818049	134,9	  0,00743219	-125,5
     162,688	    0,819837	138,5	  0,00764082	-127,1
     162,796	    0,821745	137,0	  0,00729481	-124,9
     162,903	    0,823549	136,4	  0,00735452	-122,2
     163,011	    0,825484	138,5	  0,00751838	-127,8
     163,118	    0,827917	138,1	  0,00770644	-127,0
     163,226	    0,830073	136,8	  0,00713178	-122,8
     163,333	    0,831525	141,5	  0,00757449	-129,1
     163,441	    0,833876	140,6	  0,00707164	-122,5
     163,548	    0,835993	139,0	  0,00729733	-126,3
     163,656	    0,837642	142,6	  0,00709829	-123,2
     163,763	    0,840174	141,3	  0,00738832	-126,3
     163,871	    0,841579	145,8	  0,00731974	-126,8
     163,979	    0,844231	143,9	  0,00728108	-127,0
     164,086	    0,846422	142,3	   0,0072748	-123,5
     164,194	    0,847717	145,4	  0,00737324	-128,3
     164,301	    0,849609	150,5	   0,0074181	-129,5
     164,409	    0,850618	154,1	  0,00751671	-128,1
     164,516	    0,851644	163,1	  0,00690064	-125,8
     164,624	    0,849428	183,5	  0,00711951	-123,9
     164,731	  0,00682052	-124,1	  0,00693139	-123,9
     164,839	  0,00711777	-127,2	  0,00679207	-122,0
     164,946	  0,00704746	-125,7	  0,00757802	-127,8
     165,054	  0,00706571	-127,5	  0,00682805	-123,6
     165,161	  0,00737388	-128,8	  0,00717208	-124,4
     165,269	  0,00685584	-124,8	  0,00733266	-125,7
     165,376	  0,00684889	-130,0	  0,00715476	-126,5
     165,484	  0,00707942	-123,8	  0,00697229	-124,6
     165,591	  0,00681604	-125,9	  0,00689672	-129,6
     165,699	  0,00697321	-130,1	  0,00700299	-123,6
     165,806	  0,00692741	-127,7	  0,00727665	-126,1
     165,914	  0,00703963	-124,9	    0,006923	-122,6
     166,021	  0,00755367	-128,3	  0,00716361	-127,8
     166,129	   0,0071535	-131,5	  0,00687208	-122,3
     166,237	  0,00684512	-120,9	  0,00703601	-130,5
     166,344	  0,00760464	-128,6	  0,00712326	-124,4
     166,452	  0,00664235	-125,6	   0,0068179	-129,0
     166,559	  0,00706983	-125,4	  0,00715903	-126,3
     166,667	  0,00691677	-128,2	  0,00703866	-127,1
     166,774	  0,00681544	-125,0	  0,00722608	-126,4
     166,882	  0,00678524	-122,4	  0,00683852	-124,1
     166,989	   0,0069892	-121,9	    0,006759	-127,0
     167,097	  0,00727748	-130,3	  0,00703957	-125,5
     167,204	  0,00691286	-129,0	  0,00693946	-126,4
     167,312	  0,00680884	-126,3	  0,00691257	-122,6
     167,419	  0,00635679	-123,7	  0,00737082	-131,3
     167,527	  0,00701443	-124,0	  0,00693097	-129,5
     167,634	   0,0066881	-124,3	   0,0069861	-127,2
     167,742	  0,00621119	-123,9	  0,00604203	-122,6
     167,849	  0,00657278	-123,5	  0,00673004	-131,6
     167,957	   0,0067803	-126,1	  0,00660101	-127,7
     168,065	  0,00682009	-128,4	  0,00690041	-128,0
     168,172	  0,00698129	-127,6	  0,00635705	-122,7
      168,28	  0,00677445	-127,0	  0,00634193	-124,7
     168,387	  0,00663594	-126,0	  0,00656938	-126,2
     168,495	  0,00698393	-126,4	  0,00640151	-124,4
     168,602	  0,00718034	-128,7	  0,00694274	-125,9
      168,71	  0,00652519	-124,6	  0,00716139	-133,2
     168,817	  0,00638055	-126,1	   0,0068117	-128,3
     168,925	  0,00663808	-127,7	  0,00676232	-123,8
     169,032	  0,00673718	-130,9	  0,00634775	-127,1
      169,14	  0,00676811	-128,9	  0,00694986	-124,4
     169,247	  0,00683136	-128,1	  0,00624278	-125,5
     169,355	  0,00639646	-125,2	  0,00667637	-122,2
     169,462	  0,00688244	-126,7	  0,00655642	-127,8
      169,57	  0,00634095	-127,5	  0,00641559	-127,3
     169,677	  0,00606546	-123,6	  0,00678345	-127,3
     169,785	  0,00599914	-121,6	  0,00654499	-122,6
     169,892	  0,00644221	-126,3	  0,00636978	-126,8
         170	  0,00662935	-127,9	  0,00663493	-127,4
     170,108	  0,00651689	-125,5	  0,00637047	-125,0
     170,215	  0,00662193	-130,2	  0,00677482	-125,4
     170,323	  0,00648173	-125,6	  0,00638417	-124,4
      170,43	  0,00643484	-126,8	  0,00640604	-127,2
     170,538	  0,00656109	-127,8	  0,00626711	-126,6
     170,645	  0,00645593	-127,4	  0,00698079	-127,1
     170,753	  0,00630405	-125,2	  0,00653118	-120,1
      170,86	  0,00649018	-127,4	  0,00621572	-125,7
     170,968	  0,00658611	-127,0	  0,00609711	-124,7
     171,075	  0,00607717	-124,5	  0,00611878	-123,9
     171,183	  0,00636204	-127,6	  0,00622584	-127,1
      171,29	   0,0063423	-127,0	  0,00683933	-125,3
     171,398	  0,00648766	-130,9	  0,00652172	-127,9
     171,505	  0,00621886	-126,0	  0,00640707	-123,8
     171,613	  0,00632478	-130,0	  0,00646769	-125,4
      171,72	  0,00662452	-129,6	  0,00673734	-126,5
     171,828	  0,00668231	-125,2	  0,00631525	-125,0
     171,935	   0,0064273	-124,6	  0,00640949	-127,9
     172,043	  0,00613626	-129,4	  0,00661806	-125,5
     172,151	  0,00618164	-123,0	  0,00634388	-124,4
     172,258	  0,00631408	-127,7	  0,00659137	-128,7
     172,366	  0,00647922	-128,2	  0,00621121	-124,4
     172,473	  0,00604819	-123,7	   0,0062896	-126,4
     172,581	   0,0067043	-127,1	  0,00617541	-122,5
     172,688	  0,00641456	-128,3	  0,00615541	-124,6
     172,796	  0,00618901	-125,2	  0,00642289	-127,9
     172,903	  0,00614358	-128,2	   0,0064213	-120,8
     173,011	  0,00611826	-123,5	  0,00571955	-128,7
     173,118	  0,00651879	-127,2	  0,00658008	-127,0
     173,226	  0,00630331	-131,3	  0,00613222	-125,8
     173,333	  0,00622732	-129,0	  0,00612446	-127,0
     173,441	  0,00628868	-123,0	  0,00637651	-126,9
     173,548	  0,00656126	-121,9	  0,00628037	-124,3
     173,656	  0,00656754	-127,4	  0,00657156	-125,5
     173,763	  0,00659224	-125,7	  0,00645362	-122,3
     173,871	  0,00647902	-125,6	  0,00613468	-127,0
     173,979	  0,00629496	-127,4	  0,00609721	-126,4
     174,086	  0,00610546	-124,9	  0,00624752	-127,1
     174,194	  0,00657828	-128,5	  0,00613804	-129,1
     174,301	  0,00600246	-124,1	  0,00631748	-128,5
     174,409	   0,0062424	-130,4	  0,00634019	-125,2
     174,516	  0,00665312	-127,8	  0,00667095	-127,2
     174,624	  0,00622691	-118,5	  0,00630249	-125,5
     174,731	   0,0060464	-126,9	  0,00650105	-126,6
     174,839	   0,0058309	-127,2	  0,00630937	-126,2
     174,946	  0,00628695	-126,2	  0,00633898	-124,5
     175,054	   0,0059783	-127,0	  0,00610902	-128,5
     175,161	  0,00593962	-127,9	  0,00589924	-126,9
     175,269	  0,00625371	-123,1	  0,00612423	-122,2
     175,376	  0,00583876	-127,3	   0,0058621	-127,8
     175,484	  0,00605326	-125,6	  0,00580698	-123,1
     175,591	  0,00603861	-127,7	  0,00613106	-131,8
     175,699	  0,00622959	-124,7	  0,00604898	-126,0
     175,806	  0,00632436	-130,0	  0,00626967	-127,3
     175,914	  0,00614036	-128,2	  0,00600066	-122,4
     176,021	  0,00629886	-129,1	  0,00618902	-123,5
     176,129	  0,00632351	-127,0	  0,00605797	-126,6
     176,237	  0,00626209	-127,4	  0,00607202	-128,5
     176,344	  0,00617455	-126,7	  0,00637449	-128,1
     176,452	   0,0059028	-125,1	  0,00574015	-128,9
     176,559	  0,00611282	-125,7	   0,0057889	-126,5
     176,667	  0,00613492	-126,7	  0,00595605	-126,2
     176,774	  0,00591488	-130,3	  0,00609116	-129,1
     176,882	  0,00580562	-129,6	  0,00569045	-129,9
     176,989	  0,00602469	-126,7	  0,00622274	-124,4
     177,097	  0,00590307	-127,5	  0,00636833	-125,0
     177,204	  0,00607546	-127,3	  0,00586772	-125,4
     177,312	  0,00596423	-134,8	   0,0061804	-123,8
     177,419	  0,00574122	-130,0	  0,00612054	-122,8
     177,527	  0,00611269	-128,7	  0,00604599	-125,9
     177,634	  0,00601371	-128,0	  0,00596608	-127,0
     177,742	  0,00605282	-122,6	  0,00605884	-130,8
     177,849	  0,00638549	-131,1	  0,00584759	-129,2
     177,957	  0,00587185	-125,1	  0,00631088	-127,8
     178,065	  0,00584844	-130,9	  0,00599617	-128,4
     178,172	  0,00603924	-121,8	  0,00621082	-126,4
      178,28	  0,00595641	-125,3	  0,00604604	-129,7
     178,387	  0,00578156	-134,0	  0,00607691	-125,1
     178,495	  0,00591089	-127,3	  0,00567387	-123,9
     178,602	  0,00606395	-124,9	  0,00575193	-125,7
      178,71	  0,00585128	-129,7	  0,00618514	-126,5
     178,817	  0,00559889	-126,6	  0,00589258	-130,5
     178,925	  0,00603687	-126,5	  0,00549069	-126,5
     179,032	   0,0057632	-125,9	  0,00640283	-124,4
      179,14	  0,00560141	-128,7	  0,00577955	-127,6
     179,247	  0,00623936	-122,7	  0,00580647	-132,2
     179,355	  0,00561442	-124,9	  0,00607903	-125,6
     179,462	  0,00618458	-126,1	  0,00588939	-123,9
      179,57	  0,00583261	-127,3	  0,00596765	-123,7
     179,677	  0,00607834	-127,0	  0,00583257	-128,4
     179,785	  0,00593426	-126,4	  0,00588101	-126,5
     179,892	  0,00597164	-125,2	  0,00562405	-127,7
         180	  0,00592502	-126,1	  0,00578036	-128,1
     180,108	  0,00593119	-129,5	   0,0059558	-125,7
     180,215	  0,00583577	-126,9	   0,0057407	-128,7
     180,323	  0,00543196	-130,1	  0,00599967	-122,4
      180,43	  0,00586418	-129,1	  0,00606713	-122,5
     180,538	  0,00613452	-129,5	  0,00638078	-122,5
     180,645	  0,00582246	-129,4	  0,00613769	-126,4
     180,753	  0,00620685	-125,2	  0,00583705	-128,3
      180,86	  0,00580414	-126,7	  0,00600506	-126,3
     180,968	  0,00641473	-126,8	  0,00619817	-125,2
     181,075	  0,00538134	-132,8	   0,0059993	-126,4
     181,183	  0,00629352	-124,9	   0,0059996	-125,7
      181,29	  0,00577304	-125,9	  0,00600966	-128,3
     181,398	  0,00580721	-129,6	  0,00544212	-134,9
     181,505	  0,00576261	-125,4	  0,00573314	-126,0
     181,613	  0,00579497	-124,8	   0,0058194	-126,6
      181,72	  0,00619742	-122,9	  0,00581288	-124,0
     181,828	  0,00597278	-124,6	  0,00577464	-123,7
     181,935	  0,00607304	-119,5	  0,00601713	-122,4
     182,043	  0,00652512	-128,3	  0,00590856	-125,7
     182,151	   0,0051945	-125,6	  0,00568351	-126,4
     182,258	  0,00583138	-127,0	  0,00558322	-127,6
     182,366	  0,00594427	-125,3	  0,00640737	-120,3
     182,473	  0,00596168	-126,7	  0,00578108	-129,3
     182,581	  0,00574065	-124,1	  0,00602511	-125,4
     182,688	  0,00587145	-125,8	  0,00595568	-128,6
     182,796	  0,00600904	-123,1	  0,00588605	-128,7
     182,903	  0,00621246	-126,2	  0,00587366	-129,8
     183,011	  0,00589195	-126,7	  0,00588883	-126,0
     183,118	  0,00579176	-130,9	  0,00581891	-126,7
     183,226	   0,0054031	-132,2	  0,00593889	-127,6
     183,333	  0,00555615	-129,2	  0,00578238	-130,6
     183,441	   0,0059687	-131,1	  0,00559557	-128,3
     183,548	  0,00576096	-123,1	   0,0059259	-127,3
     183,656	  0,00593949	-127,7	  0,00572496	-125,8
     183,763	   0,0060019	-123,5	  0,00581043	-126,9
     183,871	  0,00565079	-129,5	  0,00543142	-125,9
     183,979	  0,00573339	-125,5	   0,0055633	-125,0
     184,086	  0,00578488	-129,6	  0,00584895	-126,5
     184,194	  0,00575209	-126,3	  0,00618188	-125,0
     184,301	  0,00594212	-124,8	  0,00574855	-127,5
     184,409	  0,00552706	-129,2	  0,00594251	-124,8
     184,516	  0,00589679	-126,7	  0,00596495	-127,5
     184,624	  0,00571972	-124,9	  0,00572396	-128,6
     184,731	  0,00591023	-123,7	   0,0060572	-124,1
     184,839	  0,00565634	-128,3	   0,0058617	-125,9
     184,946	  0,00605085	-124,2	  0,00590995	-126,3
     185,054	  0,00582991	-126,5	  0,00593101	-124,2
     185,161	  0,00571606	-126,9	  0,00579366	-126,1
     185,269	  0,00588422	-128,8	  0,00596974	-124,4
     185,376	  0,00546251	-124,7	  0,00572966	-123,6
     185,484	  0,00565245	-127,7	  0,00594552	-124,7
     185,591	  0,00606933	-124,7	  0,00572036	-126,0
     185,699	  0,00578282	-127,7	  0,00577755	-130,7
     185,806	  0,00571056	-121,6	  0,00591593	-123,7
     185,914	  0,00595142	-123,8	  0,00582575	-126,8
     186,021	  0,00584139	-125,4	  0,00574684	-126,3
     186,129	  0,00571999	-129,3	  0,00550473	-130,5
     186,237	  0,00571042	-126,4	  0,00619437	-127,4
     186,344	  0,00592583	-124,0	  0,00558227	-124,0
     186,452	  0,00574744	-125,3	  0,00571143	-126,2
     186,559	  0,00564174	-128,1	  0,00570187	-129,1
     186,667	  0,00574552	-126,8	  0,00551364	-127,1
     186,774	  0,00559487	-127,7	  0,00568579	-126,6
     186,882	   0,0056117	-127,9	  0,00586711	-125,0
     186,989	  0,00571741	-122,3	  0,00577168	-128,4
     187,097	   0,0060909	-117,6	  0,00578066	-124,8
     187,204	  0,00591999	-122,4	  0,00559629	-125,7
     187,312	    0,005741	-132,2	  0,00555451	-125,9
     187,419	  0,00569104	-125,4	  0,00564215	-125,7
     187,527	  0,00584157	-127,5	  0,00577337	-125,0
     187,634	  0,00584947	-123,9	   0,0056931	-125,5
     187,742	  0,00560761	-129,2	   0,0057259	-127,8
     187,849	  0,00562917	-128,1	  0,00590593	-126,6
     187,957	  0,00568933	-127,4	  0,00563277	-124,1
     188,065	  0,00571505	-127,3	  0,00545693	-127,2
     188,172	  0,00565731	-123,6	  0,00597844	-124,4
      188,28	  0,00578254	-127,2	  0,00613331	-122,1
     188,387	  0,00568638	-127,2	  0,00559971	-133,3
     188,495	  0,00558193	-125,5	  0,00565899	-125,5
     188,602	  0,00608962	-121,7	  0,00587499	-126,0
      188,71	   0,0056744	-127,6	  0,00573936	-127,3
     188,817	  0,00604286	-123,4	  0,00572654	-127,6
     188,925	  0,00577272	-128,4	  0,00580628	-126,3
     189,032	  0,00575041	-132,4	  0,00570562	-128,0
      189,14	  0,00562454	-125,0	  0,00586695	-123,5
     189,247	  0,00564742	-127,9	  0,00573614	-125,4
     189,355	  0,00573832	-134,4	  0,00571072	-126,5
     189,462	  0,00584705	-126,2	  0,00550466	-130,1
      189,57	  0,00588187	-131,6	  0,00572229	-124,7
     189,677	  0,00568762	-128,2	  0,00569227	-126,1
     189,785	  0,00561637	-127,9	   0,0056562	-127,8
     189,892	   0,0055172	-128,1	  0,00575067	-127,3
         190	  0,00596523	-123,9	  0,00573061	-125,8
     190,108	   0,0058619	-125,9	  0,00576287	-123,0
     190,215	  0,00570138	-125,6	  0,00585296	-124,6
     190,323	  0,00577322	-127,3	  0,00566715	-127,7
      190,43	  0,00592483	-126,0	  0,00584903	-124,8
     190,538	  0,00589906	-126,8	   0,0058846	-121,9
     190,645	  0,00575201	-128,9	  0,00555795	-126,4
     190,753	  0,00585615	-124,1	  0,00573136	-122,3
      190,86	  0,00573045	-128,5	  0,00566829	-125,7
     190,968	  0,00573915	-129,9	  0,00579711	-123,5
     191,075	   0,0057183	-127,8	  0,00562312	-123,9
     191,183	  0,00586456	-127,3	  0,00592333	-131,3
      191,29	  0,00573772	-127,2	    0,005977	-119,9
     191,398	  0,00574792	-125,7	  0,00552522	-134,8
     191,505	  0,00572241	-128,7	  0,00588288	-120,9
     191,613	  0,00562397	-126,1	  0,00610164	-121,9
      191,72	  0,00578671	-125,4	  0,00591322	-124,7
     191,828	  0,00578298	-128,6	  0,00574895	-126,5
     191,935	  0,00571481	-129,1	  0,00584004	-126,5
     192,043	  0,00565175	-126,4	  0,00576474	-123,9
     192,151	   0,0059203	-127,6	   0,0058939	-128,0
     192,258	  0,00582685	-126,8	  0,00584066	-124,3
     192,366	  0,00559269	-134,0	  0,00587678	-126,4
     192,473	   0,0058079	-133,1	  0,00593649	-125,5
     192,581	  0,00557983	-130,2	  0,00589771	-128,5
     192,688	  0,00577598	-126,2	  0,00567181	-130,3
     192,796	  0,00571848	-131,3	  0,00568679	-129,4
     192,903	  0,00586969	-129,1	  0,00572376	-130,5
     193,011	  0,00572844	-123,5	  0,00576039	-126,6
     193,118	  0,00570261	-125,1	  0,00579903	-126,0
     193,226	  0,00564573	-124,4	  0,00576028	-126,3
     193,333	  0,00556044	-126,1	  0,00581833	-128,8
     193,441	   0,0057052	-126,7	  0,00581118	-127,7
     193,548	  0,00566641	-126,8	  0,00565026	-129,7
     193,656	  0,00555298	-126,1	  0,00565874	-126,8
     193,763	  0,00563925	-127,9	  0,00548189	-124,1
     193,871	  0,00582968	-124,7	  0,00561405	-125,9
     193,979	  0,00599001	-121,0	   0,0058289	-126,8
     194,086	  0,00582257	-124,8	  0,00577571	-126,3
     194,194	  0,00576796	-125,4	  0,00579669	-123,5
     194,301	  0,00577746	-125,4	  0,00575467	-128,3
     194,409	  0,00597544	-124,3	    0,005694	-125,9
     194,516	   0,0058229	-124,9	  0,00582142	-129,7
     194,624	  0,00583998	-125,8	  0,00604296	-122,5
     194,731	  0,00585739	-124,4	  0,00574775	-126,5
     194,839	  0,00589922	-129,4	  0,00582503	-119,7
     194,946	  0,00578772	-126,4	  0,00586185	-131,9
     195,054	  0,00594946	-126,8	    0,005699	-126,6
     195,161	  0,00579396	-128,3	  0,00571607	-125,3
     195,269	  0,00585292	-124,0	  0,00578197	-127,1
     195,376	  0,00587114	-124,5	  0,00594232	-126,1
     195,484	  0,00599168	-127,4	  0,00580043	-123,5
     195,591	  0,00599608	-129,9	    0,005765	-124,2
     195,699	  0,00583105	-122,3	  0,00576808	-128,7
     195,806	  0,00574623	-125,9	  0,00592957	-123,2
     195,914	   0,0058119	-125,4	    0,005683	-123,9
     196,021	  0,00595781	-130,2	  0,00600964	-124,1
     196,129	  0,00581215	-129,3	  0,00585974	-128,0
     196,237	  0,00568969	-124,1	  0,00597108	-124,8
     196,344	   0,0056384	-123,7	  0,00590924	-125,9
     196,452	  0,00594337	-127,3	   0,0058039	-128,4
     196,559	  0,00580933	-122,1	  0,00573327	-124,6
     196,667	  0,00610706	-128,4	  0,00583998	-123,8
     196,774	  0,00572598	-125,1	  0,00589796	-124,6
     196,882	  0,00593191	-123,3	  0,00581294	-127,3
     196,989	  0,00581966	-122,6	  0,00569513	-126,3
     197,097	  0,00589367	-125,3	  0,00586332	-122,6
     197,204	  0,00596717	-130,3	  0,00568456	-126,0
     197,312	  0,00593682	-126,9	  0,00589475	-128,8
     197,419	  0,00583885	-126,1	  0,00589576	-130,6
     197,527	   0,0059539	-122,1	  0,00591115	-125,4
     197,634	  0,00566967	-127,1	   0,0060748	-132,6
     197,742	  0,00588422	-125,8	  0,00592735	-125,9
     197,849	  0,00604559	-127,1	  0,00583782	-123,7
     197,957	  0,00582162	-125,1	  0,00595387	-124,6
     198,065	  0,00584292	-127,0	  0,00591654	-123,4
     198,172	  0,00593213	-125,9	  0,00609089	-125,2
      198,28	  0,00581211	-123,3	  0,00585161	-128,4
     198,387	  0,00598516	-128,9	  0,00622033	-123,5
     198,495	  0,00584912	-125,9	  0,00603857	-124,4
     198,602	  0,00575987	-125,2	  0,00574652	-125,2
      198,71	  0,00599531	-126,4	  0,00584538	-123,2
     198,817	  0,00575151	-123,8	  0,00612235	-123,3
     198,925	  0,00560779	-121,4	  0,00601583	-129,1
     199,032	  0,00591739	-122,7	  0,00580793	-124,9
      199,14	  0,00589982	-127,5	  0,00590892	-125,0
     199,247	  0,00588016	-128,7	   0,0058242	-124,3
     199,355	  0,00606446	-124,4	  0,00614934	-120,5
     199,462	  0,00573641	-125,3	  0,00574827	-123,6
      199,57	  0,00573462	-126,3	  0,00581135	-123,8
     199,677	  0,00613782	-125,6	  0,00610338	-125,1
     199,785	   0,0058982	-127,4	  0,00623664	-126,9
     199,892	  0,00586794	-123,5	   0,0059788	-128,1
         200	  0,00557101	-124,1	   0,0061219	-128,8
     200,108	  0,00590318	-126,3	  0,00596378	-126,8
     200,215	  0,00594257	-126,6	  0,00599027	-125,4
     200,323	  0,00609861	-125,1	  0,00596335	-130,8
      200,43	  0,00599416	-123,6	  0,00606304	-129,1
     200,538	  0,00593153	-120,6	  0,00599795	-121,0
     200,645	  0,00615049	-128,4	  0,00613986	-129,8
     200,753	  0,00626963	-128,6	  0,00602268	-126,7
      200,86	  0,00585933	-125,5	  0,00600315	-128,4
     200,968	  0,00594926	-123,8	   0,0057552	-126,7
     201,075	  0,00569493	-123,5	   0,0060881	-127,5
     201,183	  0,00614269	-129,5	  0,00611631	-127,5
      201,29	  0,00614172	-128,5	  0,00608109	-126,2
     201,398	  0,00621122	-128,6	  0,00604299	-121,0
     201,505	   0,0060257	-123,3	  0,00566237	-121,4
     201,613	  0,00614964	-128,7	  0,00609715	-125,1
      201,72	  0,00612681	-127,3	  0,00642392	-130,4
     201,828	  0,00613109	-125,5	  0,00630647	-127,2
     201,935	  0,00597148	-124,2	  0,00617445	-127,5
     202,043	  0,00599998	-123,9	  0,00606386	-125,0
     202,151	  0,00610528	-125,5	  0,00602748	-121,8
     202,258	  0,00622451	-127,2	  0,00611742	-128,0
     202,366	  0,00618488	-127,9	  0,00613275	-127,9
     202,473	  0,00592196	-124,1	  0,00617675	-128,9
     202,581	   0,0061923	-126,3	  0,00615921	-130,4
     202,688	  0,00595528	-127,9	  0,00615218	-129,3
     202,796	  0,00630669	-124,6	  0,00642068	-129,8
     202,903	  0,00605927	-127,5	  0,00597319	-123,5
     203,011	  0,00586836	-126,8	  0,00620805	-126,6
     203,118	  0,00623328	-126,7	  0,00613433	-126,4
     203,226	  0,00645037	-127,9	  0,00629979	-127,4
     203,333	  0,00592126	-122,9	  0,00605064	-125,1
     203,441	  0,00613352	-125,6	   0,0064066	-127,5
     203,548	  0,00610341	-127,2	  0,00626235	-127,6
     203,656	  0,00619282	-125,6	   0,0060294	-127,2
     203,763	  0,00613786	-129,4	  0,00622858	-124,6
     203,871	  0,00645119	-125,6	  0,00629489	-126,8
     203,979	  0,00609412	-124,0	  0,00608776	-123,8
     204,086	  0,00626727	-124,8	  0,00641939	-127,0
     204,194	  0,00619136	-123,3	  0,00605863	-121,9
     204,301	  0,00608264	-124,9	  0,00608254	-127,6
     204,409	  0,00622504	-124,3	  0,00630086	-128,6
     204,516	  0,00627645	-125,5	  0,00633023	-124,8
     204,624	  0,00623195	-127,4	  0,00649484	-127,9
     204,731	  0,00623385	-121,2	  0,00593237	-123,7
     204,839	  0,00618191	-125,9	  0,00619422	-123,1
     204,946	  0,00616276	-121,4	  0,00621575	-122,5
     205,054	  0,00634019	-126,7	  0,00615857	-126,8
     205,161	  0,00646532	-125,9	  0,00615081	-126,0
     205,269	   0,0059615	-123,6	   0,0065997	-128,4
     205,376	  0,00600492	-126,3	  0,00638983	-125,0
     205,484	   0,0061375	-121,5	  0,00648727	-124,9
     205,591	  0,00640107	-127,8	  0,00637569	-126,6
     205,699	  0,00622303	-126,4	  0,00632808	-127,3
     205,806	  0,00610041	-123,8	   0,0063571	-125,2
     205,914	  0,00589966	-121,1	  0,00631572	-125,7
     206,021	  0,00599992	-123,0	  0,00629671	-124,5
     206,129	  0,00644135	-125,2	  0,00627057	-122,5
     206,237	  0,00639613	-126,4	  0,00650656	-124,8
     206,344	  0,00636329	-123,0	  0,00617527	-123,8
     206,452	  0,00634133	-124,2	  0,00654881	-127,5
     206,559	  0,00644604	-124,2	  0,00651048	-130,7
     206,667	  0,00624571	-124,2	  0,00647035	-127,1
     206,774	  0,00630345	-123,0	  0,00682112	-127,9
     206,882	  0,00630866	-122,3	  0,00634576	-123,2
     206,989	  0,00632156	-125,8	  0,00665554	-122,6
     207,097	  0,00651319	-125,4	  0,00611431	-125,9
     207,204	   0,0063822	-124,7	  0,00627092	-128,6
     207,312	  0,00649184	-122,5	  0,00622213	-124,9
     207,419	  0,00639936	-124,4	  0,00642432	-123,9
     207,527	  0,00626576	-125,3	  0,00621827	-124,4
     207,634	  0,00625327	-123,0	  0,00660665	-126,1
     207,742	   0,0065724	-126,5	  0,00582906	-121,2
     207,849	  0,00622657	-122,2	  0,00640702	-126,6
     207,957	   0,0066246	-125,9	  0,00660257	-123,9
     208,065	  0,00641226	-127,2	  0,00648723	-123,3
     208,172	  0,00640914	-120,8	  0,00642172	-126,8
      208,28	   0,0064949	-128,6	  0,00650185	-125,4
     208,387	  0,00645574	-126,0	  0,00676153	-131,8
     208,495	  0,00667359	-125,0	  0,00643122	-124,6
     208,602	  0,00655853	-122,7	  0,00644743	-128,5
      208,71	  0,00662569	-128,0	  0,00662788	-127,7
     208,817	  0,00636085	-124,0	  0,00652924	-125,7
     208,925	  0,00654936	-125,7	  0,00658227	-123,2
     209,032	  0,00672807	-126,5	  0,00632926	-120,4
      209,14	  0,00675706	-126,0	   0,0067507	-128,0
     209,247	  0,00632394	-125,4	  0,00672026	-124,1
     209,355	  0,00674469	-128,8	  0,00667517	-122,3
     209,462	  0,00643064	-123,8	  0,00666483	-125,3
      209,57	  0,00679613	-127,5	  0,00683349	-127,2
     209,677	  0,00664426	-123,2	  0,00653181	-122,8
     209,785	  0,00656845	-125,5	  0,00641688	-123,4
     209,892	  0,00655538	-124,4	    0,006442	-125,3
         210	  0,00667914	-125,5	  0,00683951	-122,1

