X-Data [Hz]	Laser (M - Filtered) [m/s]	Phase [Deg]	Laser (M - Filtered) [m/s]	Phase [Deg]	
	002: [07-10-24 12:42]		003: [07-10-24 12:45]	
        41,5	   0,0211022	77,5	   0,0224037	78,6
      41,502	   0,0214099	79,4	   0,0224883	78,1
     41,5039	    0,021783	78,3	   0,0224989	77,8
     41,5059	   0,0221072	79,8	   0,0225635	77,6
     41,5078	   0,0222766	79,0	   0,0225341	79,0
     41,5098	   0,0224718	78,1	   0,0225468	76,3
     41,5117	   0,0226026	78,5	    0,022546	77,7
     41,5137	   0,0226899	78,6	   0,0227033	77,7
     41,5156	   0,0226614	78,8	   0,0227315	78,4
     41,5176	    0,022725	77,8	   0,0227973	77,2
     41,5196	   0,0228474	78,6	   0,0228261	76,4
     41,5215	   0,0228771	78,5	   0,0228028	78,6
     41,5235	   0,0228785	79,4	   0,0228554	77,5
     41,5254	   0,0230104	77,5	   0,0228517	78,0
     41,5274	   0,0229874	77,2	   0,0228191	77,8
     41,5293	   0,0230244	79,1	   0,0229403	76,5
     41,5313	   0,0230546	78,4	   0,0230018	78,8
     41,5332	   0,0231181	79,6	   0,0229788	77,9
     41,5352	   0,0232471	78,9	   0,0230037	79,1
     41,5371	   0,0232209	78,3	   0,0231045	77,8
     41,5391	   0,0231857	78,5	   0,0231072	77,7
     41,5411	   0,0232547	78,9	   0,0231432	78,6
      41,543	   0,0233057	79,5	   0,0231736	77,9
      41,545	   0,0233537	79,5	   0,0232793	79,3
     41,5469	   0,0233864	78,6	   0,0233289	78,3
     41,5489	   0,0233985	78,5	   0,0233696	78,4
     41,5508	   0,0234402	79,4	   0,0233743	78,3
     41,5528	   0,0235099	79,3	   0,0233553	78,4
     41,5547	   0,0235277	77,7	   0,0234749	78,3
     41,5567	   0,0236162	79,4	   0,0234555	77,6
     41,5587	   0,0236582	79,6	   0,0235535	77,8
     41,5606	   0,0237298	79,5	   0,0236218	78,4
     41,5626	   0,0236709	80,2	   0,0236576	78,6
     41,5645	   0,0236433	78,0	   0,0236519	78,8
     41,5665	   0,0237046	79,4	   0,0236411	78,3
     41,5684	   0,0238275	79,3	   0,0237198	78,9
     41,5704	   0,0239512	79,7	   0,0237065	77,9
     41,5723	   0,0238791	80,4	   0,0237284	80,4
     41,5743	   0,0238555	77,7	   0,0237705	79,8
     41,5762	    0,023827	79,1	    0,023932	78,1
     41,5782	   0,0239548	79,4	   0,0239811	78,8
     41,5802	   0,0241125	79,5	   0,0239611	78,6
     41,5821	   0,0241285	79,3	   0,0240199	79,4
     41,5841	   0,0242477	78,4	    0,024003	78,8
      41,586	   0,0242251	79,2	   0,0240447	78,6
      41,588	   0,0241596	78,8	   0,0241636	78,4
     41,5899	   0,0242418	80,5	   0,0242681	78,4
     41,5919	   0,0242722	80,4	   0,0243307	79,9
     41,5938	   0,0243944	79,1	    0,024311	79,6
     41,5958	   0,0244088	79,8	   0,0243427	78,8
     41,5978	   0,0243933	79,3	   0,0242507	78,2
     41,5997	   0,0244368	80,5	   0,0243344	77,4
     41,6017	   0,0245699	79,0	    0,024425	79,7
     41,6036	   0,0245859	78,8	     0,02438	80,3
     41,6056	   0,0246386	79,1	   0,0245555	79,4
     41,6075	   0,0246258	78,8	   0,0246745	79,6
     41,6095	   0,0246014	80,3	   0,0247518	78,9
     41,6114	   0,0246276	79,3	   0,0246389	79,6
     41,6134	   0,0246719	79,0	   0,0246938	79,2
     41,6153	   0,0247624	80,0	   0,0247993	79,9
     41,6173	   0,0248775	79,2	   0,0248859	78,8
     41,6193	   0,0250248	81,2	   0,0248334	79,3
     41,6212	   0,0251083	80,5	   0,0247708	80,5
     41,6232	   0,0249107	78,6	   0,0248897	78,9
     41,6251	   0,0248777	80,4	   0,0251316	80,6
     41,6271	   0,0250488	80,6	   0,0251752	80,2
      41,629	   0,0250891	81,6	   0,0251161	80,0
      41,631	   0,0252318	79,4	   0,0251261	80,0
     41,6329	   0,0252226	79,8	    0,025164	80,5
     41,6349	   0,0252247	79,6	   0,0252482	81,2
     41,6369	   0,0252917	79,6	   0,0252882	79,1
     41,6388	   0,0254176	81,0	   0,0253546	79,6
     41,6408	   0,0255157	81,0	   0,0253808	79,8
     41,6427	   0,0255093	79,8	   0,0253891	79,4
     41,6447	   0,0254835	80,4	   0,0255453	80,9
     41,6466	   0,0255425	79,9	   0,0255993	80,1
     41,6486	   0,0256606	81,0	     0,02558	79,5
     41,6505	   0,0257036	80,1	   0,0255911	79,5
     41,6525	   0,0256986	80,0	   0,0257251	80,8
     41,6544	   0,0257203	79,6	   0,0257906	81,2
     41,6564	   0,0258278	80,0	   0,0257586	79,7
     41,6584	   0,0259123	81,9	   0,0257346	80,4
     41,6603	   0,0259602	80,3	    0,025748	79,5
     41,6623	   0,0258953	80,7	   0,0258675	78,9
     41,6642	     0,02595	80,5	   0,0260736	80,5
     41,6662	    0,026047	81,2	   0,0261706	80,6
     41,6681	   0,0260891	82,2	   0,0261179	80,9
     41,6701	   0,0262181	81,1	    0,026083	80,8
      41,672	   0,0263095	81,3	   0,0262222	80,1
      41,674	   0,0263784	80,9	   0,0261936	81,2
      41,676	   0,0264181	80,7	   0,0262424	81,1
     41,6779	   0,0263714	81,3	   0,0263346	81,1
     41,6799	   0,0263557	80,9	   0,0264308	81,2
     41,6818	   0,0264749	81,0	   0,0265736	78,8
     41,6838	   0,0265234	80,8	   0,0266324	80,3
     41,6857	   0,0266624	79,8	   0,0266239	80,4
     41,6877	   0,0266848	81,0	   0,0266349	80,4
     41,6896	   0,0267312	81,5	   0,0267008	81,8
     41,6916	   0,0267465	80,8	   0,0267132	80,8
     41,6936	   0,0267774	81,6	   0,0267992	80,8
     41,6955	    0,026828	80,6	   0,0268648	81,0
     41,6975	   0,0269209	81,6	    0,026942	81,6
     41,6994	   0,0270267	81,0	   0,0269745	81,9
     41,7014	   0,0270143	82,1	   0,0270377	80,2
     41,7033	   0,0271802	80,5	   0,0271536	81,0
     41,7053	   0,0271922	80,6	   0,0271922	79,8
     41,7072	   0,0272274	80,8	   0,0272591	80,0
     41,7092	   0,0272964	81,4	   0,0273142	81,7
     41,7111	   0,0272458	81,1	   0,0273517	81,7
     41,7131	   0,0272139	82,3	   0,0273503	82,0
     41,7151	   0,0274046	81,5	   0,0273822	81,1
      41,717	    0,027487	81,9	   0,0274739	80,8
      41,719	   0,0275358	82,0	   0,0274803	82,0
     41,7209	   0,0275903	82,1	   0,0274857	81,5
     41,7229	   0,0276357	82,7	    0,027623	81,8
     41,7248	   0,0276228	81,4	   0,0276615	82,5
     41,7268	   0,0277596	82,1	   0,0277494	81,2
     41,7287	   0,0278843	81,1	   0,0278012	81,8
     41,7307	   0,0280309	81,6	   0,0278468	81,4
     41,7327	    0,028163	82,2	   0,0279617	82,6
     41,7346	   0,0281378	82,4	   0,0280665	83,2
     41,7366	   0,0281421	82,0	   0,0281691	81,9
     41,7385	   0,0281163	82,2	    0,028197	81,7
     41,7405	   0,0282159	81,3	   0,0282771	81,6
     41,7424	   0,0282666	82,8	   0,0282488	82,6
     41,7444	   0,0283383	82,6	   0,0282543	83,0
     41,7463	   0,0283922	83,0	   0,0284544	81,1
     41,7483	   0,0284385	82,1	    0,028478	82,2
     41,7502	   0,0284489	81,7	   0,0284979	82,7
     41,7522	   0,0285204	83,8	   0,0285914	81,3
     41,7542	   0,0286485	82,6	   0,0287155	82,6
     41,7561	   0,0286594	83,0	   0,0287341	82,9
     41,7581	   0,0287349	82,6	   0,0288019	82,9
       41,76	   0,0288185	82,7	   0,0288654	81,9
      41,762	   0,0288132	82,5	   0,0289199	81,3
     41,7639	    0,028886	83,5	   0,0290206	81,6
     41,7659	   0,0290864	82,5	   0,0290537	80,9
     41,7678	   0,0291335	83,7	   0,0291478	82,5
     41,7698	   0,0291507	83,1	   0,0292088	82,6
     41,7718	   0,0292488	82,7	   0,0292541	82,4
     41,7737	   0,0292369	82,7	    0,029303	82,3
     41,7757	   0,0292674	82,5	   0,0293043	82,8
     41,7776	   0,0293704	84,8	   0,0294721	82,3
     41,7796	   0,0295255	84,5	   0,0294423	82,9
     41,7815	   0,0295527	82,4	   0,0295875	83,3
     41,7835	   0,0295392	83,8	   0,0296596	82,7
     41,7854	   0,0296268	82,5	   0,0297193	83,1
     41,7874	    0,029646	83,0	    0,029761	82,4
     41,7893	   0,0297853	84,6	   0,0298057	82,8
     41,7913	   0,0299606	83,8	    0,029752	83,3
     41,7933	   0,0300057	83,9	   0,0298858	84,0
     41,7952	   0,0301279	83,0	   0,0300908	83,7
     41,7972	   0,0301866	82,9	   0,0301913	82,1
     41,7991	   0,0302612	83,7	   0,0303272	82,7
     41,8011	   0,0303496	84,3	   0,0303817	83,4
      41,803	   0,0303475	83,5	   0,0304462	82,9
      41,805	   0,0304037	82,6	   0,0302842	84,8
     41,8069	   0,0304469	83,4	   0,0302636	82,4
     41,8089	   0,0305716	83,9	   0,0304538	82,8
     41,8109	   0,0306013	84,0	   0,0306731	84,1
     41,8128	   0,0307612	84,5	   0,0306711	83,2
     41,8148	   0,0308168	85,9	   0,0308292	84,4
     41,8167	   0,0308682	83,2	   0,0304454	85,2
     41,8187	   0,0309089	83,4	   0,0308893	83,5
     41,8206	   0,0309251	84,7	   0,0309244	84,0
     41,8226	   0,0310609	83,7	   0,0308123	83,5
     41,8245	   0,0308193	84,0	   0,0311529	83,3
     41,8265	   0,0312552	85,0	   0,0309901	83,0
     41,8284	   0,0313226	84,3	   0,0313429	82,9
     41,8304	   0,0314126	84,9	   0,0314075	84,1
     41,8324	    0,031436	85,0	    0,031578	86,3
     41,8343	   0,0312798	86,3	   0,0314229	83,1
     41,8363	   0,0316177	84,0	   0,0315256	83,6
     41,8382	   0,0315989	85,0	   0,0312409	85,0
     41,8402	   0,0316229	85,2	   0,0314238	83,5
     41,8421	    0,031659	84,0	   0,0319454	85,4
     41,8441	   0,0317141	83,7	   0,0317772	83,6
      41,846	   0,0315811	87,0	   0,0319328	83,0
      41,848	   0,0319286	86,6	   0,0319384	85,3
       41,85	   0,0320965	85,9	   0,0318789	82,7
     41,8519	   0,0321656	86,5	   0,0321064	85,9
     41,8539	   0,0322962	85,0	   0,0317564	85,4
     41,8558	   0,0324378	85,6	   0,0318261	84,9
     41,8578	   0,0325771	85,5	   0,0320783	84,5
     41,8597	   0,0325286	85,9	   0,0324427	83,0
     41,8617	   0,0325446	86,0	   0,0326779	83,9
     41,8636	   0,0325095	86,6	   0,0323477	84,3
     41,8656	   0,0326871	85,9	   0,0326505	83,4
     41,8675	   0,0325539	86,0	   0,0323614	85,6
     41,8695	   0,0325217	85,9	   0,0323344	86,3
     41,8715	   0,0329758	85,8	   0,0329019	84,9
     41,8734	   0,0329131	86,3	   0,0328956	83,1
     41,8754	   0,0326889	87,5	   0,0329431	83,7
     41,8773	   0,0328972	88,2	   0,0326463	83,5
     41,8793	   0,0329333	86,7	   0,0328858	83,4
     41,8812	   0,0335546	85,6	   0,0335742	84,7
     41,8832	   0,0333109	88,5	   0,0335828	85,8
     41,8851	   0,0337354	87,0	   0,0336016	86,6
     41,8871	   0,0335834	85,8	   0,0338568	86,0
     41,8891	   0,0333596	88,0	   0,0336832	84,6
      41,891	   0,0338148	86,9	   0,0333934	84,1
      41,893	   0,0339753	86,5	   0,0341424	84,9
     41,8949	   0,0339897	88,0	   0,0344269	86,7
     41,8969	   0,0340042	88,2	   0,0345338	87,1
     41,8988	   0,0337087	87,0	   0,0346307	86,9
     41,9008	   0,0338175	87,0	   0,0346716	87,1
     41,9027	   0,0339242	87,4	   0,0345622	86,6
     41,9047	   0,0342058	87,5	   0,0346841	85,2
     41,9066	   0,0346482	88,2	    0,034756	84,7
     41,9086	   0,0346519	87,5	   0,0346331	85,8
     41,9106	   0,0342703	87,5	   0,0347565	86,5
     41,9125	   0,0345396	89,0	   0,0348036	85,8
     41,9145	   0,0345612	88,7	   0,0353189	87,3
     41,9164	   0,0348876	88,7	   0,0350887	85,0
     41,9184	   0,0353337	86,9	    0,035624	87,8
     41,9203	   0,0352266	88,3	   0,0357251	86,6
     41,9223	   0,0351364	88,9	   0,0353463	85,7
     41,9242	    0,035112	88,8	    0,035696	86,5
     41,9262	   0,0352279	90,8	   0,0359157	86,8
     41,9282	   0,0355014	87,7	   0,0358917	86,3
     41,9301	   0,0357558	89,8	   0,0361483	86,4
     41,9321	   0,0354358	89,8	   0,0360965	86,2
      41,934	   0,0359198	88,7	   0,0358396	86,7
      41,936	   0,0357529	88,9	    0,036163	87,7
     41,9379	   0,0362468	88,5	   0,0363466	86,7
     41,9399	   0,0359615	89,4	   0,0362984	88,1
     41,9418	   0,0359102	88,0	   0,0367267	87,4
     41,9438	   0,0362988	91,2	   0,0370399	88,1
     41,9457	   0,0360385	91,1	   0,0372485	88,9
     41,9477	   0,0363191	90,1	   0,0365576	89,2
     41,9497	    0,036354	91,0	   0,0365617	90,6
     41,9516	   0,0362265	87,9	   0,0368316	90,5
     41,9536	   0,0363149	88,2	   0,0372033	89,8
     41,9555	   0,0366135	90,2	   0,0370065	89,8
     41,9575	   0,0367018	91,2	   0,0373887	88,4
     41,9594	   0,0368722	92,1	   0,0378826	89,2
     41,9614	   0,0370442	92,0	    0,037949	89,1
     41,9633	   0,0371415	89,4	   0,0378135	91,1
     41,9653	   0,0373352	89,7	   0,0376815	89,0
     41,9673	   0,0373433	90,6	    0,038649	91,6
     41,9692	   0,0370492	91,1	   0,0378717	90,7
     41,9712	   0,0374738	92,5	    0,038715	88,1
     41,9731	   0,0377541	91,7	   0,0384469	89,8
     41,9751	   0,0376881	92,1	   0,0388978	89,7
      41,977	   0,0378252	93,9	   0,0388444	87,9
      41,979	   0,0376125	92,4	   0,0392567	90,9
     41,9809	   0,0381571	89,7	   0,0396268	90,1
     41,9829	   0,0382642	89,9	   0,0393575	92,1
     41,9848	    0,038176	91,9	   0,0400389	92,5
     41,9868	   0,0381277	91,0	   0,0399071	91,2
     41,9888	   0,0384309	93,1	   0,0401592	91,1
     41,9907	   0,0388099	94,2	   0,0393537	89,9
     41,9927	    0,038751	91,1	   0,0399801	91,7
     41,9946	   0,0386263	91,5	   0,0399394	92,0
     41,9966	   0,0393306	92,0	   0,0402903	92,3
     41,9985	   0,0395371	92,5	   0,0402285	91,0
     42,0005	   0,0398993	91,5	    0,040293	91,5
     42,0024	   0,0393795	92,1	    0,040707	92,7
     42,0044	   0,0393126	95,1	   0,0408089	91,9
     42,0064	   0,0395885	93,7	   0,0410504	92,6
     42,0083	   0,0395464	92,4	   0,0411608	92,0
     42,0103	   0,0393992	95,1	   0,0415094	92,3
     42,0122	    0,039785	94,9	   0,0412863	92,5
     42,0142	   0,0399403	94,2	   0,0418405	93,4
     42,0161	   0,0397328	94,5	   0,0409849	92,8
     42,0181	   0,0400214	95,1	   0,0415564	93,0
       42,02	   0,0402972	96,1	   0,0417787	94,0
      42,022	   0,0404008	95,2	   0,0421514	92,0
     42,0239	   0,0405615	95,0	   0,0426082	94,1
     42,0259	   0,0410665	94,6	   0,0427532	93,8
     42,0279	   0,0407012	95,2	   0,0428057	93,1
     42,0298	   0,0407097	95,6	   0,0431566	93,5
     42,0318	   0,0403741	98,5	    0,042821	93,6
     42,0337	   0,0410585	95,4	     0,04272	94,2
     42,0357	    0,041187	94,5	   0,0427308	95,4
     42,0376	   0,0417518	92,0	   0,0431052	95,0
     42,0396	   0,0412247	93,2	   0,0435966	95,4
     42,0415	   0,0414107	97,0	   0,0435662	94,5
     42,0435	    0,041465	97,0	   0,0439633	96,6
     42,0455	   0,0413417	97,6	   0,0437605	95,2
     42,0474	   0,0412769	98,7	   0,0440433	95,2
     42,0494	   0,0413809	94,0	   0,0444735	95,6
     42,0513	    0,041718	95,1	   0,0442064	96,4
     42,0533	   0,0417402	94,9	   0,0441858	96,0
     42,0552	   0,0424994	95,3	   0,0448991	95,6
     42,0572	   0,0425077	95,4	   0,0453353	95,4
     42,0591	   0,0421494	99,8	   0,0456539	97,2
     42,0611	   0,0423563	98,1	   0,0451833	96,7
      42,063	   0,0423734	96,7	   0,0458012	95,7
      42,065	   0,0425175	98,6	   0,0459249	96,0
      42,067	   0,0428078	96,0	   0,0462302	97,9
     42,0689	   0,0429296	95,7	   0,0465047	96,4
     42,0709	    0,043242	99,2	   0,0463854	97,6
     42,0728	   0,0440121	98,4	   0,0463419	99,0
     42,0748	   0,0439205	101,1	   0,0469797	97,0
     42,0767	   0,0445722	100,0	   0,0476157	97,0
     42,0787	   0,0441647	98,2	   0,0475588	97,5
     42,0806	   0,0437434	98,9	   0,0474168	97,8
     42,0826	    0,043787	96,0	   0,0474398	99,8
     42,0846	   0,0440807	97,1	   0,0480314	100,6
     42,0865	   0,0453066	99,1	   0,0483849	98,0
     42,0885	   0,0443838	98,7	   0,0478432	100,1
     42,0904	   0,0446872	100,1	   0,0481543	99,5
     42,0924	    0,044672	101,2	   0,0481699	99,1
     42,0943	    0,045099	100,7	   0,0489791	100,0
     42,0963	   0,0454213	99,3	   0,0489689	100,7
     42,0982	   0,0452601	98,9	   0,0492628	99,8
     42,1002	   0,0454573	98,2	   0,0499377	100,5
     42,1021	   0,0458014	98,8	   0,0497135	101,9
     42,1041	   0,0463389	101,7	   0,0499787	102,1
     42,1061	   0,0465594	100,6	   0,0506552	101,3
      42,108	   0,0469032	102,9	   0,0509089	101,7
       42,11	   0,0464002	101,7	   0,0506916	101,4
     42,1119	   0,0465674	100,4	   0,0506693	99,9
     42,1139	   0,0474514	102,4	   0,0516152	102,1
     42,1158	   0,0470384	101,3	   0,0523187	103,6
     42,1178	   0,0476159	101,6	   0,0515356	102,7
     42,1197	    0,047677	101,1	   0,0518787	103,9
     42,1217	   0,0477166	102,1	   0,0522589	102,9
     42,1237	    0,047795	105,0	   0,0523909	103,7
     42,1256	   0,0475249	103,1	    0,053112	103,0
     42,1276	   0,0479219	103,3	   0,0528944	103,2
     42,1295	   0,0483285	103,4	   0,0535263	103,5
     42,1315	   0,0487578	104,2	   0,0539797	103,9
     42,1334	   0,0483812	101,3	   0,0537566	105,1
     42,1354	   0,0486695	102,1	   0,0542357	105,4
     42,1373	   0,0491573	104,5	   0,0545674	107,5
     42,1393	   0,0485974	102,5	   0,0551271	107,8
     42,1413	   0,0495816	106,6	   0,0557264	105,1
     42,1432	   0,0496489	106,3	   0,0558201	106,3
     42,1452	   0,0492896	104,6	   0,0556895	105,7
     42,1471	   0,0500516	107,0	   0,0561549	105,1
     42,1491	   0,0503951	104,2	   0,0563022	107,4
      42,151	   0,0505155	105,0	   0,0564136	106,7
      42,153	   0,0505729	107,1	   0,0566954	108,4
     42,1549	   0,0508603	106,3	   0,0570706	108,0
     42,1569	   0,0513283	107,8	   0,0582002	110,7
     42,1588	   0,0516725	108,1	   0,0582785	109,7
     42,1608	   0,0514535	108,9	   0,0584598	109,1
     42,1628	   0,0524497	110,1	   0,0582904	110,9
     42,1647	    0,052117	108,8	    0,058292	108,7
     42,1667	    0,052283	109,6	   0,0593991	109,1
     42,1686	   0,0523768	107,1	   0,0596756	110,6
     42,1706	    0,053078	109,7	   0,0598531	110,2
     42,1725	   0,0533185	109,9	   0,0603501	112,1
     42,1745	   0,0535601	110,6	   0,0597953	113,2
     42,1764	   0,0540784	110,8	   0,0609368	112,0
     42,1784	   0,0546955	113,7	   0,0612098	113,1
     42,1804	   0,0539729	111,6	    0,061866	113,3
     42,1823	   0,0546757	112,2	   0,0617426	112,5
     42,1843	   0,0554097	112,9	   0,0622401	111,1
     42,1862	   0,0553072	113,1	   0,0618661	112,3
     42,1882	   0,0559282	112,2	   0,0625566	114,4
     42,1901	   0,0555004	111,1	   0,0630627	113,3
     42,1921	   0,0550181	112,9	   0,0632371	117,5
      42,194	   0,0560971	112,7	   0,0628531	117,9
      42,196	   0,0566988	114,1	   0,0644104	117,2
     42,1979	   0,0571181	115,5	   0,0645372	118,1
     42,1999	   0,0573565	115,7	   0,0651163	117,1
     42,2019	   0,0572343	116,2	   0,0656306	118,1
     42,2038	   0,0575352	115,8	   0,0652942	117,0
     42,2058	   0,0569718	115,0	   0,0655737	117,7
     42,2077	   0,0585321	115,5	   0,0664042	119,1
     42,2097	    0,058035	114,7	   0,0658422	116,7
     42,2116	   0,0584453	117,2	   0,0660536	121,7
     42,2136	   0,0580743	114,5	   0,0657354	120,3
     42,2155	   0,0591245	118,6	   0,0674008	120,6
     42,2175	   0,0586875	118,2	   0,0674972	121,7
     42,2195	   0,0594099	117,9	   0,0673729	121,5
     42,2214	    0,059917	118,7	   0,0682637	121,4
     42,2234	   0,0601676	117,2	   0,0683488	122,5
     42,2253	   0,0605697	117,5	   0,0685466	122,3
     42,2273	   0,0607037	118,6	   0,0679638	120,7
     42,2292	   0,0612594	119,9	   0,0688894	121,5
     42,2312	   0,0604987	120,1	   0,0694147	122,1
     42,2331	   0,0610556	120,4	   0,0695765	124,2
     42,2351	    0,062053	121,7	   0,0695729	123,7
      42,237	   0,0618659	122,6	   0,0695917	127,2
      42,239	   0,0627877	122,9	   0,0700793	126,3
      42,241	   0,0626287	124,4	   0,0701209	126,8
     42,2429	   0,0633079	124,7	   0,0710215	126,2
     42,2449	   0,0631277	122,3	   0,0712913	127,0
     42,2468	   0,0633247	123,0	   0,0710875	127,7
     42,2488	   0,0638173	125,5	   0,0716336	127,6
     42,2507	    0,063303	123,6	   0,0718738	128,3
     42,2527	   0,0632684	126,1	   0,0714205	127,9
     42,2546	   0,0641624	127,4	   0,0724595	128,5
     42,2566	   0,0641137	125,9	   0,0722972	131,5
     42,2586	   0,0658308	126,5	    0,071981	130,4
     42,2605	   0,0661232	128,2	    0,072315	130,9
     42,2625	   0,0648578	128,5	    0,072646	132,0
     42,2644	   0,0658409	129,2	   0,0730203	132,3
     42,2664	   0,0666744	129,4	   0,0730157	132,7
     42,2683	   0,0672853	131,0	   0,0734934	132,7
     42,2703	   0,0669732	130,2	   0,0733046	132,7
     42,2722	   0,0670766	129,7	    0,073466	133,1
     42,2742	     0,06583	132,2	   0,0740927	133,0
     42,2761	   0,0657641	131,4	   0,0737271	134,7
     42,2781	   0,0664354	132,4	   0,0744804	135,1
     42,2801	   0,0663879	133,3	   0,0749517	135,3
      42,282	   0,0664855	133,3	   0,0747777	136,4
      42,284	    0,067052	133,7	   0,0742693	137,4
     42,2859	   0,0666709	133,4	   0,0745363	137,6
     42,2879	   0,0670579	134,0	   0,0745852	137,5
     42,2898	   0,0672388	132,9	   0,0746436	138,9
     42,2918	   0,0669217	134,2	   0,0755001	138,4
     42,2937	   0,0677991	136,2	   0,0754973	137,8
     42,2957	   0,0682346	135,5	    0,075535	138,8
     42,2977	   0,0677893	135,8	   0,0751922	139,3
     42,2996	   0,0690192	138,3	   0,0763294	138,8
     42,3016	   0,0689178	137,9	   0,0758074	141,3
     42,3035	    0,067901	137,7	   0,0756605	140,2
     42,3055	   0,0684966	138,9	   0,0759029	141,9
     42,3074	   0,0684676	139,5	   0,0758567	141,5
     42,3094	   0,0685597	140,1	   0,0762382	142,1
     42,3113	   0,0687321	139,3	   0,0758149	143,9
     42,3133	   0,0686052	141,2	   0,0757635	143,9
     42,3153	   0,0700316	141,0	   0,0760778	145,0
     42,3172	   0,0705593	140,7	   0,0764292	145,7
     42,3192	   0,0705706	141,8	   0,0759499	143,3
     42,3211	   0,0704221	142,6	   0,0759798	144,3
     42,3231	    0,070449	143,3	   0,0762781	145,3
      42,325	   0,0700009	143,0	   0,0768111	145,8
      42,327	   0,0701196	145,1	   0,0766841	145,5
     42,3289	    0,070138	145,7	   0,0771114	146,1
     42,3309	   0,0705759	144,5	   0,0763342	147,1
     42,3328	    0,070717	145,4	   0,0765106	146,4
     42,3348	   0,0703902	145,7	   0,0765281	149,2
     42,3368	   0,0707972	146,5	   0,0764581	149,1
     42,3387	   0,0711466	145,6	   0,0764645	149,7
     42,3407	    0,070777	146,7	   0,0765306	148,7
     42,3426	   0,0712898	146,6	   0,0768071	149,9
     42,3446	   0,0706654	147,6	   0,0765164	149,8
     42,3465	   0,0715136	149,3	   0,0763378	150,1
     42,3485	   0,0718163	150,2	   0,0761212	150,3
     42,3504	    0,070364	149,3	   0,0759694	151,2
     42,3524	   0,0713327	149,6	   0,0757587	151,0
     42,3544	   0,0712852	151,1	   0,0756045	149,9
     42,3563	   0,0718404	151,3	     0,07635	152,2
     42,3583	   0,0709772	151,4	   0,0765649	153,0
     42,3602	   0,0714892	152,2	   0,0760088	151,8
     42,3622	    0,071387	151,4	   0,0756935	153,1
     42,3641	   0,0716243	151,7	   0,0763313	155,1
     42,3661	   0,0717407	153,2	   0,0756514	155,2
      42,368	   0,0715599	152,9	   0,0758591	155,3
       42,37	    0,071349	153,3	   0,0767873	155,2
     42,3719	   0,0714711	153,8	   0,0762796	156,1
     42,3739	   0,0717747	153,5	   0,0758023	156,6
     42,3759	   0,0716521	155,4	   0,0760302	155,4
     42,3778	   0,0724441	154,8	   0,0764728	156,4
     42,3798	   0,0719559	156,1	   0,0758002	156,2
     42,3817	   0,0714749	157,4	   0,0763264	156,6
     42,3837	   0,0718845	156,8	   0,0763828	157,2
     42,3856	   0,0718547	156,4	   0,0758469	157,0
     42,3876	   0,0720504	156,9	   0,0751964	156,8
     42,3895	   0,0713987	158,2	   0,0752707	158,4
     42,3915	   0,0722279	156,5	   0,0755195	158,8
     42,3935	    0,071153	156,7	   0,0753276	159,6
     42,3954	   0,0714504	158,1	   0,0755977	159,6
     42,3974	   0,0720334	158,5	   0,0749242	160,5
     42,3993	   0,0717117	157,7	    0,075101	161,7
     42,4013	   0,0721324	158,8	   0,0751201	160,8
     42,4032	   0,0721262	161,2	   0,0751362	160,9
     42,4052	    0,072235	161,2	   0,0755111	161,5
     42,4071	   0,0718479	161,6	   0,0748575	162,0
     42,4091	   0,0722011	163,1	   0,0747392	160,9
      42,411	   0,0710218	161,7	   0,0751951	161,5
      42,413	     0,07088	162,1	   0,0740643	162,1
      42,415	   0,0704951	162,6	   0,0744892	162,4
     42,4169	   0,0700722	162,4	   0,0745376	161,9
     42,4189	   0,0715341	162,5	   0,0744794	162,1
     42,4208	   0,0705782	161,7	    0,074211	163,3
     42,4228	   0,0718044	163,8	   0,0742109	163,9
     42,4247	   0,0710803	164,3	   0,0736784	162,6
     42,4267	   0,0710797	164,1	   0,0739421	164,1
     42,4286	   0,0710771	162,5	   0,0729613	164,3
     42,4306	   0,0712889	165,4	   0,0739357	164,5
     42,4326	   0,0705612	165,7	   0,0731398	163,8
     42,4345	   0,0716076	164,7	   0,0737566	166,4
     42,4365	   0,0709302	165,0	    0,073583	166,8
     42,4384	   0,0702911	166,5	   0,0738583	165,9
     42,4404	   0,0704149	167,5	   0,0735901	165,7
     42,4423	   0,0707132	166,6	   0,0735537	167,8
     42,4443	    0,069671	168,1	   0,0733576	167,2
     42,4462	   0,0702131	168,4	   0,0729163	167,5
     42,4482	   0,0702085	167,4	   0,0731371	168,4
     42,4501	   0,0699212	168,0	   0,0730702	168,7
     42,4521	   0,0708827	168,8	   0,0727996	168,0
     42,4541	   0,0696786	169,0	   0,0723868	167,8
      42,456	   0,0702551	167,5	   0,0725209	168,3
      42,458	   0,0694672	168,4	   0,0722562	169,6
     42,4599	   0,0696474	169,5	   0,0720807	168,8
     42,4619	   0,0700498	169,2	   0,0721925	169,7
     42,4638	   0,0707228	169,7	   0,0718737	170,7
     42,4658	   0,0698036	168,8	   0,0716605	170,0
     42,4677	   0,0698307	171,4	   0,0718945	170,3
     42,4697	   0,0692521	171,1	   0,0714607	170,2
     42,4717	   0,0699206	170,6	   0,0715066	172,6
     42,4736	   0,0694805	173,0	   0,0710349	173,1
     42,4756	   0,0699888	173,0	   0,0711901	171,5
     42,4775	   0,0693957	173,5	   0,0711169	171,5
     42,4795	   0,0695592	173,0	   0,0714062	173,5
     42,4814	   0,0693189	173,3	   0,0711184	173,6
     42,4834	   0,0686481	173,3	   0,0710037	173,2
     42,4853	   0,0685467	172,1	   0,0704647	172,8
     42,4873	   0,0686994	172,7	   0,0704446	173,3
     42,4892	   0,0684939	173,6	    0,070592	174,5
     42,4912	   0,0685356	173,9	    0,070181	173,5
     42,4932	    0,068203	173,5	   0,0703305	173,8
     42,4951	    0,067768	173,2	   0,0700103	174,1
     42,4971	   0,0678265	173,8	   0,0700056	174,4
      42,499	    0,068555	175,5	   0,0698341	174,0
      42,501	   0,0683011	175,0	   0,0694785	174,8
     42,5029	    0,068266	175,0	   0,0692705	176,2
     42,5049	   0,0677398	175,1	   0,0693325	175,5
     42,5068	   0,0678716	176,7	   0,0693022	175,5
     42,5088	   0,0678117	176,2	   0,0687219	175,8
     42,5108	   0,0676861	178,1	   0,0689047	176,8
     42,5127	   0,0675141	176,8	   0,0687148	176,2
     42,5147	   0,0674639	176,9	   0,0686998	177,9
     42,5166	   0,0673115	177,9	   0,0685918	177,8
     42,5186	   0,0672698	178,9	   0,0685763	178,3
     42,5205	   0,0663725	179,0	   0,0683945	177,7
     42,5225	    0,066297	177,0	   0,0682263	177,4
     42,5244	   0,0668345	178,4	   0,0683371	179,1
     42,5264	   0,0658215	179,3	   0,0676399	179,1
     42,5283	   0,0660769	179,7	   0,0680622	179,7
     42,5303	   0,0658986	177,9	    0,067873	179,2
     42,5323	   0,0663538	178,6	   0,0677122	180,0
     42,5342	   0,0657491	180,0	   0,0675867	179,6
     42,5362	   0,0655152	180,3	   0,0672549	179,0
     42,5381	   0,0653622	178,6	   0,0669697	179,8
     42,5401	   0,0656013	179,8	   0,0669108	180,3
      42,542	   0,0658101	181,7	   0,0666295	180,3
      42,544	   0,0653087	180,7	   0,0667141	179,5
     42,5459	   0,0660346	180,7	   0,0663392	180,3
     42,5479	   0,0654879	180,7	   0,0664314	181,0
     42,5499	   0,0648013	180,6	   0,0662926	180,6
     42,5518	   0,0645496	182,2	   0,0658187	180,1
     42,5538	   0,0649107	182,6	   0,0655643	181,7
     42,5557	   0,0653261	181,7	   0,0655317	183,0
     42,5577	    0,064825	182,3	   0,0656013	182,2
     42,5596	   0,0649103	184,2	   0,0655293	181,6
     42,5616	   0,0647008	183,9	   0,0653534	181,8
     42,5635	   0,0645289	184,4	   0,0652299	183,4
     42,5655	   0,0644589	184,2	   0,0649261	184,2
     42,5674	   0,0639661	183,6	   0,0648846	183,5
     42,5694	   0,0643316	185,1	   0,0646643	183,4
     42,5714	   0,0635123	184,1	   0,0645852	185,7
     42,5733	   0,0634331	184,6	   0,0637231	184,1
     42,5753	   0,0628057	185,1	   0,0641402	184,1
     42,5772	   0,0629895	184,1	   0,0641074	184,8
     42,5792	   0,0622914	183,8	   0,0637169	185,9
     42,5811	   0,0630987	185,9	   0,0639622	186,1
     42,5831	   0,0631581	186,3	   0,0637441	184,9
      42,585	   0,0624491	185,6	   0,0636526	185,4
      42,587	   0,0615664	185,1	   0,0635636	185,7
      42,589	   0,0617435	185,7	   0,0633409	187,0
     42,5909	   0,0619794	186,4	   0,0631756	185,1
     42,5929	   0,0616931	186,1	   0,0626572	186,2
     42,5948	   0,0618712	186,4	   0,0626703	185,9
     42,5968	   0,0616111	186,8	   0,0626543	186,4
     42,5987	   0,0617892	187,1	   0,0625479	187,1
     42,6007	    0,062001	187,5	   0,0623267	185,9
     42,6026	   0,0619451	187,4	   0,0620146	187,4
     42,6046	    0,061551	187,3	   0,0620613	187,0
     42,6065	    0,061161	187,2	   0,0618024	186,5
     42,6085	   0,0612972	188,6	   0,0617419	186,4
     42,6105	   0,0611133	188,1	     0,06161	188,1
     42,6124	   0,0612232	189,2	   0,0612524	188,0
     42,6144	   0,0608922	189,0	   0,0613131	188,1
     42,6163	   0,0611339	189,9	    0,061028	187,3
     42,6183	   0,0610328	189,2	   0,0610034	188,4
     42,6202	    0,060498	189,4	   0,0605885	189,2
     42,6222	   0,0604972	189,2	   0,0605951	188,3
     42,6241	   0,0604355	190,9	   0,0604182	188,5
     42,6261	   0,0598041	189,5	   0,0601681	188,0
     42,6281	   0,0601932	190,0	   0,0600322	190,2
       42,63	   0,0593675	190,8	    0,060059	189,5
      42,632	   0,0595973	191,9	   0,0596266	189,0
     42,6339	    0,059065	190,4	   0,0593864	190,5
     42,6359	   0,0590257	190,9	    0,059563	191,0
     42,6378	   0,0592233	191,7	   0,0595268	190,4
     42,6398	   0,0587612	192,6	   0,0593489	190,9
     42,6417	   0,0590502	192,8	   0,0592964	191,0
     42,6437	    0,058424	191,6	   0,0592079	191,8
     42,6456	   0,0582009	192,1	   0,0590886	192,0
     42,6476	   0,0580135	193,2	   0,0588951	191,5
     42,6496	   0,0577742	192,6	   0,0586745	191,1
     42,6515	   0,0582633	193,4	   0,0585149	192,2
     42,6535	   0,0570996	193,5	   0,0583549	192,9
     42,6554	   0,0574481	193,1	   0,0580753	191,3
     42,6574	    0,057434	194,6	   0,0579698	192,1
     42,6593	   0,0566776	193,2	   0,0578705	191,7
     42,6613	   0,0576771	193,3	    0,057728	193,7
     42,6632	   0,0565561	193,6	   0,0575342	193,6
     42,6652	   0,0569098	193,8	   0,0574539	193,0
     42,6672	   0,0559114	194,2	    0,057296	193,0
     42,6691	    0,056424	193,3	   0,0571179	194,2
     42,6711	   0,0560346	193,7	   0,0569882	194,2
      42,673	   0,0563327	194,2	   0,0568666	192,5
      42,675	   0,0561793	194,9	   0,0566912	193,6
     42,6769	   0,0559398	194,1	    0,056554	194,2
     42,6789	   0,0558257	194,3	   0,0564092	194,7
     42,6808	   0,0559548	195,7	   0,0562467	193,0
     42,6828	   0,0557404	195,1	   0,0560512	194,2
     42,6847	    0,055215	195,1	   0,0559449	195,3
     42,6867	   0,0548583	195,0	   0,0558393	196,0
     42,6887	   0,0553822	195,4	   0,0556565	194,6
     42,6906	   0,0550289	196,1	   0,0554837	195,2
     42,6926	   0,0548804	196,4	   0,0553726	195,2
     42,6945	   0,0545534	195,5	   0,0552748	195,6
     42,6965	   0,0546871	195,3	   0,0550665	194,7
     42,6984	   0,0547551	197,5	   0,0548752	195,6
     42,7004	   0,0546047	197,1	   0,0546575	195,6
     42,7023	    0,054372	196,3	   0,0544924	195,8
     42,7043	   0,0542219	196,7	   0,0544824	197,1
     42,7063	   0,0541034	198,2	     0,05435	196,5
     42,7082	   0,0537356	198,2	   0,0542453	196,0
     42,7102	   0,0537298	198,0	   0,0541162	195,9
     42,7121	   0,0535065	197,4	   0,0539374	197,3
     42,7141	   0,0535555	198,3	   0,0538781	197,2
      42,716	   0,0534675	198,9	   0,0537169	197,3
      42,718	   0,0532428	198,5	   0,0535313	196,1
     42,7199	   0,0531488	197,7	   0,0534096	196,9
     42,7219	   0,0528895	-160,0	   0,0532615	197,4
     42,7239	   0,0527358	-160,6	   0,0530183	197,9
     42,7258	   0,0526354	-160,3	   0,0528222	196,7
     42,7278	   0,0524403	-160,4	   0,0527395	196,5
     42,7297	   0,0522816	-161,4	   0,0523142	197,9
     42,7317	   0,0520882	-159,9	   0,0524523	198,6
     42,7336	   0,0518494	-159,8	   0,0522159	196,9
     42,7356	   0,0517927	-159,9	   0,0521283	197,9
     42,7375	   0,0517919	-160,5	   0,0519281	197,7
     42,7395	   0,0516387	-159,4	   0,0518909	199,3
     42,7414	   0,0513756	-158,9	   0,0517337	198,3
     42,7434	   0,0512147	-159,1	   0,0515899	198,1
     42,7454	   0,0511262	-159,1	   0,0514701	199,2
     42,7473	   0,0509734	-159,5	   0,0513745	199,7
     42,7493	   0,0508309	-158,8	   0,0511797	199,6
     42,7512	   0,0507426	-159,1	   0,0510521	198,7
     42,7532	   0,0504908	-157,8	   0,0508591	199,2
     42,7551	    0,050403	-157,8	   0,0507325	198,9
     42,7571	   0,0501522	-158,0	   0,0505643	-159,9
      42,759	    0,050095	-158,2	   0,0504936	-159,7
      42,761	   0,0499326	-158,0	   0,0503479	-160,7
      42,763	   0,0499622	-158,0	   0,0502136	-161,0
     42,7649	   0,0497029	-158,5	   0,0500453	-160,1
     42,7669	   0,0495554	-158,1	    0,049909	-159,0
     42,7688	   0,0495142	-156,5	   0,0497526	-159,9
     42,7708	   0,0493662	-157,5	   0,0496314	-160,0
     42,7727	   0,0490923	-158,0	   0,0493361	-160,0
     42,7747	   0,0489054	-158,0	   0,0493446	-158,7
     42,7766	   0,0478636	-157,8	   0,0491197	-158,0
     42,7786	   0,0487206	-156,5	    0,049046	-159,4
     42,7805	   0,0485942	-156,1	   0,0488213	-158,6
     42,7825	   0,0485904	-157,0	   0,0486693	-159,2
     42,7845	   0,0481337	-158,0	   0,0485704	-157,6
     42,7864	   0,0482088	-155,7	   0,0485216	-157,3
     42,7884	    0,048137	-156,5	   0,0484235	-157,2
     42,7903	   0,0479404	-155,1	   0,0482628	-158,5
     42,7923	   0,0478771	-156,5	   0,0481325	-158,1
     42,7942	   0,0477043	-156,0	   0,0480581	-157,7
     42,7962	   0,0474566	-154,4	   0,0479971	-156,6
     42,7981	   0,0474396	-154,5	   0,0477788	-157,7
     42,8001	   0,0473236	-155,9	   0,0475865	-158,2
     42,8021	   0,0470554	-156,2	   0,0475585	-156,8
      42,804	   0,0469647	-155,5	   0,0474262	-156,4
      42,806	   0,0470293	-154,4	   0,0470575	-156,2
     42,8079	   0,0469449	-154,7	   0,0468747	-156,0
     42,8099	   0,0467727	-154,2	   0,0469521	-157,3
     42,8118	   0,0466647	-156,3	   0,0467668	-156,7
     42,8138	   0,0464036	-154,6	   0,0466005	-155,7
     42,8157	   0,0462083	-155,1	   0,0465011	-154,7
     42,8177	   0,0461054	-154,1	   0,0464415	-157,1
     42,8196	   0,0459359	-154,3	   0,0462786	-156,4
     42,8216	   0,0457301	-154,9	   0,0462244	-155,0
     42,8236	   0,0457528	-154,9	   0,0460483	-154,9
     42,8255	    0,045629	-153,4	    0,045858	-156,2
     42,8275	   0,0454901	-153,7	   0,0457681	-155,2
     42,8294	   0,0453738	-155,1	   0,0456868	-155,3
     42,8314	   0,0451167	-153,4	   0,0455979	-153,9
     42,8333	   0,0450413	-153,4	   0,0452741	-154,2
     42,8353	   0,0449274	-153,3	   0,0451506	-153,9
     42,8372	   0,0448418	-154,0	   0,0450718	-155,8
     42,8392	   0,0447338	-154,1	   0,0448993	-154,7
     42,8412	   0,0445375	-153,9	   0,0446321	-154,2
     42,8431	    0,044416	-154,5	   0,0445036	-153,2
     42,8451	   0,0442865	-152,4	   0,0445749	-154,7
      42,847	   0,0441901	-153,3	   0,0445013	-154,0
      42,849	   0,0440976	-154,1	    0,044322	-153,3
     42,8509	   0,0440667	-154,0	   0,0442809	-152,9
     42,8529	   0,0439058	-152,3	   0,0439991	-152,1
     42,8548	   0,0437891	-152,4	   0,0437346	-152,6
     42,8568	   0,0435674	-152,4	   0,0434523	-152,6
     42,8587	   0,0435008	-153,3	   0,0435787	-153,3
     42,8607	   0,0433962	-153,1	   0,0433341	-151,1
     42,8627	   0,0433441	-152,5	   0,0434825	-151,8
     42,8646	   0,0431742	-151,5	   0,0432983	-152,1
     42,8666	   0,0430667	-152,4	   0,0433263	-152,5
     42,8685	   0,0428905	-152,2	   0,0426842	-151,3
     42,8705	   0,0427629	-153,8	    0,043103	-151,6
     42,8724	   0,0426704	-152,7	   0,0429122	-151,3
     42,8744	   0,0425049	-151,6	   0,0428731	-152,0
     42,8763	   0,0424139	-151,5	    0,042617	-152,4
     42,8783	   0,0423253	-152,8	    0,042365	-152,5
     42,8803	    0,042283	-152,4	   0,0423653	-150,6
     42,8822	   0,0421754	-151,6	   0,0422499	-151,3
     42,8842	   0,0420604	-151,4	   0,0421671	-152,5
     42,8861	   0,0418582	-151,2	   0,0420915	-152,4
     42,8881	   0,0417798	-152,0	   0,0419652	-152,7
       42,89	    0,041618	-152,2	   0,0417674	-150,8
      42,892	   0,0414984	-150,8	   0,0416738	-151,6
     42,8939	   0,0413978	-150,5	   0,0416321	-151,7
     42,8959	   0,0412922	-149,6	   0,0415557	-151,1
     42,8979	    0,041073	-151,8	   0,0414984	-151,2
     42,8998	    0,040986	-150,8	   0,0413687	-150,1
     42,9018	   0,0408962	-150,5	   0,0412496	-151,2
     42,9037	   0,0407859	-150,3	   0,0411288	-151,4
     42,9057	   0,0406929	-150,3	   0,0409982	-152,0
     42,9076	   0,0405758	-150,4	   0,0409435	-152,7
     42,9096	   0,0405196	-150,5	   0,0407638	-150,5
     42,9115	   0,0404785	-149,9	   0,0406962	-150,1
     42,9135	   0,0403617	-149,2	   0,0405721	-151,5
     42,9154	   0,0402875	-148,8	   0,0405171	-150,6
     42,9174	   0,0401202	-150,3	   0,0403592	-151,5
     42,9194	    0,040093	-149,2	   0,0403123	-150,6
     42,9213	   0,0399136	-148,7	    0,040176	-150,7
     42,9233	   0,0396789	-148,2	   0,0400186	-149,7
     42,9252	   0,0395271	-148,4	   0,0398607	-151,0
     42,9272	   0,0394366	-147,6	    0,039777	-150,0
     42,9291	   0,0392785	-149,3	   0,0396294	-149,7
     42,9311	   0,0391845	-149,2	   0,0395027	-149,5
      42,933	   0,0390784	-148,2	   0,0393847	-150,0
      42,935	   0,0390563	-147,6	   0,0392994	-148,6
      42,937	   0,0390081	-148,3	   0,0392034	-149,1
     42,9389	   0,0389392	-148,9	   0,0390946	-149,0
     42,9409	   0,0389052	-149,1	   0,0390498	-148,4
     42,9428	   0,0387324	-148,7	   0,0389732	-147,2
     42,9448	    0,038575	-148,2	   0,0388381	-148,9
     42,9467	   0,0383879	-147,6	   0,0387475	-148,3
     42,9487	   0,0383353	-147,8	   0,0385125	-147,7
     42,9506	   0,0381527	-148,3	   0,0384446	-148,5
     42,9526	   0,0380742	-149,2	   0,0383036	-147,4
     42,9545	   0,0379358	-147,4	   0,0382227	-148,1
     42,9565	   0,0379487	-148,3	   0,0381468	-147,7
     42,9585	   0,0378789	-148,6	   0,0380097	-148,6
     42,9604	   0,0378346	-148,4	   0,0379991	-149,4
     42,9624	    0,037717	-147,9	   0,0378794	-148,0
     42,9643	   0,0376148	-148,4	    0,037822	-147,8
     42,9663	   0,0375036	-147,4	   0,0377462	-148,3
     42,9682	   0,0374332	-146,5	   0,0376113	-148,8
     42,9702	   0,0373123	-147,8	   0,0373722	-148,7
     42,9721	   0,0370961	-147,8	   0,0373359	-148,3
     42,9741	   0,0369785	-147,4	   0,0372625	-147,9
     42,9761	   0,0369819	-146,9	   0,0371444	-148,2
      42,978	   0,0369409	-146,1	   0,0370562	-149,3
       42,98	   0,0367968	-146,7	   0,0370015	-148,7
     42,9819	   0,0366008	-146,0	   0,0368445	-148,4
     42,9839	    0,036457	-147,1	    0,036679	-147,5
     42,9858	   0,0364182	-146,6	   0,0365872	-146,7
     42,9878	   0,0363783	-145,4	   0,0365388	-147,7
     42,9897	   0,0363285	-145,4	   0,0363983	-147,1
     42,9917	   0,0361664	-145,7	   0,0363046	-147,6
     42,9936	   0,0361213	-146,3	   0,0362498	-146,9
     42,9956	   0,0359312	-145,0	   0,0361526	-145,6
     42,9976	   0,0357666	-144,9	   0,0360821	-145,5
     42,9995	   0,0356687	-144,1	   0,0361034	-146,5
     43,0015	   0,0355551	-145,0	   0,0360056	-145,5
     43,0034	   0,0354093	-146,1	   0,0358307	-146,7
     43,0054	   0,0353959	-146,3	   0,0357549	-145,9
     43,0073	   0,0353747	-145,9	   0,0355266	-145,2
     43,0093	   0,0352846	-146,4	   0,0354346	-145,3
     43,0112	   0,0351465	-145,2	   0,0354455	-146,2
     43,0132	   0,0350518	-145,2	   0,0353779	-146,4
     43,0152	   0,0349934	-146,3	   0,0353367	-147,3
     43,0171	   0,0349243	-146,4	   0,0352455	-146,0
     43,0191	    0,034835	-145,3	   0,0351786	-145,8
      43,021	   0,0347311	-145,4	   0,0350671	-145,7
      43,023	   0,0345939	-145,7	   0,0349475	-146,3
     43,0249	   0,0345861	-146,3	   0,0347427	-146,9
     43,0269	   0,0344953	-146,2	   0,0346329	-146,4
     43,0288	    0,034437	-145,8	   0,0345001	-146,0
     43,0308	   0,0343482	-144,9	   0,0343739	-145,1
     43,0327	   0,0342325	-144,0	   0,0343655	-145,4
     43,0347	    0,034149	-144,1	   0,0342313	-145,5
     43,0367	   0,0340467	-143,4	   0,0341372	-146,0
     43,0386	   0,0339444	-144,8	   0,0340521	-145,5
     43,0406	   0,0338291	-144,1	   0,0340367	-144,8
     43,0425	   0,0337478	-143,5	   0,0339352	-144,0
     43,0445	   0,0335914	-143,4	   0,0338241	-145,1
     43,0464	   0,0334978	-143,4	   0,0338176	-144,9
     43,0484	   0,0334614	-143,2	   0,0337285	-144,9
     43,0503	   0,0333956	-143,2	   0,0335662	-144,9
     43,0523	   0,0332876	-144,6	   0,0335303	-144,3
     43,0543	   0,0331955	-143,0	   0,0333815	-143,3
     43,0562	   0,0331272	-144,0	   0,0333856	-143,9
     43,0582	   0,0330283	-143,8	   0,0332793	-145,1
     43,0601	   0,0329114	-144,8	   0,0331715	-145,3
     43,0621	   0,0329308	-144,4	   0,0330741	-145,2
      43,064	   0,0328418	-144,8	   0,0330414	-143,8
      43,066	   0,0327226	-143,2	   0,0329791	-143,5
     43,0679	   0,0326705	-142,9	   0,0328752	-145,2
     43,0699	   0,0325383	-142,9	   0,0327853	-144,6
     43,0718	   0,0325169	-144,4	    0,032723	-145,2
     43,0738	   0,0324152	-143,2	   0,0325978	-144,4
     43,0758	   0,0323477	-143,8	   0,0325214	-143,9
     43,0777	   0,0321712	-142,7	   0,0323125	-142,7
     43,0797	   0,0320647	-142,0	   0,0321722	-142,4
     43,0816	   0,0319302	-142,0	   0,0321049	-143,1
     43,0836	   0,0318479	-143,3	   0,0320898	-143,1
     43,0855	    0,031855	-142,8	   0,0320413	-143,6
     43,0875	   0,0317375	-142,6	    0,031922	-143,2
     43,0894	   0,0316217	-142,6	   0,0318465	-141,6
     43,0914	    0,031523	-141,6	   0,0318455	-142,3
     43,0934	   0,0315559	-142,2	   0,0317661	-143,1
     43,0953	   0,0315116	-143,2	    0,031763	-144,7
     43,0973	   0,0314559	-142,8	   0,0316388	-144,1
     43,0992	   0,0312949	-143,0	   0,0315403	-144,4
     43,1012	   0,0312017	-143,4	   0,0314394	-142,3
     43,1031	   0,0310572	-142,1	   0,0313661	-142,5
     43,1051	    0,030971	-141,9	   0,0312981	-143,3
      43,107	   0,0309617	-142,7	   0,0312388	-143,3
      43,109	   0,0309657	-142,1	   0,0311162	-143,5
     43,1109	   0,0308944	-143,4	   0,0309149	-142,6
     43,1129	   0,0307647	-142,2	   0,0308621	-142,7
     43,1149	   0,0306837	-141,0	   0,0307735	-141,2
     43,1168	   0,0305758	-140,6	   0,0307734	-141,5
     43,1188	   0,0306166	-142,1	   0,0307746	-141,6
     43,1207	   0,0305028	-141,6	   0,0305387	-142,2
     43,1227	     0,03046	-141,9	   0,0305013	-142,7
     43,1246	   0,0302659	-141,4	   0,0304338	-140,6
     43,1266	   0,0301842	-140,4	   0,0304047	-142,2
     43,1285	   0,0301184	-140,2	   0,0303444	-142,3
     43,1305	   0,0299928	-141,0	   0,0302333	-143,0
     43,1325	   0,0299401	-141,6	   0,0300056	-143,3
     43,1344	   0,0299111	-142,6	    0,029974	-142,9
     43,1364	   0,0298337	-142,2	   0,0299523	-142,1
     43,1383	    0,029796	-142,2	   0,0299005	-142,3
     43,1403	   0,0296703	-142,2	   0,0297328	-141,8
     43,1422	   0,0297442	-140,7	   0,0296829	-141,4
     43,1442	   0,0295335	-141,0	   0,0296645	-140,3
     43,1461	   0,0294572	-142,8	   0,0296726	-141,9
     43,1481	   0,0292994	-141,1	   0,0296329	-141,5
       43,15	   0,0291259	-140,5	   0,0294865	-141,4
      43,152	   0,0290762	-140,4	   0,0293824	-140,9
      43,154	   0,0290483	-140,5	   0,0292623	-140,5
     43,1559	    0,029032	-139,9	   0,0291539	-140,3
     43,1579	   0,0289841	-140,3	   0,0292033	-141,9
     43,1598	   0,0289554	-140,6	   0,0291861	-141,9
     43,1618	   0,0288984	-141,3	   0,0291387	-142,1
     43,1637	   0,0287901	-140,3	   0,0290473	-141,8
     43,1657	   0,0287688	-140,9	   0,0289292	-141,0
     43,1676	   0,0287021	-139,5	   0,0288547	-140,4
     43,1696	   0,0285528	-140,7	   0,0287563	-141,1
     43,1716	   0,0284339	-141,2	   0,0287022	-142,1
     43,1735	   0,0284625	-141,6	    0,028563	-140,8
     43,1755	   0,0284764	-140,7	   0,0285539	-140,5
     43,1774	   0,0283261	-140,6	   0,0284496	-139,7
     43,1794	   0,0281726	-139,6	   0,0284096	-140,5
     43,1813	   0,0281795	-139,0	   0,0282668	-140,0
     43,1833	   0,0282021	-139,5	   0,0281856	-139,7
     43,1852	   0,0281549	-139,4	   0,0282645	-140,7
     43,1872	   0,0279412	-139,8	   0,0281242	-141,5
     43,1891	   0,0278624	-140,0	   0,0281374	-141,2
     43,1911	   0,0278076	-138,6	   0,0280113	-141,1
     43,1931	   0,0277972	-139,3	   0,0279059	-140,3
      43,195	   0,0276798	-139,0	   0,0278777	-139,7
      43,197	   0,0276076	-140,3	   0,0277764	-140,7
     43,1989	   0,0275826	-141,0	   0,0276469	-141,2
     43,2009	   0,0275645	-141,6	   0,0275316	-140,7
     43,2028	   0,0275143	-140,0	   0,0275333	-139,6
     43,2048	   0,0273961	-138,8	   0,0274458	-139,0
     43,2067	   0,0272862	-138,5	   0,0274203	-139,0
     43,2087	   0,0271938	-138,9	    0,027318	-138,9
     43,2107	   0,0270899	-138,5	   0,0272535	-139,5
     43,2126	   0,0270325	-139,2	   0,0272444	-140,3
     43,2146	   0,0269208	-139,2	   0,0272377	-140,4
     43,2165	   0,0269079	-139,0	    0,027221	-140,5
     43,2185	   0,0269177	-139,1	   0,0271306	-140,5
     43,2204	   0,0268402	-137,8	   0,0269578	-140,2
     43,2224	   0,0268351	-138,8	   0,0268298	-138,8
     43,2243	   0,0267905	-138,6	   0,0267158	-139,6
     43,2263	   0,0266482	-139,6	   0,0267431	-138,7
     43,2282	   0,0265793	-139,6	   0,0267564	-139,5
     43,2302	   0,0264523	-139,7	   0,0266547	-139,3
     43,2322	   0,0264312	-138,9	   0,0265675	-137,7
     43,2341	   0,0264631	-138,1	   0,0265084	-139,0
     43,2361	   0,0263063	-137,3	   0,0263669	-137,8
      43,238	   0,0262658	-138,3	   0,0263602	-139,0
       43,24	    0,026212	-137,9	   0,0263345	-139,8
     43,2419	   0,0261131	-138,5	   0,0262799	-140,1
     43,2439	   0,0259947	-139,4	   0,0262444	-140,4
     43,2458	   0,0259621	-138,0	   0,0261768	-140,0
     43,2478	   0,0259416	-139,0	   0,0260206	-139,0
     43,2498	   0,0258592	-137,5	   0,0258892	-137,9
     43,2517	   0,0258458	-138,8	   0,0258872	-137,8
     43,2537	   0,0258821	-139,5	   0,0258693	-137,4
     43,2556	   0,0257698	-139,0	   0,0258413	-138,3
     43,2576	   0,0257586	-138,7	   0,0257952	-138,8
     43,2595	   0,0256709	-138,4	   0,0256916	-138,6
     43,2615	    0,025598	-137,5	   0,0257007	-138,8
     43,2634	   0,0254924	-136,7	   0,0257027	-138,4
     43,2654	   0,0253431	-136,9	   0,0256092	-138,3
     43,2673	   0,0253418	-137,2	   0,0255146	-139,2
     43,2693	   0,0252545	-138,3	   0,0254203	-138,4
     43,2713	   0,0251905	-139,3	   0,0253726	-139,3
     43,2732	   0,0251022	-139,0	   0,0252511	-138,5
     43,2752	    0,025098	-139,3	   0,0252052	-137,8
     43,2771	   0,0250602	-137,7	   0,0250593	-137,7
     43,2791	   0,0249888	-137,6	   0,0250733	-137,4
      43,281	   0,0250657	-138,7	   0,0250527	-137,6
      43,283	   0,0250814	-136,8	    0,025012	-137,2
     43,2849	   0,0248911	-136,6	   0,0249206	-137,7
     43,2869	   0,0247543	-137,4	   0,0248693	-138,6
     43,2889	   0,0246515	-137,5	   0,0248673	-139,0
     43,2908	   0,0246669	-136,8	   0,0248794	-138,3
     43,2928	   0,0245689	-137,5	   0,0247984	-139,0
     43,2947	    0,024562	-137,4	   0,0246982	-137,6
     43,2967	   0,0245939	-136,8	   0,0246531	-136,6
     43,2986	   0,0244844	-138,1	   0,0245216	-136,1
     43,3006	     0,02448	-137,6	   0,0244507	-137,1
     43,3025	    0,024339	-138,2	    0,024474	-137,8
     43,3045	    0,024221	-137,7	   0,0244063	-137,2
     43,3064	   0,0242058	-137,1	   0,0243416	-138,7
     43,3084	   0,0241757	-136,3	   0,0242736	-137,8
     43,3104	   0,0241033	-135,7	   0,0241891	-137,5
     43,3123	   0,0240295	-136,4	   0,0241601	-137,3
     43,3143	   0,0240396	-137,1	    0,024105	-136,9
     43,3162	     0,02402	-137,4	   0,0240302	-138,5
     43,3182	   0,0240065	-137,9	   0,0238894	-137,6
     43,3201	   0,0238775	-138,3	   0,0238415	-136,9
     43,3221	   0,0238346	-138,1	   0,0237971	-137,1
      43,324	   0,0237117	-136,6	   0,0238401	-137,5
      43,326	   0,0237097	-136,0	   0,0237325	-136,4
      43,328	   0,0236665	-135,7	   0,0237206	-136,4
     43,3299	    0,023627	-135,7	   0,0236755	-137,7
     43,3319	    0,023566	-136,2	   0,0236277	-138,2
     43,3338	   0,0235011	-137,0	   0,0235773	-137,9
     43,3358	   0,0233623	-136,6	   0,0234056	-136,8
     43,3377	   0,0233133	-137,5	   0,0234013	-137,3
     43,3397	   0,0232715	-136,0	   0,0233109	-137,0
     43,3416	   0,0232515	-136,9	   0,0232069	-136,0
     43,3436	    0,023244	-136,5	    0,023268	-134,9
     43,3456	   0,0231477	-135,9	   0,0232162	-136,6
     43,3475	   0,0231067	-136,6	   0,0232023	-135,9
     43,3495	   0,0230378	-135,9	    0,023099	-137,0
     43,3514	   0,0230315	-136,0	   0,0230565	-136,9
     43,3534	   0,0229192	-135,9	   0,0229555	-137,3
     43,3553	   0,0228881	-137,7	   0,0228581	-137,2
     43,3573	   0,0228232	-135,7	   0,0228851	-136,4
     43,3592	   0,0228037	-136,1	   0,0228278	-135,9
     43,3612	   0,0227545	-136,0	   0,0228089	-135,4
     43,3631	   0,0227862	-135,7	   0,0228032	-135,2
     43,3651	   0,0227389	-136,3	   0,0227412	-135,9
     43,3671	   0,0226717	-135,7	   0,0225395	-136,8
      43,369	   0,0225643	-135,3	   0,0226683	-136,2
      43,371	   0,0223892	-135,5	   0,0226333	-137,6
     43,3729	   0,0223115	-135,5	   0,0225891	-137,5
     43,3749	   0,0223874	-136,8	   0,0224913	-137,0
     43,3768	   0,0223849	-135,3	    0,022278	-136,1
     43,3788	   0,0223435	-136,0	   0,0222943	-135,2
     43,3807	   0,0221566	-136,3	   0,0222608	-133,9
     43,3827	   0,0221712	-135,9	   0,0222692	-135,8
     43,3847	   0,0221558	-136,7	   0,0222004	-136,2
     43,3866	   0,0221231	-136,1	    0,022225	-136,4
     43,3886	    0,022094	-135,6	   0,0221969	-137,1
     43,3905	   0,0220462	-135,4	   0,0220236	-136,3
     43,3925	   0,0219541	-134,0	   0,0219601	-137,0
     43,3944	   0,0219033	-135,2	   0,0219645	-135,6
     43,3964	   0,0217992	-134,8	   0,0218845	-134,8
     43,3983	   0,0217608	-136,4	   0,0218782	-134,4
     43,4003	   0,0217954	-136,4	   0,0218941	-134,2
     43,4022	   0,0217724	-136,8	   0,0218492	-135,9
     43,4042	   0,0216855	-135,4	   0,0216914	-136,7
     43,4062	   0,0217399	-135,1	   0,0216015	-136,1
     43,4081	   0,0216208	-135,4	   0,0216193	-136,6
     43,4101	   0,0215147	-133,5	   0,0215925	-136,0
      43,412	   0,0213787	-134,9	   0,0215333	-135,5
      43,414	   0,0213699	-134,6	   0,0214743	-135,1
     43,4159	   0,0213828	-135,2	   0,0214723	-134,1
     43,4179	   0,0214334	-135,8	   0,0214736	-134,3
     43,4198	    0,021304	-136,1	   0,0214913	-135,6
     43,4218	   0,0211897	-135,7	   0,0213301	-136,2
     43,4238	   0,0211261	-135,6	   0,0212938	-136,5
     43,4257	   0,0211114	-135,0	   0,0211692	-135,5
     43,4277	   0,0211437	-134,6	   0,0211318	-136,3
     43,4296	   0,0211589	-135,2	   0,0210469	-134,7
     43,4316	   0,0210627	-133,9	   0,0210847	-134,3
     43,4335	   0,0210071	-135,0	   0,0210285	-134,3
     43,4355	   0,0209943	-135,6	   0,0209794	-133,7
     43,4374	   0,0209144	-135,8	   0,0208731	-134,3
     43,4394	   0,0209394	-136,1	   0,0208845	-135,0
     43,4413	   0,0209303	-135,6	   0,0208288	-135,2
     43,4433	   0,0209052	-133,6	   0,0208875	-135,6
     43,4453	   0,0207283	-134,2	   0,0208694	-136,0
     43,4472	   0,0206666	-133,0	   0,0207652	-135,1
     43,4492	   0,0206838	-133,9	     0,02069	-133,9
     43,4511	   0,0207483	-135,2	   0,0205895	-134,4
     43,4531	   0,0206263	-134,2	   0,0204349	-133,2
      43,455	   0,0205346	-133,9	    0,020419	-133,8
      43,457	   0,0204986	-135,1	   0,0204749	-134,2
     43,4589	   0,0204806	-133,8	   0,0205342	-135,2
     43,4609	    0,020478	-134,7	   0,0205161	-135,5
     43,4629	   0,0204043	-134,2	   0,0204263	-136,2
     43,4648	   0,0202185	-133,8	   0,0203332	-134,5
     43,4668	   0,0202312	-135,4	    0,020312	-134,8
     43,4687	   0,0202276	-134,2	   0,0203282	-133,7
     43,4707	   0,0202828	-134,7	   0,0202987	-134,1
     43,4726	   0,0202815	-133,5	   0,0201713	-133,7
     43,4746	   0,0201088	-134,8	   0,0200255	-134,6
     43,4765	   0,0200152	-134,0	   0,0200491	-134,6
     43,4785	    0,019914	-134,1	   0,0200204	-134,7
     43,4804	   0,0199416	-133,8	   0,0200284	-135,5
     43,4824	   0,0199514	-134,9	   0,0199581	-135,1
     43,4844	   0,0198695	-134,4	   0,0198574	-134,7
     43,4863	   0,0198388	-135,2	   0,0197469	-134,3
     43,4883	   0,0198729	-134,4	   0,0196798	-133,3
     43,4902	   0,0198127	-133,0	     0,01965	-134,2
     43,4922	   0,0197178	-133,5	   0,0197798	-133,6
     43,4941	   0,0196202	-132,4	   0,0197704	-134,2
     43,4961	   0,0194925	-133,7	    0,019651	-134,4
      43,498	   0,0195144	-134,1	   0,0195498	-133,2
        43,5	   0,0195783	-133,7	   0,0195734	-134,1

