X-Data [Hz]	Laser (M - Filtered) [m/s]	Phase [Deg]	Laser (M - Filtered) [m/s]	Phase [Deg]	
	003: [06-27-24 15:57]		005: [06-27-24 16:04]	
         155	   0,0216274	56,1	    0,023776	56,7
     155,064	   0,0228783	57,4	   0,0237196	56,6
     155,127	   0,0230365	55,5	   0,0241009	56,0
     155,191	    0,023155	56,3	    0,024207	53,8
     155,254	   0,0233053	57,5	   0,0243134	58,0
     155,318	   0,0233558	57,6	   0,0246017	54,9
     155,381	   0,0237887	55,8	   0,0248906	57,4
     155,445	   0,0240182	56,6	   0,0250098	57,1
     155,508	    0,023954	56,0	    0,025358	57,1
     155,572	   0,0241708	56,3	   0,0253257	56,1
     155,635	   0,0245216	53,4	   0,0259943	55,8
     155,699	   0,0242489	56,2	   0,0264345	55,0
     155,762	   0,0247936	56,1	    0,026263	56,6
     155,826	   0,0251952	58,7	   0,0262774	55,7
      155,89	   0,0252824	56,4	   0,0265826	56,1
     155,953	   0,0251367	55,9	   0,0271837	56,1
     156,017	   0,0253172	56,7	   0,0275063	55,1
      156,08	   0,0260448	57,2	   0,0271927	56,1
     156,144	   0,0258054	55,4	   0,0277641	58,1
     156,207	   0,0259566	56,8	   0,0279553	57,4
     156,271	   0,0265192	56,7	   0,0280036	57,0
     156,334	   0,0264425	57,0	   0,0282338	55,5
     156,398	   0,0264499	55,9	   0,0289141	55,6
     156,461	   0,0270743	56,6	   0,0288742	55,5
     156,525	   0,0271383	56,1	   0,0294218	55,2
     156,588	   0,0277402	55,2	    0,029408	56,9
     156,652	   0,0275802	56,9	   0,0298993	55,0
     156,716	   0,0281223	56,4	   0,0296695	57,8
     156,779	   0,0282649	55,8	    0,030657	56,3
     156,843	   0,0281337	56,9	   0,0305302	57,4
     156,906	   0,0287428	54,9	   0,0312364	57,3
      156,97	   0,0285599	57,7	   0,0316452	55,5
     157,033	    0,028448	57,3	   0,0313608	57,9
     157,097	   0,0295402	55,0	   0,0322577	56,0
      157,16	    0,029492	56,1	   0,0320488	55,3
     157,224	   0,0297234	57,0	   0,0321461	57,7
     157,287	   0,0297992	56,1	   0,0329652	57,8
     157,351	   0,0305401	56,0	   0,0336583	56,6
     157,414	   0,0307779	57,2	   0,0334931	55,6
     157,478	     0,03066	56,7	   0,0335676	55,8
     157,542	   0,0310958	55,0	   0,0337839	57,3
     157,605	   0,0308556	55,8	    0,034418	58,4
     157,669	   0,0315119	54,7	   0,0347951	56,6
     157,732	   0,0317039	56,2	   0,0349265	57,2
     157,796	   0,0327288	55,8	   0,0353035	57,2
     157,859	   0,0331492	55,9	   0,0361449	58,1
     157,923	   0,0332859	55,2	   0,0364453	56,2
     157,986	    0,034004	56,2	   0,0370393	55,8
      158,05	   0,0339251	56,5	   0,0372435	57,0
     158,113	   0,0343049	56,8	   0,0374136	58,1
     158,177	   0,0341558	58,4	   0,0381876	56,2
      158,24	   0,0346182	57,0	   0,0384107	57,6
     158,304	    0,035175	57,3	   0,0391633	56,5
     158,368	   0,0362294	58,1	   0,0396145	57,4
     158,431	   0,0356924	58,5	    0,040363	57,5
     158,495	    0,036027	57,2	    0,040188	58,0
     158,558	   0,0371196	57,5	   0,0412691	57,0
     158,622	   0,0373514	57,7	   0,0414529	58,8
     158,685	   0,0377988	54,9	   0,0411733	56,1
     158,749	   0,0381102	56,6	   0,0425552	57,0
     158,812	   0,0385966	56,9	   0,0428954	56,6
     158,876	   0,0389482	56,9	   0,0433432	56,5
     158,939	   0,0393582	56,9	   0,0440208	57,6
     159,003	   0,0396608	57,3	   0,0447854	58,0
     159,066	   0,0403821	57,4	   0,0452735	56,0
      159,13	   0,0406263	55,9	   0,0462563	58,8
     159,194	   0,0410834	56,9	   0,0467841	56,3
     159,257	   0,0418742	56,9	   0,0477371	56,5
     159,321	    0,042714	57,9	   0,0480854	56,2
     159,384	   0,0431763	57,7	   0,0482526	58,2
     159,448	   0,0436275	57,7	   0,0490848	57,0
     159,511	   0,0440696	58,8	   0,0499465	55,7
     159,575	    0,044877	56,3	   0,0509577	57,6
     159,638	   0,0454864	56,3	   0,0517398	56,9
     159,702	   0,0462686	56,7	   0,0522477	57,6
     159,765	   0,0464876	56,3	   0,0532237	58,6
     159,829	   0,0475114	55,6	   0,0543507	57,4
     159,892	   0,0482651	56,9	   0,0552639	57,1
     159,956	   0,0485237	58,0	    0,055741	55,9
      160,02	   0,0493907	59,1	   0,0567245	59,6
     160,083	   0,0501385	56,3	   0,0579302	58,1
     160,147	    0,051191	56,3	   0,0590932	58,0
      160,21	   0,0520646	56,0	   0,0603262	57,0
     160,274	    0,052594	56,5	   0,0611413	57,7
     160,337	   0,0535011	55,2	   0,0623923	57,7
     160,401	   0,0541742	56,7	   0,0629014	57,4
     160,464	   0,0552629	57,9	   0,0646708	58,8
     160,528	   0,0558317	57,5	    0,065547	58,2
     160,591	   0,0570209	57,0	   0,0668209	56,6
     160,655	   0,0578428	55,7	   0,0682589	57,1
     160,718	   0,0593125	57,1	   0,0693059	57,1
     160,782	   0,0596044	57,8	   0,0713162	58,5
     160,846	   0,0603954	57,5	   0,0725335	58,4
     160,909	   0,0616776	57,8	   0,0742138	58,6
     160,973	   0,0627099	59,4	   0,0748835	58,9
     161,036	   0,0644735	57,1	   0,0775073	57,6
       161,1	    0,064781	58,1	   0,0788958	57,8
     161,163	   0,0661196	58,7	    0,080133	58,7
     161,227	   0,0672639	59,1	   0,0823536	58,5
      161,29	    0,069143	57,7	   0,0843004	56,9
     161,354	   0,0691777	56,4	    0,085889	58,1
     161,417	   0,0714079	57,4	   0,0867649	59,2
     161,481	   0,0727286	57,4	   0,0895949	59,8
     161,544	   0,0749552	57,1	   0,0916978	59,3
     161,608	     0,07574	58,3	   0,0941283	60,4
     161,672	   0,0778199	56,7	   0,0960178	58,0
     161,735	   0,0789457	59,2	   0,0982211	60,1
     161,799	   0,0808479	57,3	   0,0998995	58,7
     161,862	   0,0821299	58,5	    0,103541	59,9
     161,926	   0,0843723	57,0	    0,105691	59,4
     161,989	   0,0866295	59,6	    0,107318	61,0
     162,053	    0,088277	58,2	    0,109741	59,8
     162,116	   0,0899724	59,2	    0,112074	58,7
      162,18	   0,0920364	59,2	    0,115153	60,3
     162,243	   0,0948246	58,7	    0,118505	59,1
     162,307	   0,0961433	58,2	    0,121689	60,5
      162,37	   0,0993093	59,9	    0,123908	62,4
     162,434	     0,10186	59,8	    0,128045	60,1
     162,498	    0,103947	60,2	     0,13056	60,2
     162,561	    0,106732	60,6	    0,133663	60,9
     162,625	    0,108371	58,5	    0,136391	61,0
     162,688	    0,110953	62,2	    0,140563	62,0
     162,752	    0,114205	58,6	    0,143606	59,0
     162,815	    0,117168	59,4	    0,147083	61,0
     162,879	    0,119408	59,9	    0,150438	60,8
     162,942	    0,122825	60,0	    0,153052	63,3
     163,006	    0,125499	59,9	    0,156444	62,3
     163,069	    0,128307	61,4	    0,159665	62,1
     163,133	     0,13289	60,0	     0,16326	62,4
     163,196	    0,136263	60,6	    0,166411	62,7
      163,26	    0,138599	61,1	    0,170851	62,4
     163,324	    0,141761	60,6	    0,173505	62,7
     163,387	    0,144509	62,8	    0,177471	61,8
     163,451	    0,147769	63,6	    0,180797	62,5
     163,514	    0,151692	63,4	     0,18418	63,7
     163,578	    0,154879	61,2	    0,188093	63,4
     163,641	    0,158866	61,0	    0,190549	64,2
     163,705	    0,162322	62,0	    0,193632	63,7
     163,768	    0,165629	61,9	    0,197425	63,0
     163,832	    0,167861	62,6	    0,201122	63,3
     163,895	    0,172196	63,1	    0,204606	63,8
     163,959	    0,176044	62,5	    0,207559	66,2
     164,022	    0,180546	62,4	    0,211529	63,5
     164,086	    0,183002	62,4	    0,214911	65,0
      164,15	    0,186427	62,7	    0,217913	64,8
     164,213	    0,190538	64,9	     0,22168	64,5
     164,277	    0,194633	64,1	    0,225372	64,9
      164,34	    0,197625	63,0	    0,228109	64,6
     164,404	    0,200498	64,5	    0,231255	66,5
     164,467	    0,204221	64,3	    0,235394	65,7
     164,531	    0,207211	63,7	    0,239092	66,3
     164,594	     0,21055	66,8	    0,242471	67,6
     164,658	    0,214086	63,7	    0,244734	67,1
     164,721	    0,218332	63,8	    0,249373	66,5
     164,785	    0,221609	65,2	     0,25149	68,2
     164,848	    0,225098	64,6	    0,254656	65,8
     164,912	    0,228412	64,6	    0,257861	66,7
     164,976	    0,231798	64,7	    0,260892	68,9
     165,039	    0,235172	66,0	    0,264093	67,4
     165,103	     0,23815	66,6	    0,267888	66,5
     165,166	    0,241847	65,9	    0,269845	65,4
      165,23	    0,246035	66,2	    0,273666	66,0
     165,293	    0,249009	68,2	    0,275939	67,8
     165,357	     0,25124	68,0	    0,278999	69,0
      165,42	     0,25508	67,5	    0,281848	69,0
     165,484	    0,257916	65,7	    0,285047	67,9
     165,547	    0,260675	67,7	     0,28812	68,7
     165,611	    0,263499	66,0	    0,291293	65,9
     165,674	    0,266348	66,6	    0,293713	66,8
     165,738	    0,269878	67,4	     0,29631	68,4
     165,802	    0,273494	68,1	    0,299356	69,2
     165,865	    0,276524	67,9	    0,302406	68,8
     165,929	    0,278808	69,5	    0,304342	69,9
     165,992	    0,282654	69,1	    0,224053	-144,1
     166,056	    0,285438	69,2	    0,176148	-136,1
     166,119	    0,288734	69,2	    0,150479	-136,3
     166,183	    0,291953	70,4	    0,135414	-134,1
     166,246	    0,294798	66,2	    0,125993	-132,1
      166,31	    0,298037	68,6	     0,11972	-131,6
     166,373	    0,302253	67,4	    0,114647	-133,2
     166,437	    0,303702	65,9	     0,11179	-130,3
       166,5	     0,30648	69,6	    0,107338	-130,2
     166,564	    0,309433	71,8	    0,102983	-131,2
     166,628	    0,311792	69,9	    0,100934	-131,2
     166,691	    0,314782	70,4	   0,0956296	-129,7
     166,755	    0,317931	70,7	   0,0945318	-131,4
     166,818	    0,320554	70,6	   0,0911788	-130,5
     166,882	    0,323101	69,5	   0,0897322	-131,7
     166,945	    0,326413	69,9	   0,0872388	-130,8
     167,009	    0,329175	69,7	   0,0841002	-128,8
     167,072	     0,33215	69,8	   0,0830038	-130,2
     167,136	    0,334612	69,2	   0,0805586	-128,7
     167,199	    0,336748	71,3	   0,0797286	-129,7
     167,263	    0,340231	70,0	   0,0775633	-130,8
     167,326	    0,342265	72,3	   0,0758301	-130,1
      167,39	     0,34461	70,4	   0,0745363	-131,3
     167,454	    0,347695	71,9	   0,0735185	-130,7
     167,517	    0,349299	70,5	   0,0718863	-129,2
     167,581	     0,35297	71,1	   0,0703859	-128,8
     167,644	    0,355073	69,6	   0,0688767	-129,5
     167,708	    0,357199	73,9	   0,0677292	-128,2
     167,771	    0,360051	71,8	   0,0663661	-130,2
     167,835	    0,362649	73,1	   0,0660796	-128,8
     167,898	     0,36577	70,8	   0,0641164	-130,1
     167,962	    0,368412	70,6	   0,0640187	-129,3
     168,025	    0,370918	70,9	   0,0628434	-129,6
     168,089	    0,373417	70,6	   0,0615315	-129,0
     168,152	    0,376771	71,1	   0,0617674	-128,1
     168,216	    0,378402	71,8	   0,0598989	-128,7
      168,28	    0,381473	71,5	   0,0591093	-129,7
     168,343	    0,383492	72,1	   0,0581882	-128,7
     168,407	    0,386455	72,1	   0,0569832	-127,3
      168,47	    0,388283	71,9	   0,0560047	-128,0
     168,534	    0,391452	72,1	   0,0566332	-128,4
     168,597	    0,394125	71,0	   0,0555461	-130,7
     168,661	    0,396299	73,7	   0,0546176	-128,5
     168,724	    0,398772	73,7	   0,0537574	-129,3
     168,788	    0,401322	73,4	   0,0533427	-129,0
     168,851	    0,404253	73,3	   0,0527314	-126,0
     168,915	    0,406657	73,0	   0,0518945	-128,3
     168,979	    0,409033	74,5	   0,0515998	-128,6
     169,042	    0,411491	73,7	    0,050417	-128,0
     169,106	    0,413579	75,5	   0,0504028	-128,5
     169,169	    0,416323	73,0	   0,0490927	-128,7
     169,233	    0,418589	74,9	   0,0496512	-128,9
     169,296	    0,421398	74,7	   0,0485271	-129,4
      169,36	    0,423147	73,2	   0,0482417	-128,6
     169,423	    0,425523	75,7	   0,0475205	-129,7
     169,487	    0,427571	74,5	   0,0461686	-127,8
      169,55	    0,430622	75,0	   0,0463952	-128,3
     169,614	    0,432962	74,8	   0,0455129	-128,9
     169,677	    0,436019	75,9	   0,0458048	-129,4
     169,741	    0,437778	75,5	   0,0446385	-129,1
     169,804	    0,439781	75,1	   0,0445309	-127,4
     169,868	    0,442741	75,9	   0,0442893	-126,9
     169,932	     0,44512	74,6	   0,0441404	-126,3
     169,995	    0,447005	76,0	   0,0431736	-128,3
     170,059	    0,448432	76,8	   0,0437546	-128,5
     170,122	    0,451235	74,7	   0,0421403	-127,8
     170,186	    0,453361	74,0	    0,041478	-129,4
     170,249	    0,455916	76,1	   0,0409729	-130,1
     170,313	     0,45817	75,3	   0,0412238	-128,4
     170,376	    0,460424	75,7	   0,0405493	-128,3
      170,44	     0,46248	75,8	   0,0403707	-129,4
     170,503	    0,465225	74,8	   0,0396524	-127,7
     170,567	    0,466901	74,9	   0,0392368	-128,6
      170,63	    0,469043	75,3	   0,0391012	-128,6
     170,694	     0,47084	77,8	   0,0384389	-126,4
     170,758	    0,473732	78,5	   0,0379186	-129,1
     170,821	    0,475568	78,2	   0,0382329	-128,4
     170,885	    0,477604	76,7	   0,0376827	-128,1
     170,948	    0,479182	76,8	   0,0373176	-128,8
     171,012	    0,482288	76,1	   0,0376848	-129,1
     171,075	    0,484717	76,9	   0,0370742	-128,5
     171,139	     0,48628	75,8	   0,0363608	-127,9
     171,202	    0,487986	77,6	   0,0365783	-128,3
     171,266	    0,490789	76,5	   0,0356465	-128,7
     171,329	    0,492379	75,5	   0,0359557	-126,6
     171,393	     0,49488	78,2	   0,0354712	-127,6
     171,456	     0,49604	76,1	   0,0346752	-129,7
      171,52	    0,498268	78,3	   0,0348537	-126,8
     171,584	    0,500718	79,1	   0,0347684	-127,1
     171,647	    0,503294	76,5	   0,0345042	-129,1
     171,711	    0,505115	79,6	   0,0337925	-128,3
     171,774	    0,507086	78,8	   0,0335157	-128,0
     171,838	    0,508896	78,4	   0,0335451	-129,6
     171,901	    0,511341	79,0	   0,0323221	-129,7
     171,965	    0,512901	78,2	   0,0330071	-126,7
     172,028	    0,515509	78,7	   0,0331304	-127,8
     172,092	    0,517525	78,9	   0,0327847	-126,2
     172,155	     0,51965	76,9	   0,0324162	-127,9
     172,219	    0,521533	78,1	   0,0316288	-130,2
     172,283	    0,523881	77,8	   0,0317964	-128,2
     172,346	    0,525751	77,6	   0,0313276	-127,1
      172,41	    0,527664	78,6	   0,0313192	-128,3
     172,473	    0,529963	79,1	    0,031277	-126,6
     172,537	    0,532697	80,0	   0,0309385	-126,9
       172,6	    0,533851	76,6	   0,0308545	-127,1
     172,664	    0,536153	76,1	   0,0303626	-126,9
     172,727	    0,538068	78,2	   0,0295901	-128,8
     172,791	    0,539755	79,0	   0,0298733	-130,5
     172,854	    0,541637	78,0	   0,0303323	-125,2
     172,918	    0,544299	78,7	   0,0296742	-125,3
     172,981	     0,54569	79,3	   0,0295995	-125,3
     173,045	    0,547564	80,0	   0,0296627	-125,7
     173,109	    0,549591	78,2	   0,0291855	-129,7
     173,172	    0,551353	78,6	   0,0291932	-126,5
     173,236	     0,55384	79,8	   0,0285739	-128,4
     173,299	    0,555071	79,0	   0,0285936	-129,2
     173,363	    0,557383	78,9	   0,0285141	-128,6
     173,426	    0,559711	81,5	    0,028258	-128,2
      173,49	    0,561442	79,4	   0,0284467	-126,2
     173,553	    0,564472	79,7	   0,0281256	-129,5
     173,617	    0,565325	80,7	   0,0275223	-128,7
      173,68	    0,568509	79,7	   0,0272903	-127,5
     173,744	    0,570134	80,5	    0,027998	-126,6
     173,807	     0,57184	82,5	   0,0274586	-127,5
     173,871	    0,573646	79,5	   0,0273153	-128,5
     173,935	     0,57627	80,0	   0,0267353	-128,7
     173,998	    0,577889	80,3	   0,0272089	-127,3
     174,062	     0,57957	80,8	   0,0264683	-124,8
     174,125	    0,582194	80,1	   0,0266878	-126,7
     174,189	    0,583693	82,0	     0,02629	-124,9
     174,252	      0,5862	81,2	    0,026499	-126,2
     174,316	    0,587048	82,0	    0,025905	-128,9
     174,379	    0,589528	81,9	   0,0258944	-127,4
     174,443	     0,59174	82,7	   0,0257718	-127,6
     174,506	    0,593611	81,2	   0,0259028	-127,5
      174,57	    0,595545	81,7	   0,0254983	-127,4
     174,633	    0,597536	81,6	   0,0254528	-126,4
     174,697	    0,599432	81,4	   0,0254185	-129,5
     174,761	    0,601187	81,2	   0,0253511	-126,9
     174,824	     0,60288	81,8	   0,0249884	-126,1
     174,888	    0,605361	81,5	   0,0252591	-125,4
     174,951	      0,6073	83,4	   0,0250058	-128,1
     175,015	    0,609891	81,6	   0,0245813	-127,7
     175,078	    0,610969	80,6	   0,0246949	-128,0
     175,142	    0,613137	81,8	   0,0244738	-126,8
     175,205	     0,61488	84,8	    0,024165	-126,9
     175,269	    0,617302	82,9	   0,0239267	-127,2
     175,332	     0,61891	82,7	   0,0241982	-128,0
     175,396	    0,620753	82,3	   0,0239398	-124,8
     175,459	    0,622395	83,9	   0,0240149	-127,4
     175,523	    0,624119	84,0	   0,0237842	-130,7
     175,587	    0,626268	83,1	   0,0236711	-124,9
      175,65	    0,628363	82,6	   0,0235859	-125,8
     175,714	     0,63012	80,7	   0,0236668	-128,0
     175,777	    0,631515	84,0	   0,0232422	-128,5
     175,841	    0,633405	83,3	    0,023154	-127,5
     175,904	    0,635123	83,6	   0,0230687	-124,9
     175,968	    0,637246	80,3	   0,0227753	-127,9
     176,031	    0,639482	82,3	   0,0227798	-125,9
     176,095	     0,64095	83,6	   0,0226216	-126,7
     176,158	    0,642798	85,7	   0,0225082	-127,1
     176,222	     0,64503	84,6	   0,0224435	-127,6
     176,285	    0,647253	81,1	    0,022791	-127,1
     176,349	    0,648566	83,8	   0,0228924	-128,7
     176,413	    0,650764	83,9	    0,022289	-125,3
     176,476	    0,652182	83,2	   0,0224801	-125,0
      176,54	    0,654279	85,2	   0,0218461	-128,4
     176,603	    0,656305	83,9	   0,0223127	-127,0
     176,667	     0,65825	85,7	   0,0216983	-128,0
      176,73	    0,660366	84,0	   0,0220012	-125,5
     176,794	    0,661548	86,1	    0,021374	-126,4
     176,857	    0,664294	84,7	   0,0217753	-125,4
     176,921	    0,665474	85,4	   0,0212683	-126,4
     176,984	    0,667556	85,3	   0,0212204	-126,4
     177,048	    0,669589	85,4	   0,0215181	-126,2
     177,111	    0,671328	84,9	   0,0214613	-129,2
     177,175	    0,672961	87,5	       0,021	-129,0
     177,239	     0,67526	85,9	   0,0210926	-128,8
     177,302	    0,677167	87,0	   0,0213645	-128,5
     177,366	    0,679167	83,7	   0,0210254	-123,7
     177,429	    0,681079	84,0	   0,0207228	-130,7
     177,493	    0,682144	85,2	   0,0207318	-125,4
     177,556	     0,68448	86,1	   0,0206642	-129,0
      177,62	    0,686243	87,6	   0,0207908	-129,1
     177,683	    0,687828	83,9	   0,0203009	-126,0
     177,747	    0,690208	83,3	   0,0205571	-126,1
      177,81	    0,691586	86,1	   0,0204252	-127,8
     177,874	    0,693733	87,3	   0,0198954	-128,5
     177,937	    0,695079	86,2	    0,019944	-126,7
     178,001	     0,69721	86,3	   0,0200934	-126,1
     178,065	    0,699157	86,8	   0,0199073	-125,8
     178,128	    0,700655	84,9	   0,0198297	-127,6
     178,192	    0,702824	86,7	   0,0197001	-128,3
     178,255	    0,704252	86,3	   0,0199393	-126,0
     178,319	    0,706094	86,8	   0,0197132	-126,0
     178,382	    0,708316	86,8	   0,0194453	-128,7
     178,446	    0,709744	84,9	   0,0193906	-129,5
     178,509	    0,712105	86,1	   0,0193347	-126,7
     178,573	    0,713604	87,3	   0,0194957	-126,3
     178,636	    0,715173	88,4	   0,0194568	-127,3
       178,7	    0,717192	87,6	   0,0192564	-125,7
     178,763	    0,718899	85,6	   0,0188555	-126,3
     178,827	    0,720766	86,2	   0,0191298	-127,9
     178,891	    0,722217	88,4	   0,0190846	-126,1
     178,954	    0,723861	85,8	   0,0189095	-126,3
     179,018	     0,72599	87,0	   0,0185922	-127,8
     179,081	    0,727578	88,6	   0,0187842	-127,1
     179,145	    0,729206	89,5	   0,0188736	-126,7
     179,208	    0,730804	87,7	   0,0186805	-128,1
     179,272	    0,732888	87,9	   0,0190429	-126,2
     179,335	    0,734974	87,6	   0,0186781	-126,7
     179,399	    0,736418	85,9	    0,018748	-125,8
     179,462	    0,737976	87,2	    0,018702	-128,3
     179,526	    0,740303	88,7	   0,0182942	-125,2
     179,589	    0,741872	87,4	   0,0184622	-127,0
     179,653	    0,743557	88,0	   0,0185255	-126,9
     179,717	    0,745388	88,7	   0,0182582	-127,0
      179,78	     0,74691	88,4	    0,018329	-130,5
     179,844	    0,748679	87,9	   0,0181754	-125,9
     179,907	    0,750546	88,8	   0,0185124	-125,6
     179,971	    0,751779	89,9	   0,0182638	-126,2
     180,034	     0,75386	87,0	   0,0180103	-128,8
     180,098	    0,755709	87,8	    0,017914	-126,8
     180,161	    0,757216	90,0	   0,0179509	-127,5
     180,225	    0,758423	89,9	   0,0178291	-128,9
     180,288	    0,761057	88,5	   0,0179566	-128,8
     180,352	     0,76241	87,6	   0,0177126	-128,0
     180,415	    0,764104	88,9	   0,0177867	-124,6
     180,479	    0,765526	90,7	   0,0179485	-128,1
     180,543	    0,767286	89,6	   0,0177854	-128,2
     180,606	    0,768736	89,7	   0,0173158	-126,6
      180,67	    0,770359	88,5	   0,0174776	-129,0
     180,733	    0,771992	92,2	   0,0177095	-127,2
     180,797	     0,77422	89,9	   0,0171851	-127,8
      180,86	    0,775283	89,1	   0,0175111	-126,3
     180,924	    0,777622	89,2	    0,017305	-129,0
     180,987	    0,778806	90,2	   0,0169445	-126,2
     181,051	    0,780805	91,0	   0,0173844	-127,2
     181,114	    0,782298	89,5	   0,0168962	-129,9
     181,178	    0,783841	89,6	   0,0171516	-128,5
     181,241	    0,786206	90,0	   0,0172045	-126,7
     181,305	    0,788014	91,0	   0,0169243	-128,5
     181,369	    0,789475	90,0	   0,0169709	-128,3
     181,432	    0,791097	90,8	   0,0174048	-126,9
     181,496	    0,792892	86,2	   0,0170737	-128,5
     181,559	    0,794584	89,0	   0,0166923	-126,2
     181,623	    0,795652	90,7	    0,016961	-127,1
     181,686	    0,797719	90,6	   0,0169512	-126,4
      181,75	    0,800269	90,4	   0,0168669	-127,9
     181,813	    0,801616	89,7	     0,01657	-128,5
     181,877	    0,803582	91,1	   0,0166093	-128,3
      181,94	    0,805001	89,5	   0,0166926	-128,6
     182,004	    0,806983	90,6	   0,0166633	-127,6
     182,067	    0,808544	90,8	   0,0161625	-126,5
     182,131	    0,809886	89,3	   0,0162435	-127,3
     182,195	    0,811592	90,0	    0,016487	-129,1
     182,258	    0,813708	91,4	   0,0164046	-125,5
     182,322	    0,815653	91,2	   0,0163988	-124,5
     182,385	    0,817279	89,3	   0,0161695	-128,8
     182,449	     0,81953	89,7	   0,0161301	-127,1
     182,512	    0,820141	89,4	      0,0162	-128,5
     182,576	    0,821648	90,2	   0,0161018	-125,2
     182,639	    0,823424	90,6	   0,0162624	-123,2
     182,703	    0,825221	91,3	   0,0160571	-127,1
     182,766	    0,827089	90,7	    0,015982	-127,5
      182,83	    0,828483	91,1	   0,0158549	-124,6
     182,893	    0,830328	88,6	   0,0161679	-128,5
     182,957	    0,832025	92,3	    0,015719	-129,8
     183,021	    0,833866	92,5	   0,0156493	-127,6
     183,084	    0,836341	91,6	   0,0156235	-124,5
     183,148	    0,838162	89,3	   0,0160802	-126,7
     183,211	    0,838739	93,0	   0,0155898	-123,6
     183,275	    0,840679	91,3	   0,0156573	-127,5
     183,338	    0,842804	91,5	   0,0157405	-126,2
     183,402	    0,844053	93,8	   0,0156455	-129,2
     183,465	    0,845596	92,1	   0,0154524	-127,4
     183,529	    0,847362	90,7	     0,01557	-129,5
     183,592	    0,849429	91,8	   0,0155848	-127,9
     183,656	    0,850575	91,9	   0,0154049	-127,7
     183,719	    0,852713	92,4	   0,0156162	-127,1
     183,783	    0,854025	94,3	     0,01541	-125,8
     183,847	    0,856056	92,6	   0,0154618	-126,7
      183,91	    0,857426	92,3	   0,0154682	-127,8
     183,974	    0,858859	94,4	    0,015655	-126,9
     184,037	    0,860563	94,3	   0,0152897	-124,7
     184,101	    0,862224	94,1	   0,0152283	-125,6
     184,164	    0,864473	91,2	   0,0151629	-127,5
     184,228	    0,865409	93,0	   0,0150441	-127,7
     184,291	    0,867119	92,7	   0,0152844	-125,0
     184,355	     0,86915	92,3	   0,0151417	-128,4
     184,418	     0,87086	92,7	   0,0152754	-127,5
     184,482	    0,872482	94,0	   0,0149552	-126,5
     184,545	    0,874489	90,0	   0,0151096	-125,9
     184,609	     0,87554	94,5	   0,0152406	-127,7
     184,673	      0,8774	94,0	   0,0146632	-125,2
     184,736	    0,879372	92,4	   0,0148154	-126,6
       184,8	    0,880657	94,7	   0,0148344	-128,1
     184,863	    0,882176	92,7	   0,0148251	-128,4
     184,927	    0,884101	93,2	    0,014847	-128,8
      184,99	    0,885391	92,2	   0,0148216	-129,1
     185,054	    0,887132	93,7	   0,0148899	-127,0
     185,117	    0,889174	95,2	   0,0149563	-128,1
     185,181	     0,89099	93,1	   0,0149077	-124,7
     185,244	    0,892578	94,7	   0,0146308	-130,7
     185,308	    0,894407	91,8	   0,0146228	-126,3
     185,371	    0,895963	92,4	   0,0144691	-128,7
     185,435	    0,897477	93,5	   0,0144926	-129,2
     185,499	    0,898799	93,9	   0,0144019	-126,4
     185,562	     0,90079	96,0	   0,0145118	-128,7
     185,626	    0,902409	94,2	   0,0144713	-126,4
     185,689	    0,903985	92,7	   0,0146127	-125,8
     185,753	     0,90569	95,2	   0,0146654	-128,8
     185,816	    0,907842	95,1	   0,0144699	-124,3
      185,88	    0,909439	94,6	   0,0144072	-126,2
     185,943	     0,91068	94,6	   0,0143688	-124,0
     186,007	    0,912705	93,8	   0,0144938	-129,2
      186,07	    0,913709	94,8	   0,0142986	-125,7
     186,134	     0,91555	93,4	   0,0145894	-126,2
     186,197	    0,917106	95,4	   0,0140513	-126,8
     186,261	    0,919318	94,2	   0,0142348	-126,7
     186,325	    0,920797	94,3	   0,0141349	-128,8
     186,388	    0,921702	96,6	   0,0140969	-125,6
     186,452	    0,923297	93,9	   0,0143606	-126,4
     186,515	    0,925477	96,2	   0,0141754	-125,8
     186,579	    0,927338	92,2	   0,0140296	-125,1
     186,642	    0,928457	95,2	   0,0141895	-126,6
     186,706	    0,929784	96,6	   0,0139589	-126,8
     186,769	     0,93203	94,2	     0,01413	-126,7
     186,833	    0,933394	94,8	   0,0140927	-126,9
     186,896	    0,935228	95,3	   0,0142496	-130,0
      186,96	     0,93651	96,5	   0,0142137	-127,0
     187,023	    0,937776	97,3	   0,0137576	-126,0
     187,087	    0,939726	94,6	   0,0140272	-127,5
     187,151	    0,941585	95,3	   0,0136309	-126,7
     187,214	    0,943426	93,4	   0,0139053	-127,8
     187,278	    0,944568	97,8	   0,0138354	-125,7
     187,341	    0,946387	97,0	   0,0137783	-126,0
     187,405	    0,948166	95,2	   0,0135085	-126,1
     187,468	    0,949639	96,2	   0,0135533	-124,7
     187,532	    0,951695	95,4	   0,0136643	-127,8
     187,595	    0,952599	97,4	   0,0136686	-127,1
     187,659	    0,954927	94,0	   0,0135757	-127,6
     187,722	    0,956354	95,0	   0,0138065	-126,7
     187,786	    0,958086	94,9	   0,0135682	-129,3
     187,849	    0,960117	94,3	   0,0136753	-128,2
     187,913	    0,960973	97,6	   0,0135707	-125,0
     187,977	    0,963197	96,2	   0,0136244	-127,0
      188,04	    0,964562	97,2	   0,0134712	-126,9
     188,104	    0,966845	95,2	   0,0134888	-128,0
     188,167	    0,967896	98,4	   0,0136641	-127,8
     188,231	    0,969445	95,9	   0,0133911	-126,1
     188,294	    0,971265	95,9	   0,0133726	-125,7
     188,358	    0,973173	95,7	    0,013151	-124,1
     188,421	    0,974263	94,9	   0,0135376	-129,0
     188,485	    0,976308	96,7	   0,0133955	-127,7
     188,548	    0,977811	98,5	   0,0134449	-128,8
     188,612	    0,979572	96,0	   0,0134943	-126,1
     188,675	    0,981016	95,4	   0,0130568	-125,6
     188,739	    0,983128	97,5	   0,0136712	-126,6
     188,803	    0,984866	97,1	   0,0133805	-128,9
     188,866	    0,986372	97,9	   0,0131431	-124,5
      188,93	    0,987832	97,4	   0,0130656	-127,5
     188,993	    0,988719	97,8	    0,013418	-128,3
     189,057	    0,991492	96,9	    0,013108	-127,1
      189,12	     0,99202	96,3	   0,0132618	-128,8
     189,184	    0,995281	95,7	    0,013121	-128,4
     189,247	    0,996227	96,7	   0,0132544	-131,3
     189,311	    0,998112	99,7	   0,0129707	-126,9
     189,374	     1,00001	96,4	   0,0131348	-125,7
     189,438	     1,00167	98,5	   0,0132069	-127,2
     189,501	     1,00308	98,4	   0,0127208	-125,3
     189,565	     1,00477	98,6	   0,0132257	-129,0
     189,629	     1,00571	100,6	   0,0127116	-126,0
     189,692	     1,00819	97,7	    0,012717	-126,2
     189,756	     1,00934	98,2	   0,0132074	-129,1
     189,819	     1,01098	98,7	   0,0132968	-127,5
     189,883	     1,01196	100,2	   0,0128617	-124,7
     189,946	     1,01515	97,9	   0,0126862	-125,3
      190,01	     1,01693	96,0	   0,0125347	-126,6
     190,073	     1,01716	95,6	   0,0131504	-128,1
     190,137	     1,01876	98,8	   0,0127785	-123,8
       190,2	     1,02116	97,3	   0,0126522	-125,7
     190,264	     1,02357	96,2	   0,0128168	-127,2
     190,327	     1,02327	98,8	   0,0126322	-131,4
     190,391	      1,0258	98,6	   0,0125312	-127,4
     190,455	     1,02689	100,1	   0,0124209	-126,9
     190,518	     1,02865	97,6	     0,01257	-127,9
     190,582	     1,03079	97,8	   0,0127071	-128,8
     190,645	     1,03168	97,9	   0,0128004	-129,4
     190,709	      1,0344	96,5	   0,0123981	-127,9
     190,772	     1,03605	98,4	    0,012394	-127,6
     190,836	     1,03785	99,5	   0,0123936	-125,5
     190,899	       1,039	97,9	   0,0124887	-127,5
     190,963	     1,04078	96,3	   0,0127751	-125,5
     191,026	     1,04218	99,8	   0,0126704	-125,1
      191,09	     1,04319	103,3	   0,0129319	-125,7
     191,153	     1,04523	99,9	   0,0127355	-127,2
     191,217	     1,04721	99,9	     0,01282	-128,4
     191,281	     1,04891	98,1	   0,0123039	-127,2
     191,344	     1,04968	101,3	    0,012639	-127,0
     191,408	     1,05224	99,2	   0,0124669	-126,8
     191,471	     1,05425	98,3	   0,0122827	-127,1
     191,535	     1,05567	100,7	   0,0125979	-124,1
     191,598	     1,05692	100,0	   0,0126692	-129,5
     191,662	     1,05851	99,0	   0,0125556	-125,3
     191,725	     1,05967	101,5	   0,0125954	-127,7
     191,789	     1,06221	99,7	     0,01251	-128,7
     191,852	     1,06374	99,7	   0,0124777	-129,6
     191,916	     1,06543	100,6	   0,0120782	-126,0
     191,979	     1,06776	99,1	   0,0124389	-126,8
     192,043	     1,06885	98,7	   0,0123934	-126,6
     192,107	     1,07053	99,5	   0,0122842	-125,2
      192,17	     1,07172	100,3	   0,0120148	-127,5
     192,234	     1,07378	99,8	   0,0124552	-128,7
     192,297	      1,0757	99,4	   0,0126071	-127,2
     192,361	     1,07746	99,8	   0,0124052	-127,3
     192,424	     1,07934	100,5	     0,01202	-125,9
     192,488	     1,08077	101,5	   0,0123483	-123,0
     192,551	     1,08243	100,4	   0,0120304	-129,4
     192,615	     1,08403	101,1	   0,0121195	-128,7
     192,678	     1,08612	100,5	   0,0123515	-128,8
     192,742	     1,08794	100,7	   0,0123005	-127,2
     192,805	     1,08976	100,6	   0,0120203	-125,9
     192,869	     1,09122	99,6	    0,012482	-126,1
     192,933	     1,09288	100,1	   0,0125395	-126,5
     192,996	     1,09479	100,8	   0,0120888	-125,4
      193,06	     1,09638	100,2	   0,0118462	-125,6
     193,123	     1,09777	102,0	   0,0119385	-129,7
     193,187	     1,09981	101,0	   0,0119989	-125,9
      193,25	     1,10141	100,5	   0,0123915	-130,0
     193,314	     1,10273	102,3	   0,0120231	-127,4
     193,377	     1,10449	100,4	   0,0118228	-128,7
     193,441	     1,10621	102,2	   0,0118087	-127,3
     193,504	     1,10867	101,3	   0,0122361	-127,2
     193,568	     1,10963	103,0	    0,011871	-128,5
     193,631	     1,11143	100,3	   0,0118281	-125,2
     193,695	      1,1125	104,8	   0,0116692	-127,0
     193,759	     1,11465	101,7	   0,0121377	-127,7
     193,822	     1,11657	101,3	   0,0115161	-124,9
     193,886	      1,1174	102,8	   0,0122046	-127,4
     193,949	     1,11897	104,3	    0,011787	-126,3
     194,013	     1,12058	102,7	   0,0119984	-126,7
     194,076	     1,12142	105,0	   0,0119053	-127,9
      194,14	     1,12274	106,2	   0,0117136	-126,4
     194,203	     1,12395	106,6	   0,0119062	-127,9
     194,267	     1,12457	108,7	   0,0121991	-129,0
      194,33	     1,12456	108,4	   0,0118547	-127,7
     194,394	     1,12626	112,4	   0,0117706	-127,4
     194,457	     1,12639	112,8	    0,011922	-125,9
     194,521	     1,12734	113,7	   0,0116329	-123,6
     194,585	     1,12823	114,6	   0,0115704	-128,2
     194,648	     1,12824	115,8	    0,012032	-127,7
     194,712	     1,13039	113,9	   0,0117739	-127,2
     194,775	     1,13123	114,6	   0,0116615	-127,6
     194,839	     1,13342	113,9	   0,0118884	-125,4
     194,902	     1,13654	114,3	    0,011831	-125,5
     194,966	     1,14048	114,7	   0,0116541	-125,6
     195,029	     1,14307	116,2	   0,0115396	-124,6
     195,093	     1,14383	120,0	   0,0115358	-125,6
     195,156	      1,1449	122,2	   0,0119327	-125,6
      195,22	     1,14634	123,8	   0,0118668	-126,0
     195,283	     1,14799	124,0	   0,0119396	-127,6
     195,347	     1,15059	123,4	   0,0115335	-126,0
     195,411	     1,15287	119,5	   0,0115347	-127,3
     195,474	     1,15522	116,5	   0,0115374	-128,5
     195,538	     1,15757	113,6	   0,0114249	-126,8
     195,601	     1,15903	115,0	   0,0117837	-126,6
     195,665	     1,16115	113,8	   0,0118353	-125,6
     195,728	     1,16434	113,6	   0,0121483	-127,7
     195,792	     1,16554	110,7	   0,0115194	-127,2
     195,855	     1,16744	110,8	   0,0112947	-127,1
     195,919	     1,16868	109,5	   0,0117513	-127,8
     195,982	     1,17132	108,2	   0,0111401	-127,0
     196,046	     1,17275	110,7	   0,0116238	-126,1
     196,109	     1,17493	107,1	   0,0115007	-126,2
     196,173	     1,17609	110,0	   0,0114267	-127,2
     196,237	     1,17769	108,2	   0,0116573	-129,4
       196,3	      1,1798	109,3	    0,011339	-127,7
     196,364	     1,18152	107,0	   0,0114966	-124,3
     196,427	     1,18316	109,6	   0,0116966	-124,3
     196,491	     1,18457	107,9	   0,0111692	-125,3
     196,554	     1,18671	109,9	   0,0113278	-125,7
     196,618	     1,18874	106,2	   0,0115308	-126,6
     196,681	      1,1904	109,0	   0,0113332	-126,7
     196,745	     1,19131	111,8	   0,0113366	-127,8
     196,808	     1,19331	105,5	   0,0117281	-129,9
     196,872	     1,19526	108,4	    0,011658	-127,4
     196,935	     1,19711	106,1	   0,0112285	-124,3
     196,999	     1,19869	109,2	   0,0112357	-128,2
     197,063	     1,20056	107,8	   0,0117831	-123,7
     197,126	     1,20196	107,1	   0,0113814	-128,0
      197,19	     1,20375	104,8	   0,0116818	-130,7
     197,253	     1,20509	107,2	   0,0114569	-124,7
     197,317	     1,20667	106,0	   0,0111864	-120,6
      197,38	      1,2083	106,4	   0,0111176	-124,9
     197,444	     1,20995	109,3	   0,0108052	-123,1
     197,507	     1,21158	109,3	   0,0114227	-124,9
     197,571	     1,21305	108,5	   0,0114477	-130,0
     197,634	     1,21483	107,6	   0,0115365	-126,0
     197,698	     1,21643	108,4	   0,0113773	-126,8
     197,761	     1,21808	106,4	   0,0115856	-128,1
     197,825	     1,21975	106,8	   0,0112309	-126,5
     197,889	     1,22078	108,0	   0,0115199	-126,6
     197,952	       1,223	106,8	   0,0114216	-124,6
     198,016	     1,22502	106,5	   0,0112125	-127,4
     198,079	     1,22605	106,1	    0,011004	-126,6
     198,143	     1,22801	106,7	   0,0112496	-127,3
     198,206	     1,22946	106,8	   0,0111557	-126,2
      198,27	     1,23104	107,0	    0,011058	-125,8
     198,333	     1,23319	106,7	   0,0110872	-126,4
     198,397	     1,23462	107,8	   0,0111132	-125,3
      198,46	     1,23681	104,9	   0,0113936	-124,5
     198,524	     1,23794	108,6	    0,011328	-131,1
     198,587	     1,23979	106,7	   0,0111519	-125,8
     198,651	     1,24155	108,6	   0,0112031	-124,1
     198,715	     1,24324	108,1	   0,0112501	-124,5
     198,778	     1,24524	107,8	   0,0110823	-126,6
     198,842	       1,247	105,3	   0,0111131	-126,9
     198,905	       1,248	108,4	   0,0112419	-130,1
     198,969	     1,25042	106,5	    0,011207	-126,5
     199,032	     1,25258	105,2	   0,0108529	-128,8
     199,096	     1,25261	106,7	   0,0112012	-127,5
     199,159	     1,25517	108,4	   0,0109587	-126,1
     199,223	     1,25661	109,2	   0,0112122	-129,2
     199,286	     1,25806	109,8	   0,0117442	-125,4
      199,35	     1,25987	107,4	   0,0109512	-127,2
     199,413	     1,26184	107,5	   0,0109557	-129,6
     199,477	     1,26362	104,8	   0,0115017	-127,4
     199,541	     1,26531	105,1	   0,0109924	-125,3
     199,604	     1,26627	110,1	   0,0109799	-122,8
     199,668	     1,26798	104,9	   0,0114177	-124,8
     199,731	     1,27006	106,6	   0,0110868	-126,0
     199,795	     1,27195	106,2	   0,0110535	-129,5
     199,858	      1,2736	105,1	   0,0112934	-125,7
     199,922	     1,27518	107,6	   0,0113121	-128,9
     199,985	     1,27698	105,1	   0,0114517	-125,6
     200,049	     1,27879	103,9	   0,0113279	-128,2
     200,112	     1,28006	107,3	   0,0108695	-128,7
     200,176	     1,28133	107,8	   0,0108834	-126,8
     200,239	     1,28333	106,5	   0,0109944	-130,1
     200,303	     1,28407	106,5	   0,0108591	-125,2
     200,367	     1,28639	108,1	   0,0108297	-124,6
      200,43	      1,2876	108,2	   0,0109954	-124,5
     200,494	     1,28981	107,0	   0,0110753	-123,9
     200,557	     1,29112	107,0	   0,0106847	-126,1
     200,621	     1,29333	108,1	   0,0110968	-127,9
     200,684	     1,29546	105,1	   0,0106575	-126,4
     200,748	     1,29694	103,9	   0,0106718	-125,6
     200,811	     1,29864	105,3	   0,0107855	-126,5
     200,875	     1,29993	107,5	   0,0108047	-125,5
     200,938	     1,30144	106,9	   0,0106438	-126,1
     201,002	     1,30308	108,3	   0,0111527	-125,4
     201,065	     1,30534	106,1	   0,0113837	-126,0
     201,129	     1,30685	107,6	       0,011	-127,4
     201,193	     1,30801	106,7	   0,0105796	-125,9
     201,256	     1,31003	107,8	   0,0106759	-126,1
      201,32	     1,31169	105,4	   0,0109676	-123,3
     201,383	      1,3134	109,0	    0,010783	-123,4
     201,447	     1,31487	108,3	   0,0109338	-127,6
      201,51	      1,3165	108,5	   0,0109091	-124,1
     201,574	     1,31813	104,3	   0,0111322	-124,1
     201,637	     1,32025	108,0	   0,0107199	-128,9
     201,701	     1,32196	105,8	   0,0111721	-126,7
     201,764	     1,32372	106,5	   0,0103689	-126,7
     201,828	     1,32519	109,0	   0,0110172	-127,6
     201,891	     1,32746	106,3	   0,0110416	-124,4
     201,955	     1,32889	106,4	   0,0107044	-127,6
     202,019	     1,33053	109,1	   0,0108002	-124,4
     202,082	     1,33181	111,8	   0,0109573	-127,5
     202,146	     1,33381	105,1	    0,011136	-126,8
     202,209	     1,33515	108,4	    0,010616	-124,3
     202,273	     1,33732	106,8	   0,0108633	-124,3
     202,336	      1,3391	105,6	   0,0101773	-127,3
       202,4	       1,341	105,6	    0,010872	-129,4
     202,463	     1,34167	107,5	     0,01071	-126,9
     202,527	     1,34326	108,5	   0,0104656	-124,1
      202,59	     1,34487	108,9	   0,0107083	-126,3
     202,654	     1,34742	105,4	     0,01101	-127,5
     202,717	      1,3493	105,5	   0,0108789	-125,8
     202,781	     1,35077	107,4	   0,0108742	-124,9
     202,845	     1,35181	106,7	   0,0109048	-126,1
     202,908	     1,35289	110,5	   0,0108519	-129,0
     202,972	     1,35548	107,6	   0,0104636	-128,2
     203,035	     1,35699	106,7	   0,0104942	-125,8
     203,099	     1,35865	107,6	   0,0108169	-127,6
     203,162	      1,3611	107,3	   0,0111816	-127,5
     203,226	     1,36209	106,9	   0,0103147	-129,2
     203,289	     1,36469	106,2	   0,0105419	-127,3
     203,353	     1,36547	104,8	    0,010997	-127,7
     203,416	     1,36721	108,3	   0,0107195	-124,9
      203,48	     1,36889	109,3	   0,0103153	-123,7
     203,544	     1,37033	108,4	   0,0106793	-128,1
     203,607	      1,3734	105,7	   0,0106754	-128,0
     203,671	     1,37508	103,7	   0,0104565	-126,4
     203,734	     1,37635	108,6	    0,011124	-130,9
     203,798	     1,37747	106,8	   0,0104326	-125,5
     203,861	     1,37941	105,2	   0,0108409	-127,7
     203,925	     1,38028	107,3	    0,010534	-129,9
     203,988	     1,38233	108,1	   0,0104115	-123,8
     204,052	     1,38508	104,9	   0,0107157	-130,5
     204,115	     1,38598	110,2	     0,01043	-125,5
     204,179	     1,38743	110,8	     0,01068	-131,1
     204,242	     1,38975	109,5	    0,010627	-128,5
     204,306	     1,39228	106,4	   0,0104291	-126,5
      204,37	     1,39415	105,7	   0,0107772	-127,8
     204,433	     1,39504	107,9	   0,0108093	-123,9
     204,497	     1,39731	110,0	   0,0107462	-123,7
      204,56	     1,39876	105,8	   0,0103654	-125,6
     204,624	     1,40025	109,1	   0,0104149	-128,5
     204,687	     1,40262	107,6	   0,0109513	-127,6
     204,751	     1,40361	107,7	   0,0104632	-129,0
     204,814	     1,40593	107,2	   0,0105386	-125,5
     204,878	      1,4081	105,0	   0,0108783	-128,6
     204,941	     1,40934	107,3	   0,0110343	-126,4
     205,005	     1,41101	106,5	   0,0104041	-126,8
     205,068	     1,41263	110,9	   0,0107794	-127,6
     205,132	     1,41486	107,5	   0,0104005	-128,8
     205,196	     1,41639	108,5	   0,0105746	-125,2
     205,259	     1,41837	106,6	   0,0104527	-127,3
     205,323	     1,42046	102,3	   0,0103584	-127,0
     205,386	     1,42106	107,6	   0,0110386	-126,6
      205,45	     1,42232	109,8	   0,0104073	-130,4
     205,513	     1,42522	108,2	   0,0108851	-127,9
     205,577	       1,427	107,1	   0,0109055	-126,7
      205,64	     1,42863	107,4	     0,01041	-127,3
     205,704	     1,43033	109,0	   0,0107212	-126,5
     205,767	     1,43214	105,9	   0,0108704	-123,6
     205,831	     1,43367	105,3	   0,0105642	-130,7
     205,894	     1,43557	107,0	   0,0101199	-128,5
     205,958	       1,437	108,0	   0,0104143	-127,6
     206,021	     1,43894	106,4	   0,0110945	-126,3
     206,085	     1,44062	107,4	     0,01077	-125,1
     206,149	     1,44197	106,3	   0,0109513	-122,6
     206,212	     1,44459	103,6	   0,0107708	-125,4
     206,276	     1,44597	107,5	   0,0102809	-127,3
     206,339	     1,44718	105,6	    0,011035	-125,4
     206,403	     1,44891	106,8	   0,0102523	-127,6
     206,466	     1,45143	104,4	   0,0108081	-125,9
      206,53	     1,45241	105,6	   0,0107904	-122,3
     206,593	     1,45415	104,6	   0,0105433	-129,2
     206,657	     1,45578	105,9	   0,0104609	-125,3
      206,72	     1,45811	105,2	   0,0106123	-127,7
     206,784	     1,45984	104,4	   0,0107593	-123,9
     206,848	     1,46158	102,3	   0,0106486	-129,1
     206,911	      1,4638	103,8	   0,0105108	-128,5
     206,975	     1,46537	101,5	   0,0109686	-126,6
     207,038	     1,46657	103,6	   0,0108438	-124,8
     207,102	     1,46848	106,0	   0,0103377	-126,5
     207,165	     1,47083	104,4	   0,0106863	-123,4
     207,229	      1,4723	102,3	   0,0105071	-125,3
     207,292	     1,47322	108,2	   0,0105116	-124,8
     207,356	     1,47549	104,5	   0,0107776	-126,5
     207,419	     1,47786	106,9	   0,0106114	-126,1
     207,483	     1,47993	105,8	   0,0103748	-126,3
     207,546	     1,48157	103,2	   0,0104798	-127,4
      207,61	     1,48289	105,1	   0,0105256	-127,3
     207,674	     1,48392	105,1	   0,0105621	-127,3
     207,737	     1,48731	100,9	   0,0105013	-128,1
     207,801	     1,48833	108,4	   0,0105232	-128,4
     207,864	     1,48995	106,0	   0,0105382	-125,8
     207,928	     1,49256	103,5	    0,010695	-127,4
     207,991	     1,49454	104,6	  0,00990217	-125,5
     208,055	     1,49606	104,4	   0,0104925	-128,1
     208,118	     1,49793	103,8	   0,0102514	-131,0
     208,182	     1,49878	106,5	   0,0104671	-128,9
     208,245	     1,50107	105,0	   0,0104575	-127,7
     208,309	     1,50326	104,2	   0,0107239	-123,4
     208,372	     1,50519	104,6	   0,0107212	-126,4
     208,436	     1,50685	106,5	   0,0107127	-127,5
       208,5	     1,50809	107,7	    0,010119	-126,3
     208,563	     1,51108	105,0	   0,0111949	-127,5
     208,627	     1,51204	106,1	   0,0107204	-127,0
      208,69	     1,51422	107,6	   0,0105827	-125,6
     208,754	     1,51612	104,2	   0,0106317	-123,9
     208,817	     1,51732	106,3	   0,0104968	-128,1
     208,881	     1,51916	107,4	   0,0106531	-126,2
     208,944	     1,52119	108,0	   0,0110055	-127,9
     209,008	     1,52302	105,7	   0,0101198	-127,4
     209,071	     1,52548	105,9	   0,0104752	-127,7
     209,135	     1,52642	105,3	   0,0106901	-127,4
     209,198	     1,52773	106,2	    0,010438	-125,4
     209,262	     1,52977	106,0	   0,0105727	-128,0
     209,326	     1,53178	107,3	    0,010869	-125,5
     209,389	     1,53381	104,6	   0,0102808	-127,0
     209,453	     1,53567	103,7	   0,0105244	-129,2
     209,516	      1,5373	108,6	   0,0105821	-125,1
      209,58	     1,53999	104,3	   0,0106553	-126,9
     209,643	     1,54169	104,6	   0,0104943	-128,0
     209,707	     1,54369	104,9	   0,0106881	-124,3
      209,77	     1,54608	104,9	   0,0104334	-127,3
     209,834	     1,54705	106,4	    0,010517	-127,0
     209,897	     1,54919	104,9	    0,010714	-127,6
     209,961	     1,55076	110,7	   0,0101535	-128,7
     210,024	     1,55271	104,7	   0,0109234	-131,3
     210,088	     1,55477	104,0	   0,0104785	-125,9
     210,152	     1,55669	105,6	   0,0104099	-127,6
     210,215	     1,55827	103,5	   0,0107165	-124,7
     210,279	     1,55998	107,8	   0,0107395	-125,3
     210,342	     1,56204	106,7	   0,0108262	-126,4
     210,406	     1,56328	112,8	   0,0107221	-125,7
     210,469	     1,56533	105,7	   0,0108577	-125,0
     210,533	     1,56706	104,3	   0,0108273	-127,1
     210,596	      1,5688	105,5	   0,0105202	-128,0
      210,66	     1,56986	110,1	   0,0107473	-126,5
     210,723	     1,57145	104,6	   0,0106715	-127,4
     210,787	     1,57406	107,6	   0,0108731	-124,4
      210,85	     1,57571	103,8	   0,0102508	-126,0
     210,914	     1,57762	103,9	   0,0106393	-127,6
     210,978	     1,57911	104,3	     0,01059	-127,8
     211,041	     1,58008	109,8	   0,0105974	-128,8
     211,105	     1,58405	112,2	   0,0103803	-129,5
     211,168	      1,5862	101,3	   0,0105569	-124,0
     211,232	     1,58675	106,4	   0,0105758	-125,1
     211,295	     1,58933	100,3	   0,0106077	-127,2
     211,359	     1,59209	95,4	   0,0102076	-126,2
     211,422	     1,58913	113,5	   0,0108522	-123,3
     211,486	   0,0107232	-123,5	    0,010385	-128,6
     211,549	   0,0105645	-123,5	   0,0102916	-126,7
     211,613	   0,0104064	-124,7	   0,0109207	-126,9
     211,676	    0,010606	-126,8	   0,0105106	-130,5
      211,74	   0,0108524	-126,3	   0,0107017	-126,7
     211,804	   0,0105342	-124,0	   0,0105813	-126,9
     211,867	    0,010868	-124,6	    0,010552	-126,1
     211,931	   0,0104486	-127,4	    0,010497	-123,8
     211,994	   0,0108228	-121,6	    0,010892	-128,3
     212,058	    0,010279	-126,1	   0,0110021	-127,4
     212,121	   0,0108597	-126,1	     0,01019	-125,3
     212,185	   0,0104974	-125,0	   0,0108924	-126,2
     212,248	   0,0106755	-122,7	   0,0109239	-125,6
     212,312	   0,0108222	-125,0	   0,0107841	-126,7
     212,375	   0,0103891	-126,9	    0,010504	-127,9
     212,439	   0,0106767	-128,0	   0,0111022	-125,1
     212,502	   0,0106752	-126,6	   0,0107326	-123,6
     212,566	   0,0103179	-124,6	   0,0103724	-125,2
      212,63	   0,0106886	-122,6	   0,0106391	-128,8
     212,693	   0,0108671	-127,5	   0,0106189	-123,0
     212,757	   0,0105577	-124,2	   0,0104657	-129,3
      212,82	   0,0105567	-124,0	   0,0105353	-130,3
     212,884	   0,0105665	-126,2	   0,0109679	-127,0
     212,947	   0,0110163	-124,7	   0,0112762	-126,8
     213,011	   0,0107189	-124,5	   0,0108736	-128,6
     213,074	   0,0105093	-127,0	   0,0105608	-127,2
     213,138	   0,0104665	-130,4	   0,0105438	-128,0
     213,201	   0,0103768	-130,2	   0,0108511	-127,8
     213,265	   0,0104861	-123,1	   0,0109357	-125,3
     213,328	   0,0105443	-128,7	   0,0106828	-127,4
     213,392	   0,0106263	-126,3	   0,0108553	-124,1
     213,456	   0,0106965	-126,1	   0,0108817	-125,9
     213,519	   0,0103469	-124,6	   0,0106453	-127,1
     213,583	   0,0106462	-128,2	   0,0106646	-127,8
     213,646	   0,0108223	-127,0	   0,0106966	-127,6
      213,71	   0,0107837	-127,1	   0,0106628	-126,9
     213,773	   0,0106573	-124,2	   0,0106196	-129,1
     213,837	   0,0109097	-124,6	   0,0110247	-126,3
       213,9	   0,0106474	-123,6	   0,0107197	-126,9
     213,964	   0,0105957	-126,8	   0,0101371	-128,6
     214,027	   0,0105758	-123,0	   0,0105968	-125,0
     214,091	   0,0108016	-125,3	   0,0106007	-129,3
     214,154	   0,0105346	-125,9	   0,0105661	-129,6
     214,218	   0,0104688	-125,6	    0,011114	-121,7
     214,282	   0,0108267	-125,8	   0,0108836	-128,2
     214,345	   0,0106374	-126,2	   0,0106957	-128,3
     214,409	   0,0107659	-130,1	   0,0107585	-124,5
     214,472	   0,0109223	-123,8	   0,0109699	-124,3
     214,536	   0,0108458	-123,5	   0,0106918	-124,4
     214,599	   0,0107443	-129,0	   0,0111061	-125,4
     214,663	   0,0105971	-126,5	   0,0106848	-125,9
     214,726	   0,0106501	-125,8	   0,0107966	-128,5
      214,79	   0,0106896	-127,7	   0,0106973	-128,0
     214,853	   0,0108461	-127,5	   0,0107885	-127,2
     214,917	   0,0106269	-128,9	   0,0100245	-127,1
      214,98	   0,0107433	-127,4	   0,0108361	-125,0
     215,044	   0,0105631	-126,8	   0,0103182	-129,0
     215,108	   0,0105781	-127,2	   0,0108571	-122,4
     215,171	   0,0107422	-126,9	   0,0108143	-126,9
     215,235	   0,0105007	-124,7	   0,0105781	-127,6
     215,298	   0,0109139	-127,2	   0,0105151	-124,5
     215,362	   0,0109212	-124,1	   0,0105949	-126,8
     215,425	   0,0107919	-128,4	    0,010732	-124,6
     215,489	   0,0106736	-124,1	   0,0104695	-124,8
     215,552	   0,0105899	-128,7	   0,0108978	-121,4
     215,616	   0,0108807	-124,9	   0,0108408	-124,5
     215,679	   0,0110327	-125,2	   0,0106799	-125,6
     215,743	   0,0106896	-125,1	   0,0107419	-129,2
     215,806	    0,010704	-124,2	   0,0107605	-129,6
      215,87	   0,0108178	-126,4	   0,0103786	-127,5
     215,934	   0,0108971	-125,8	   0,0108868	-125,4
     215,997	   0,0106754	-124,2	   0,0104559	-124,7
     216,061	   0,0107236	-123,8	   0,0103396	-126,5
     216,124	   0,0106986	-123,5	   0,0104267	-124,3
     216,188	   0,0109094	-126,2	   0,0107258	-128,2
     216,251	   0,0105305	-126,0	   0,0105169	-125,2
     216,315	   0,0107867	-125,2	   0,0109588	-126,1
     216,378	   0,0109003	-126,5	   0,0105395	-124,0
     216,442	   0,0106845	-127,6	   0,0105257	-125,4
     216,505	   0,0108295	-124,7	   0,0108549	-119,7
     216,569	   0,0107363	-129,7	   0,0108166	-128,3
     216,632	   0,0107555	-127,9	   0,0107951	-125,1
     216,696	   0,0107463	-125,1	   0,0108185	-125,4
      216,76	   0,0107721	-124,5	   0,0106648	-125,5
     216,823	   0,0106817	-126,5	   0,0108812	-126,5
     216,887	   0,0108375	-123,8	   0,0111099	-126,1
      216,95	   0,0106139	-126,2	   0,0108831	-125,2
     217,014	    0,010601	-124,4	   0,0108069	-127,0
     217,077	   0,0106498	-124,7	   0,0106227	-125,3
     217,141	   0,0107659	-128,3	   0,0109559	-125,6
     217,204	   0,0105477	-125,9	   0,0111512	-124,4
     217,268	   0,0108491	-127,9	   0,0103137	-130,6
     217,331	   0,0110386	-126,4	   0,0107323	-121,2
     217,395	   0,0110065	-126,9	     0,01073	-128,4
     217,458	   0,0108224	-129,4	   0,0111777	-126,7
     217,522	    0,010546	-125,6	   0,0108895	-126,7
     217,586	   0,0107891	-124,8	   0,0109779	-125,5
     217,649	   0,0106833	-125,0	    0,010884	-124,0
     217,713	   0,0107658	-122,1	   0,0106874	-127,1
     217,776	    0,010703	-126,0	   0,0108741	-125,6
      217,84	   0,0109662	-122,8	   0,0107896	-125,4
     217,903	   0,0106596	-128,7	   0,0106922	-124,1
     217,967	   0,0109636	-126,1	     0,01062	-126,6
      218,03	   0,0106066	-128,3	   0,0110007	-124,4
     218,094	   0,0110018	-126,2	    0,010866	-127,5
     218,157	   0,0107463	-125,5	   0,0107975	-129,4
     218,221	   0,0107263	-124,5	   0,0110845	-125,5
     218,284	   0,0105584	-122,2	   0,0107866	-129,8
     218,348	   0,0109813	-126,1	   0,0109723	-126,2
     218,412	   0,0111422	-126,6	   0,0108942	-128,5
     218,475	   0,0110762	-125,4	   0,0108971	-124,4
     218,539	    0,010993	-126,0	   0,0109575	-126,9
     218,602	   0,0110879	-126,4	   0,0109618	-124,8
     218,666	   0,0110005	-122,8	   0,0110038	-124,8
     218,729	   0,0108975	-127,0	   0,0109981	-126,4
     218,793	   0,0108431	-123,7	   0,0110032	-127,2
     218,856	   0,0109458	-125,3	   0,0110373	-122,1
      218,92	   0,0107898	-125,8	   0,0107175	-126,5
     218,983	   0,0109148	-125,3	   0,0111557	-126,1
     219,047	   0,0110559	-127,7	   0,0109349	-125,1
      219,11	   0,0111509	-125,3	   0,0109455	-127,3
     219,174	   0,0107366	-126,2	   0,0108728	-127,9
     219,238	   0,0110985	-128,9	   0,0109406	-127,2
     219,301	   0,0108158	-129,4	   0,0109488	-124,3
     219,365	   0,0112414	-125,0	   0,0112154	-126,4
     219,428	   0,0111624	-126,1	   0,0107487	-127,2
     219,492	   0,0107006	-127,3	   0,0108648	-128,6
     219,555	   0,0109232	-125,0	   0,0109607	-124,8
     219,619	   0,0110347	-125,7	   0,0112269	-125,6
     219,682	   0,0110965	-126,8	   0,0110552	-124,0
     219,746	   0,0108014	-129,5	   0,0109295	-122,3
     219,809	   0,0111775	-125,1	   0,0109074	-129,1
     219,873	   0,0106737	-124,1	   0,0109003	-124,8
     219,936	   0,0109417	-124,4	    0,011011	-127,5
         220	   0,0110461	-127,4	     0,01087	-126,4

