X-Data [Hz]	Laser (M - Filtered) [m/s]	Phase [Deg]	Laser (M - Filtered) [m/s]	Phase [Deg]	
	002: [07-10-24 09:51]		003: [07-10-24 09:54]	
        41,5	   0,0206357	77,4	   0,0220677	77,2
      41,502	   0,0206462	78,6	    0,022085	77,8
     41,5039	    0,021076	77,9	    0,022222	77,4
     41,5059	   0,0216798	77,7	   0,0222872	77,5
     41,5078	   0,0218943	77,9	     0,02229	77,6
     41,5098	   0,0219156	76,9	   0,0221742	78,2
     41,5117	   0,0218756	77,4	   0,0221998	78,6
     41,5137	   0,0219474	76,6	   0,0223759	77,4
     41,5156	   0,0220775	76,8	   0,0224093	78,2
     41,5176	   0,0221497	77,7	   0,0223719	76,3
     41,5196	   0,0221967	77,1	    0,022441	77,0
     41,5215	   0,0221661	77,9	   0,0224273	77,4
     41,5235	   0,0221574	76,6	    0,022405	77,7
     41,5254	   0,0222602	78,6	    0,022479	77,6
     41,5274	   0,0223344	78,0	   0,0225918	76,1
     41,5293	   0,0223078	78,9	   0,0226727	78,3
     41,5313	   0,0222144	78,6	   0,0226186	77,6
     41,5332	   0,0223919	77,8	   0,0227057	76,8
     41,5352	   0,0224509	79,4	   0,0227553	77,9
     41,5371	   0,0224999	78,6	   0,0227498	76,6
     41,5391	   0,0224393	79,0	   0,0227957	78,2
     41,5411	   0,0224072	76,8	   0,0227644	77,8
      41,543	    0,022494	76,9	   0,0228208	78,5
      41,545	   0,0226188	78,4	   0,0229413	78,4
     41,5469	   0,0227055	77,4	    0,022857	77,5
     41,5489	   0,0228626	78,4	   0,0229073	77,7
     41,5508	   0,0226337	79,6	   0,0231146	77,7
     41,5528	   0,0226807	78,0	   0,0231188	79,1
     41,5547	   0,0226935	78,4	   0,0231774	77,2
     41,5567	   0,0228513	77,6	    0,023165	78,3
     41,5587	   0,0228467	78,4	   0,0231667	77,2
     41,5606	   0,0228342	77,0	   0,0231529	77,7
     41,5626	     0,02289	77,8	   0,0232035	78,5
     41,5645	   0,0228816	77,5	   0,0233385	77,7
     41,5665	   0,0229859	77,3	   0,0233684	78,4
     41,5684	   0,0231287	78,8	   0,0234423	77,5
     41,5704	   0,0231748	78,0	   0,0233525	77,1
     41,5723	   0,0231449	78,5	   0,0234658	78,7
     41,5743	    0,023163	77,6	   0,0235577	77,8
     41,5762	   0,0232031	77,2	   0,0236189	79,3
     41,5782	   0,0232781	78,6	   0,0236021	78,6
     41,5802	   0,0233797	78,1	   0,0235118	78,5
     41,5821	   0,0232887	78,8	   0,0235292	78,7
     41,5841	   0,0233395	77,5	   0,0237065	77,8
      41,586	   0,0234128	78,6	   0,0238157	78,9
      41,588	   0,0234882	77,9	   0,0237913	78,2
     41,5899	   0,0234399	77,7	   0,0238004	78,3
     41,5919	   0,0234093	79,2	   0,0238354	77,9
     41,5938	   0,0236286	77,6	   0,0239488	78,4
     41,5958	   0,0237471	78,2	   0,0240011	78,6
     41,5978	    0,023833	77,6	   0,0239785	78,1
     41,5997	   0,0237561	77,7	   0,0240107	78,8
     41,6017	   0,0237181	79,5	   0,0240899	78,4
     41,6036	   0,0237657	78,6	   0,0241106	77,5
     41,6056	   0,0238875	78,6	     0,02413	79,6
     41,6075	   0,0238868	78,6	   0,0241668	78,9
     41,6095	   0,0239729	78,4	   0,0242306	79,0
     41,6114	   0,0239252	78,5	   0,0243341	78,9
     41,6134	   0,0238448	78,3	   0,0244027	78,7
     41,6153	   0,0238828	79,1	   0,0244057	79,4
     41,6173	   0,0239961	78,1	   0,0244575	78,6
     41,6193	   0,0241057	78,3	   0,0244331	79,9
     41,6212	    0,024212	78,9	   0,0244894	77,9
     41,6232	    0,024187	78,5	   0,0245608	78,0
     41,6251	   0,0242202	79,0	    0,024571	78,8
     41,6271	   0,0242269	79,2	   0,0245956	78,7
      41,629	   0,0243002	79,1	   0,0246668	79,6
      41,631	   0,0243712	78,9	   0,0247305	78,9
     41,6329	   0,0244125	78,9	   0,0247901	78,5
     41,6349	   0,0244981	80,0	   0,0247599	78,7
     41,6369	   0,0245012	78,2	   0,0248707	80,3
     41,6388	   0,0244762	78,3	   0,0249708	80,4
     41,6408	    0,024621	78,8	    0,024987	79,4
     41,6427	   0,0246223	78,1	   0,0249467	79,9
     41,6447	   0,0246561	80,0	   0,0250069	78,4
     41,6466	   0,0247385	79,7	   0,0251306	78,2
     41,6486	   0,0247757	79,2	   0,0251507	79,5
     41,6505	   0,0248448	79,0	   0,0251955	78,8
     41,6525	   0,0248616	79,1	   0,0253614	79,4
     41,6544	   0,0248728	79,8	   0,0253959	78,9
     41,6564	    0,024922	79,2	   0,0254162	79,0
     41,6584	   0,0249899	79,4	   0,0253381	80,6
     41,6603	   0,0249803	79,2	   0,0253722	79,2
     41,6623	   0,0250131	78,5	   0,0254167	80,4
     41,6642	   0,0251231	80,2	   0,0255441	80,2
     41,6662	   0,0252476	79,4	   0,0256707	79,0
     41,6681	   0,0252585	79,3	   0,0256882	79,2
     41,6701	   0,0252758	80,6	   0,0256402	79,5
      41,672	   0,0253491	79,6	   0,0257035	81,4
      41,674	   0,0253641	79,8	   0,0257811	80,2
      41,676	   0,0253409	78,5	   0,0258796	80,3
     41,6779	    0,025373	79,5	   0,0258643	80,1
     41,6799	   0,0254162	79,9	   0,0259289	80,8
     41,6818	   0,0254857	80,0	   0,0258595	80,7
     41,6838	   0,0255707	80,2	   0,0258962	79,2
     41,6857	   0,0255986	79,7	   0,0261107	80,4
     41,6877	    0,025733	80,5	   0,0262105	80,7
     41,6896	   0,0258106	81,3	   0,0261858	79,6
     41,6916	   0,0258027	79,5	   0,0261917	79,0
     41,6936	   0,0258027	80,6	   0,0262016	79,8
     41,6955	   0,0258727	78,9	    0,026352	79,4
     41,6975	   0,0259033	79,6	   0,0263803	80,9
     41,6994	   0,0260363	80,3	   0,0264735	80,4
     41,7014	   0,0261148	79,9	   0,0266401	80,2
     41,7033	   0,0261845	81,2	   0,0265561	80,8
     41,7053	   0,0262585	80,8	    0,026574	80,9
     41,7072	   0,0262273	79,8	   0,0266536	80,8
     41,7092	   0,0262561	80,0	   0,0267384	80,1
     41,7111	   0,0263569	80,4	   0,0267862	80,6
     41,7131	   0,0264285	80,6	   0,0268128	80,3
     41,7151	    0,026497	81,4	   0,0268462	79,5
      41,717	   0,0264022	80,6	   0,0269434	79,8
      41,719	    0,026393	81,3	   0,0270131	80,3
     41,7209	   0,0265103	79,2	    0,027111	80,5
     41,7229	   0,0265831	80,4	   0,0271786	81,2
     41,7248	   0,0266883	81,2	   0,0271493	80,6
     41,7268	   0,0266928	80,4	   0,0270847	81,0
     41,7287	   0,0266805	81,2	    0,027168	80,9
     41,7307	      0,0267	81,1	   0,0272274	81,1
     41,7327	   0,0268538	80,4	   0,0273728	81,9
     41,7346	   0,0269324	80,9	   0,0275327	80,5
     41,7366	   0,0270416	80,3	   0,0275624	81,4
     41,7385	   0,0271419	81,5	   0,0275965	80,4
     41,7405	   0,0270933	80,0	   0,0275253	80,2
     41,7424	   0,0270812	80,1	   0,0276239	80,5
     41,7444	   0,0272101	81,1	   0,0277158	80,8
     41,7463	   0,0272957	80,0	    0,027837	80,9
     41,7483	   0,0272783	81,4	     0,02794	82,1
     41,7502	   0,0273703	81,9	   0,0279196	81,2
     41,7522	   0,0274519	81,2	   0,0279455	80,8
     41,7542	   0,0275219	82,5	   0,0280467	81,5
     41,7561	   0,0276161	81,7	   0,0281419	82,4
     41,7581	   0,0276674	80,9	   0,0281776	82,8
       41,76	   0,0276561	81,5	   0,0282121	80,9
      41,762	   0,0276618	80,8	   0,0283024	81,6
     41,7639	   0,0277016	81,1	   0,0283851	80,7
     41,7659	    0,027896	81,9	   0,0285718	80,5
     41,7678	   0,0279746	81,4	   0,0285661	82,2
     41,7698	   0,0280017	81,4	   0,0286245	81,9
     41,7718	   0,0280143	81,0	   0,0286588	81,6
     41,7737	   0,0280332	81,3	   0,0286818	81,4
     41,7757	   0,0282515	81,9	    0,028737	81,3
     41,7776	   0,0281862	81,3	   0,0287397	82,2
     41,7796	   0,0281739	81,7	   0,0287924	81,6
     41,7815	   0,0282836	81,5	   0,0289629	82,3
     41,7835	   0,0284229	80,7	   0,0290491	82,8
     41,7854	   0,0285191	82,6	   0,0290838	82,9
     41,7874	   0,0284929	81,5	   0,0291894	82,1
     41,7893	   0,0285703	82,4	   0,0291612	83,1
     41,7913	    0,028572	83,1	   0,0291756	81,1
     41,7933	   0,0286305	81,6	   0,0293431	81,6
     41,7952	   0,0287359	82,0	   0,0294487	82,8
     41,7972	   0,0288044	81,3	   0,0295231	82,0
     41,7991	    0,028875	81,2	   0,0295569	83,4
     41,8011	    0,028999	83,3	   0,0295987	82,8
      41,803	   0,0291238	82,8	   0,0297364	82,5
      41,805	   0,0290656	82,7	   0,0298308	83,1
     41,8069	   0,0289903	83,0	    0,029856	82,6
     41,8089	   0,0291752	82,0	   0,0299234	83,3
     41,8109	   0,0292566	82,6	   0,0300887	82,1
     41,8128	   0,0294387	82,3	   0,0301044	82,6
     41,8148	   0,0294758	82,1	   0,0301239	83,0
     41,8167	   0,0295698	83,3	   0,0302056	81,9
     41,8187	   0,0296012	82,4	   0,0302338	83,5
     41,8206	   0,0295865	82,5	   0,0303064	83,2
     41,8226	   0,0296114	82,7	   0,0303793	82,7
     41,8245	   0,0297151	82,3	    0,030466	84,4
     41,8265	   0,0299007	83,5	   0,0305298	83,8
     41,8284	   0,0299331	83,0	   0,0306747	82,7
     41,8304	   0,0300198	83,0	    0,030686	83,8
     41,8324	   0,0301338	83,6	   0,0307757	82,4
     41,8343	   0,0302193	81,5	   0,0309282	84,4
     41,8363	   0,0302517	82,7	   0,0309132	84,7
     41,8382	   0,0302306	82,9	   0,0309958	83,0
     41,8402	   0,0302283	82,7	   0,0311019	84,2
     41,8421	    0,030313	84,2	   0,0312331	83,0
     41,8441	   0,0304906	83,5	   0,0312799	83,2
      41,846	   0,0306555	83,3	   0,0313555	83,0
      41,848	   0,0307078	83,8	   0,0314649	83,5
       41,85	   0,0306771	82,9	   0,0315477	82,7
     41,8519	   0,0307348	82,6	   0,0316489	84,7
     41,8539	    0,030831	84,0	   0,0316412	85,0
     41,8558	   0,0309653	83,7	   0,0317244	83,7
     41,8578	   0,0310809	83,8	   0,0318075	85,0
     41,8597	   0,0311808	84,4	   0,0318131	83,2
     41,8617	   0,0312269	83,1	   0,0319967	84,8
     41,8636	   0,0311579	84,1	   0,0321484	84,3
     41,8656	   0,0311851	83,8	    0,032227	84,7
     41,8675	   0,0313126	83,6	   0,0322963	84,7
     41,8695	   0,0313825	84,7	   0,0323173	86,0
     41,8715	   0,0314841	83,7	   0,0324163	84,0
     41,8734	   0,0316007	84,4	   0,0324502	84,5
     41,8754	   0,0315862	83,5	   0,0325347	83,7
     41,8773	   0,0317352	83,3	   0,0326329	84,0
     41,8793	   0,0317957	84,3	   0,0327251	85,2
     41,8812	    0,031904	84,8	   0,0328093	84,2
     41,8832	   0,0320508	83,8	   0,0329731	85,3
     41,8851	   0,0321943	86,2	    0,033115	85,5
     41,8871	     0,03224	85,2	   0,0332349	84,7
     41,8891	   0,0323002	84,7	   0,0332224	85,2
      41,891	   0,0323337	85,4	   0,0332852	85,2
      41,893	   0,0324643	84,1	   0,0333948	84,0
     41,8949	   0,0325872	84,6	   0,0334218	86,6
     41,8969	   0,0326209	85,4	   0,0335255	85,2
     41,8988	   0,0327505	84,9	   0,0336512	85,5
     41,9008	   0,0328689	86,2	   0,0338019	86,2
     41,9027	   0,0330011	86,2	   0,0338721	85,0
     41,9047	   0,0330946	84,5	   0,0340255	85,0
     41,9066	   0,0331143	85,0	   0,0341004	85,6
     41,9086	   0,0331891	84,4	   0,0341682	85,5
     41,9106	   0,0332332	84,4	   0,0343303	86,5
     41,9125	   0,0332983	86,1	   0,0344103	86,8
     41,9145	   0,0333792	86,4	   0,0344838	86,0
     41,9164	   0,0334416	86,1	    0,034595	87,0
     41,9184	   0,0335314	86,6	   0,0346594	86,8
     41,9203	   0,0336983	84,3	   0,0347135	85,6
     41,9223	   0,0337541	85,5	   0,0347608	85,6
     41,9242	   0,0338497	85,9	   0,0349054	85,7
     41,9262	   0,0339179	85,1	   0,0350314	85,3
     41,9282	   0,0339412	87,2	   0,0352453	87,7
     41,9301	   0,0340935	87,1	   0,0353567	87,4
     41,9321	   0,0342224	87,0	   0,0354007	86,9
      41,934	   0,0343489	86,5	   0,0354053	87,4
      41,936	   0,0343729	86,9	   0,0355213	85,6
     41,9379	   0,0345193	86,3	   0,0356324	86,3
     41,9399	   0,0346217	86,3	   0,0357445	87,7
     41,9418	    0,034672	85,9	   0,0358673	86,6
     41,9438	   0,0347613	86,7	   0,0360064	88,4
     41,9457	    0,034905	87,8	   0,0361144	88,1
     41,9477	   0,0350098	87,1	   0,0361917	87,1
     41,9497	   0,0352051	87,1	   0,0363208	87,6
     41,9516	   0,0353306	87,5	   0,0364109	87,4
     41,9536	   0,0353877	86,0	   0,0365243	86,1
     41,9555	   0,0353776	86,2	   0,0366711	88,2
     41,9575	    0,035473	87,1	   0,0367958	87,6
     41,9594	   0,0355189	87,7	   0,0369309	87,0
     41,9614	   0,0356911	87,9	   0,0371188	88,3
     41,9633	   0,0357793	87,8	   0,0372873	89,2
     41,9653	   0,0358837	87,5	   0,0374259	87,5
     41,9673	    0,035965	87,7	   0,0375108	88,6
     41,9692	   0,0362275	87,4	   0,0375938	88,4
     41,9712	   0,0363869	87,0	   0,0376561	87,3
     41,9731	   0,0364991	89,0	   0,0377336	88,6
     41,9751	   0,0365134	88,2	   0,0378071	88,0
      41,977	   0,0366524	88,8	   0,0379017	89,0
      41,979	   0,0367386	89,1	   0,0380469	89,0
     41,9809	   0,0368143	88,8	   0,0382542	88,7
     41,9829	   0,0369202	87,7	   0,0383744	88,8
     41,9848	   0,0370357	88,5	   0,0384597	89,6
     41,9868	   0,0371394	88,2	   0,0385851	88,9
     41,9888	    0,037286	89,7	   0,0387504	88,3
     41,9907	   0,0373717	90,0	   0,0388499	89,5
     41,9927	   0,0375495	88,3	   0,0389662	89,1
     41,9946	   0,0376633	89,7	   0,0391414	89,1
     41,9966	   0,0377832	89,8	   0,0392549	90,5
     41,9985	   0,0378735	88,0	   0,0393665	90,1
     42,0005	   0,0380072	88,6	   0,0396554	89,6
     42,0024	   0,0381276	89,4	   0,0398095	90,9
     42,0044	   0,0382533	88,3	   0,0398938	89,2
     42,0064	   0,0384295	90,5	   0,0400576	89,5
     42,0083	    0,038502	90,3	   0,0401892	90,4
     42,0103	   0,0386428	89,2	   0,0403072	89,4
     42,0122	   0,0387992	90,4	   0,0404654	91,9
     42,0142	   0,0389893	90,0	   0,0406513	91,5
     42,0161	   0,0391226	89,3	   0,0407765	91,1
     42,0181	   0,0392414	90,3	   0,0409224	91,7
       42,02	   0,0393316	90,4	   0,0410747	91,8
      42,022	   0,0394609	90,2	   0,0412725	90,7
     42,0239	   0,0395926	91,6	   0,0413879	90,9
     42,0259	   0,0396986	90,5	   0,0415236	91,3
     42,0279	   0,0397972	90,8	   0,0416753	91,2
     42,0298	   0,0399335	91,4	   0,0417827	91,9
     42,0318	   0,0400869	90,8	   0,0419464	92,8
     42,0337	   0,0402077	90,5	   0,0420514	91,2
     42,0357	   0,0404183	91,5	   0,0421635	92,8
     42,0376	   0,0405158	91,0	   0,0422994	92,9
     42,0396	    0,040627	92,1	    0,042478	92,6
     42,0415	   0,0408117	92,5	   0,0426725	92,4
     42,0435	   0,0409605	91,9	   0,0428936	92,4
     42,0455	   0,0410693	91,9	    0,043146	91,8
     42,0474	   0,0412137	92,6	   0,0432773	92,6
     42,0494	   0,0413075	92,8	   0,0434653	93,9
     42,0513	    0,041362	91,2	   0,0436411	93,4
     42,0533	   0,0415257	92,6	   0,0438172	94,1
     42,0552	   0,0418666	91,7	   0,0439399	94,5
     42,0572	   0,0419573	91,5	   0,0441964	93,1
     42,0591	   0,0421839	93,3	     0,04436	94,0
     42,0611	   0,0422809	93,6	    0,044596	94,2
      42,063	   0,0424168	93,8	   0,0447419	93,4
      42,065	   0,0425888	94,1	    0,044961	93,7
      42,067	   0,0426719	92,7	   0,0450808	95,7
     42,0689	   0,0428053	92,8	   0,0453087	94,3
     42,0709	   0,0430184	93,6	   0,0454809	94,1
     42,0728	   0,0431604	94,0	   0,0456633	95,5
     42,0748	   0,0433568	93,1	   0,0458365	95,8
     42,0767	   0,0435327	94,6	   0,0460841	95,5
     42,0787	   0,0436494	93,9	   0,0461765	96,0
     42,0806	   0,0438356	94,4	   0,0463763	94,7
     42,0826	   0,0439658	95,6	    0,046528	95,1
     42,0846	    0,044193	95,7	   0,0467842	96,4
     42,0865	   0,0444005	94,2	   0,0469275	95,9
     42,0885	    0,044571	95,4	   0,0471595	96,5
     42,0904	   0,0447933	94,1	   0,0473417	97,3
     42,0924	   0,0449171	93,9	   0,0475967	95,9
     42,0943	   0,0451651	95,8	   0,0477666	97,1
     42,0963	   0,0453457	95,6	   0,0480626	97,3
     42,0982	   0,0455641	97,0	   0,0482555	97,0
     42,1002	   0,0457418	97,2	   0,0484349	97,0
     42,1021	   0,0459192	96,4	   0,0486767	97,7
     42,1041	   0,0460822	95,7	   0,0489725	97,1
     42,1061	   0,0461946	96,4	   0,0491819	97,1
      42,108	   0,0464391	96,3	   0,0493236	97,9
       42,11	   0,0465601	96,0	   0,0495801	98,3
     42,1119	   0,0468366	97,0	   0,0497793	97,7
     42,1139	   0,0469482	97,5	     0,05008	100,0
     42,1158	   0,0471479	97,0	   0,0502409	99,9
     42,1178	   0,0472659	97,3	   0,0505878	98,6
     42,1197	   0,0474357	98,0	   0,0507579	99,5
     42,1217	   0,0475798	97,6	    0,050934	99,6
     42,1237	   0,0477749	98,4	   0,0511855	98,8
     42,1256	   0,0479592	99,1	    0,051477	100,8
     42,1276	    0,048263	97,9	   0,0518246	100,5
     42,1295	   0,0484427	98,1	   0,0521113	100,6
     42,1315	    0,048791	98,6	    0,052359	100,8
     42,1334	   0,0489759	98,5	   0,0526463	101,9
     42,1354	   0,0493423	100,2	   0,0528823	101,4
     42,1373	   0,0496684	100,4	   0,0531652	101,5
     42,1393	    0,049973	100,2	   0,0533891	102,8
     42,1413	   0,0501942	99,7	   0,0536806	101,8
     42,1432	   0,0503073	100,4	   0,0539303	101,4
     42,1452	   0,0505577	100,5	   0,0542268	102,8
     42,1471	   0,0508105	100,7	   0,0544209	102,7
     42,1491	   0,0510255	101,9	   0,0546981	102,8
      42,151	   0,0512734	100,5	   0,0549982	104,1
      42,153	   0,0514577	100,6	   0,0552687	104,7
     42,1549	   0,0516963	102,3	   0,0555574	103,6
     42,1569	   0,0518298	102,1	   0,0557825	103,5
     42,1588	   0,0521008	101,8	   0,0561771	105,6
     42,1608	   0,0524643	103,6	   0,0564854	104,7
     42,1628	   0,0526611	103,7	   0,0567761	105,1
     42,1647	   0,0528959	102,5	   0,0570617	105,6
     42,1667	   0,0531675	103,8	   0,0573648	105,3
     42,1686	   0,0534637	102,8	    0,057692	105,9
     42,1706	   0,0535945	103,3	   0,0579672	105,9
     42,1725	    0,053921	104,1	   0,0581503	107,6
     42,1745	   0,0541393	104,6	   0,0584879	106,1
     42,1764	   0,0543927	103,7	   0,0587321	107,2
     42,1784	   0,0546459	103,8	   0,0590798	107,8
     42,1804	   0,0548647	105,8	   0,0593484	107,7
     42,1823	   0,0550913	105,4	   0,0597442	109,7
     42,1843	   0,0554245	106,4	    0,059979	109,4
     42,1862	   0,0557052	107,1	   0,0603853	109,1
     42,1882	   0,0558946	107,6	   0,0607206	109,2
     42,1901	   0,0562695	106,6	   0,0612061	109,6
     42,1921	   0,0564889	107,1	   0,0614452	110,1
      42,194	   0,0567452	106,7	   0,0617348	110,0
      42,196	   0,0569157	106,5	   0,0620373	111,0
     42,1979	   0,0572498	108,3	   0,0624097	110,7
     42,1999	   0,0575276	108,0	   0,0626447	110,2
     42,2019	   0,0578659	107,7	   0,0630343	112,7
     42,2038	   0,0581386	109,0	   0,0633138	113,1
     42,2058	    0,058516	109,8	   0,0636833	113,4
     42,2077	   0,0588486	109,4	   0,0639871	113,7
     42,2097	   0,0590675	110,1	   0,0642384	114,9
     42,2116	   0,0592854	111,5	   0,0645889	114,0
     42,2136	   0,0596404	110,0	   0,0648385	114,4
     42,2155	   0,0598652	110,2	   0,0653383	114,8
     42,2175	   0,0602344	111,5	   0,0655785	116,0
     42,2195	   0,0603746	112,0	   0,0659896	115,3
     42,2214	   0,0607991	110,4	   0,0662853	116,4
     42,2234	   0,0610945	112,7	    0,066683	116,1
     42,2253	   0,0613255	112,7	    0,066917	116,2
     42,2273	   0,0616073	112,1	   0,0672559	118,7
     42,2292	   0,0620834	114,2	   0,0674522	118,3
     42,2312	   0,0623212	114,8	   0,0678541	118,3
     42,2331	   0,0625855	114,1	   0,0680473	119,5
     42,2351	   0,0628829	113,7	   0,0684106	119,6
      42,237	   0,0632157	115,3	   0,0686722	119,3
      42,239	   0,0633677	116,1	   0,0688519	120,1
      42,241	   0,0637054	115,1	   0,0692326	121,3
     42,2429	   0,0639949	116,3	   0,0694901	122,3
     42,2449	    0,064284	116,2	   0,0697869	120,8
     42,2468	   0,0645131	115,8	    0,070064	121,7
     42,2488	    0,064908	117,3	   0,0704319	122,2
     42,2507	   0,0651416	117,5	    0,070632	122,1
     42,2527	   0,0655733	117,3	   0,0709442	123,5
     42,2546	   0,0658048	118,1	   0,0711993	124,0
     42,2566	   0,0661512	120,0	   0,0715177	124,1
     42,2586	   0,0664163	119,6	    0,071819	124,3
     42,2605	   0,0667018	120,0	   0,0721276	126,6
     42,2625	   0,0669749	120,9	   0,0722836	126,4
     42,2644	   0,0672977	120,8	   0,0726107	126,7
     42,2664	   0,0675942	121,0	   0,0728875	127,1
     42,2683	   0,0678847	121,7	   0,0730578	128,3
     42,2703	   0,0681384	122,7	   0,0734257	127,0
     42,2722	    0,068608	121,4	   0,0735071	127,6
     42,2742	   0,0688568	122,1	   0,0737377	128,7
     42,2761	   0,0692098	123,9	   0,0738842	129,4
     42,2781	   0,0693652	124,0	   0,0740803	128,4
     42,2801	   0,0695429	123,7	   0,0741743	129,8
      42,282	   0,0699136	125,8	   0,0743636	130,3
      42,284	   0,0702142	126,3	   0,0744716	130,3
     42,2859	    0,070555	126,2	   0,0747663	132,0
     42,2879	   0,0708816	127,7	   0,0749517	132,7
     42,2898	   0,0711144	128,2	   0,0751597	132,5
     42,2918	   0,0713518	126,8	   0,0752769	132,8
     42,2937	   0,0716024	127,7	   0,0753888	133,1
     42,2957	   0,0719048	129,2	   0,0756049	135,7
     42,2977	   0,0721134	129,7	   0,0758044	134,3
     42,2996	    0,072459	128,4	    0,075891	135,2
     42,3016	   0,0726548	129,1	   0,0760993	135,7
     42,3035	   0,0728545	130,7	   0,0762457	135,0
     42,3055	   0,0731937	130,7	   0,0763484	136,1
     42,3074	    0,073323	130,0	   0,0764547	136,9
     42,3094	   0,0734997	132,5	   0,0765844	137,4
     42,3113	   0,0736933	132,8	   0,0767169	136,3
     42,3133	   0,0738855	132,5	   0,0768045	137,8
     42,3153	   0,0742063	135,1	   0,0769636	139,0
     42,3172	   0,0743519	134,1	   0,0771197	138,3
     42,3192	   0,0746619	134,9	   0,0771586	138,7
     42,3211	    0,074813	135,6	   0,0772676	139,9
     42,3231	   0,0749974	136,1	   0,0772576	140,8
      42,325	   0,0752046	136,1	   0,0773388	140,6
      42,327	   0,0753176	135,7	   0,0774278	140,4
     42,3289	   0,0754276	136,8	   0,0775886	142,2
     42,3309	   0,0755852	137,9	   0,0776391	142,5
     42,3328	   0,0757312	137,3	   0,0777228	142,5
     42,3348	   0,0759549	139,0	   0,0777475	143,4
     42,3368	   0,0760967	138,6	   0,0777976	143,2
     42,3387	   0,0762911	138,7	   0,0778409	143,2
     42,3407	   0,0764013	138,9	   0,0778581	144,1
     42,3426	   0,0765292	141,4	     0,07794	145,1
     42,3446	   0,0766211	141,2	   0,0779566	145,2
     42,3465	   0,0768085	141,9	   0,0779303	144,4
     42,3485	   0,0768984	142,1	   0,0780028	145,3
     42,3504	   0,0770309	142,5	   0,0780414	146,4
     42,3524	   0,0771192	143,7	   0,0779775	146,8
     42,3544	   0,0771999	143,0	   0,0780666	147,1
     42,3563	   0,0773124	144,7	   0,0781045	147,3
     42,3583	   0,0773437	145,3	   0,0781508	147,9
     42,3602	   0,0774324	145,1	   0,0781115	148,1
     42,3622	   0,0775528	145,3	   0,0780985	149,8
     42,3641	   0,0777109	145,7	   0,0781188	149,7
     42,3661	   0,0776913	146,8	   0,0781942	149,1
      42,368	   0,0778057	145,6	   0,0781285	150,1
       42,37	   0,0777814	146,4	   0,0781056	150,8
     42,3719	   0,0778358	147,4	   0,0781049	150,8
     42,3739	   0,0778937	148,0	   0,0781259	150,6
     42,3759	   0,0779198	147,4	   0,0780488	151,6
     42,3778	   0,0779769	148,9	   0,0780294	152,4
     42,3798	   0,0780918	149,3	   0,0780187	151,6
     42,3817	   0,0780882	149,4	   0,0780254	151,6
     42,3837	    0,078084	151,0	    0,077871	153,1
     42,3856	   0,0781325	151,2	   0,0778806	153,9
     42,3876	   0,0781692	151,8	   0,0778874	153,3
     42,3895	   0,0781894	151,5	   0,0779026	153,5
     42,3915	   0,0782043	153,0	   0,0777976	154,5
     42,3935	   0,0782052	153,8	   0,0777438	154,9
     42,3954	   0,0782874	153,4	   0,0776983	154,6
     42,3974	   0,0781842	153,0	   0,0776889	155,0
     42,3993	   0,0782029	153,8	   0,0776406	156,5
     42,4013	    0,078228	155,3	   0,0775506	155,8
     42,4032	   0,0781775	154,7	   0,0774821	157,4
     42,4052	   0,0781186	154,8	   0,0774304	158,0
     42,4071	   0,0780876	155,7	   0,0774232	158,6
     42,4091	   0,0780326	156,2	   0,0774249	157,7
      42,411	   0,0779994	155,4	   0,0772737	158,3
      42,413	   0,0779253	155,6	   0,0771263	159,5
      42,415	   0,0779169	157,1	   0,0770431	159,6
     42,4169	    0,077848	157,5	   0,0770108	158,6
     42,4189	   0,0778264	156,9	   0,0768775	159,2
     42,4208	   0,0777932	158,1	   0,0768717	159,6
     42,4228	   0,0778065	158,4	   0,0768124	160,3
     42,4247	   0,0777824	158,3	   0,0767611	160,8
     42,4267	   0,0777342	157,7	   0,0767141	161,2
     42,4286	   0,0775563	160,4	    0,076601	162,1
     42,4306	   0,0774721	160,5	   0,0764553	160,6
     42,4326	   0,0774278	160,3	    0,076369	160,7
     42,4345	   0,0774024	160,1	   0,0763869	162,3
     42,4365	   0,0772832	162,0	   0,0763262	163,0
     42,4384	   0,0771717	162,5	   0,0762155	161,9
     42,4404	   0,0770675	161,2	   0,0761794	161,7
     42,4423	     0,07705	162,5	   0,0760323	164,2
     42,4443	   0,0769724	163,5	   0,0759467	163,8
     42,4462	   0,0768771	162,9	   0,0758769	163,2
     42,4482	   0,0767116	163,0	   0,0757823	164,1
     42,4501	   0,0765845	163,6	   0,0755506	165,0
     42,4521	   0,0765131	164,4	   0,0754514	164,8
     42,4541	   0,0764067	164,9	   0,0753659	165,1
      42,456	   0,0762274	163,8	   0,0752553	165,4
      42,458	   0,0761759	164,6	   0,0751608	166,3
     42,4599	   0,0760742	164,4	   0,0751096	166,4
     42,4619	   0,0760556	165,0	   0,0749555	166,9
     42,4638	   0,0759182	165,6	   0,0748511	166,3
     42,4658	   0,0758437	166,1	   0,0746552	167,6
     42,4677	   0,0758203	166,7	   0,0745784	167,8
     42,4697	   0,0757001	166,2	   0,0743632	168,1
     42,4717	   0,0755197	167,8	   0,0742303	168,9
     42,4736	   0,0755054	166,8	   0,0741313	169,0
     42,4756	   0,0753237	167,4	   0,0739511	167,6
     42,4775	   0,0751787	167,1	    0,073819	168,6
     42,4795	   0,0750174	168,6	    0,073738	170,1
     42,4814	   0,0748776	169,0	    0,073632	169,9
     42,4834	   0,0747198	169,1	   0,0734998	168,6
     42,4853	   0,0746752	168,8	   0,0734348	169,3
     42,4873	   0,0746023	169,9	   0,0732838	170,6
     42,4892	   0,0744714	170,5	    0,073258	170,7
     42,4912	   0,0742815	171,3	    0,073138	169,3
     42,4932	    0,074162	170,9	   0,0730273	170,8
     42,4951	   0,0740667	171,5	   0,0729406	171,0
     42,4971	   0,0739061	172,1	   0,0728434	171,9
      42,499	   0,0737375	172,4	   0,0726744	170,3
      42,501	   0,0736627	171,4	   0,0725679	171,2
     42,5029	   0,0735257	173,1	   0,0723823	173,2
     42,5049	   0,0733726	176,4	   0,0722764	173,0
     42,5068	   0,0731473	171,1	   0,0721132	173,2
     42,5088	   0,0729379	172,4	   0,0719447	172,4
     42,5108	   0,0725271	172,6	   0,0718038	174,1
     42,5127	   0,0728823	174,6	   0,0717091	173,9
     42,5147	   0,0727432	172,6	   0,0715754	174,2
     42,5166	   0,0727443	173,2	   0,0715225	174,0
     42,5186	   0,0725065	174,2	    0,071247	175,1
     42,5205	   0,0723304	175,5	    0,071121	175,0
     42,5225	   0,0721184	173,8	   0,0708944	174,3
     42,5244	   0,0719922	174,4	   0,0708034	175,6
     42,5264	   0,0718341	175,9	   0,0706109	176,2
     42,5283	   0,0716284	176,4	   0,0704588	176,3
     42,5303	   0,0715388	174,8	   0,0703555	176,3
     42,5323	   0,0714562	175,0	   0,0701983	175,7
     42,5342	   0,0713344	176,3	   0,0700536	178,5
     42,5362	   0,0711485	177,2	   0,0699741	177,2
     42,5381	   0,0708966	176,1	    0,069767	177,2
     42,5401	   0,0708146	176,7	    0,069629	177,3
      42,542	   0,0706806	178,4	   0,0695998	178,7
      42,544	   0,0705636	177,5	   0,0694919	178,8
     42,5459	   0,0703683	177,9	   0,0692315	178,1
     42,5479	   0,0702919	177,6	   0,0690893	178,8
     42,5499	   0,0703309	179,2	   0,0690087	179,9
     42,5518	   0,0695861	179,2	   0,0688691	179,8
     42,5538	   0,0698393	178,4	   0,0687224	178,1
     42,5557	   0,0697529	177,0	   0,0686395	179,3
     42,5577	   0,0689403	181,2	   0,0684601	179,5
     42,5596	    0,069337	180,3	   0,0682806	180,5
     42,5616	   0,0691158	179,1	   0,0681358	179,9
     42,5635	   0,0690149	180,3	   0,0679374	180,6
     42,5655	   0,0688622	180,9	   0,0678291	181,5
     42,5674	   0,0687123	181,1	   0,0677039	180,2
     42,5694	   0,0685977	181,3	   0,0675187	181,2
     42,5714	   0,0684273	181,0	   0,0672935	180,8
     42,5733	   0,0683361	180,7	   0,0671641	182,1
     42,5753	   0,0681603	182,1	   0,0670303	182,5
     42,5772	   0,0680259	183,1	   0,0669022	181,3
     42,5792	   0,0678248	182,2	   0,0667453	181,3
     42,5811	   0,0677445	183,1	    0,066638	182,1
     42,5831	   0,0673824	183,9	   0,0664386	184,2
      42,585	   0,0672539	183,3	   0,0662856	182,0
      42,587	   0,0670901	183,3	   0,0661888	182,7
      42,589	   0,0668859	184,5	   0,0660308	183,5
     42,5909	   0,0666992	184,7	   0,0659806	184,2
     42,5929	   0,0665597	184,3	   0,0657837	182,0
     42,5948	   0,0664583	184,2	   0,0655832	183,5
     42,5968	   0,0664171	184,3	   0,0653855	184,6
     42,5987	   0,0662305	184,9	   0,0651958	184,5
     42,6007	   0,0660879	185,3	   0,0651196	182,0
     42,6026	   0,0660005	184,7	   0,0649582	183,4
     42,6046	   0,0657661	185,3	    0,064812	185,2
     42,6065	   0,0656133	186,2	   0,0646788	185,4
     42,6085	    0,065405	185,8	   0,0644167	184,2
     42,6105	   0,0651711	186,2	   0,0642758	184,2
     42,6124	    0,064975	186,1	    0,064158	185,7
     42,6144	    0,064782	186,9	   0,0641618	186,1
     42,6163	   0,0646335	186,7	   0,0639753	186,3
     42,6183	   0,0644761	186,9	   0,0637934	184,9
     42,6202	   0,0643332	186,0	   0,0635727	185,7
     42,6222	   0,0641809	187,3	   0,0633441	186,9
     42,6241	   0,0640471	186,8	   0,0633051	187,1
     42,6261	   0,0639338	187,6	   0,0630728	185,9
     42,6281	   0,0637592	187,1	   0,0629142	187,1
       42,63	   0,0636821	188,0	    0,062801	187,1
      42,632	   0,0634987	188,1	   0,0626634	188,0
     42,6339	   0,0632995	188,7	   0,0624606	186,9
     42,6359	   0,0631445	187,1	   0,0622761	187,1
     42,6378	   0,0629897	188,9	   0,0620985	188,1
     42,6398	   0,0627923	188,9	   0,0619577	188,6
     42,6417	   0,0626888	188,4	   0,0618218	187,9
     42,6437	   0,0625635	189,4	   0,0616666	188,6
     42,6456	   0,0624217	189,1	    0,061506	188,4
     42,6476	   0,0622571	189,8	   0,0613729	189,2
     42,6496	   0,0620349	190,4	   0,0611902	189,0
     42,6515	   0,0618767	189,6	   0,0611117	189,3
     42,6535	    0,061763	189,9	   0,0609576	189,4
     42,6554	   0,0615781	190,6	   0,0608215	190,0
     42,6574	   0,0614138	190,2	   0,0606447	190,0
     42,6593	   0,0612697	190,1	   0,0604798	190,1
     42,6613	   0,0611088	190,7	   0,0602503	189,4
     42,6632	   0,0610193	190,8	   0,0601043	190,4
     42,6652	   0,0607942	192,2	   0,0599981	191,2
     42,6672	   0,0605351	192,0	   0,0598762	191,5
     42,6691	   0,0604426	191,8	   0,0597842	190,8
     42,6711	   0,0602458	191,5	   0,0594644	191,1
      42,673	   0,0600934	191,7	   0,0593993	191,1
      42,675	   0,0599424	192,6	   0,0592246	192,1
     42,6769	   0,0597846	192,5	   0,0591981	192,3
     42,6789	   0,0596907	192,1	   0,0590977	191,1
     42,6808	   0,0594777	192,6	   0,0589052	191,1
     42,6828	   0,0593003	192,4	   0,0586782	192,5
     42,6847	   0,0591861	193,2	   0,0584431	192,0
     42,6867	   0,0590205	192,1	   0,0582961	191,3
     42,6887	   0,0588407	193,4	   0,0580371	191,7
     42,6906	   0,0586582	194,0	   0,0578465	193,0
     42,6926	   0,0585031	194,0	   0,0577269	193,2
     42,6945	   0,0583459	193,2	   0,0575495	192,2
     42,6965	    0,058228	193,0	     0,05753	193,1
     42,6984	   0,0580799	193,8	   0,0573806	193,1
     42,7004	   0,0578892	195,0	   0,0572584	194,3
     42,7023	   0,0576645	194,5	   0,0572763	193,3
     42,7043	   0,0575341	194,2	   0,0570101	193,0
     42,7063	   0,0573475	194,7	   0,0568745	193,1
     42,7082	   0,0572005	195,9	   0,0569425	194,7
     42,7102	   0,0569641	194,3	   0,0566403	194,9
     42,7121	    0,056832	195,1	   0,0564332	194,4
     42,7141	   0,0568181	195,2	   0,0563583	194,8
      42,716	   0,0566478	196,0	    0,056221	194,7
      42,718	   0,0564642	196,7	   0,0561374	196,0
     42,7199	    0,056392	195,8	   0,0559388	195,2
     42,7219	   0,0562188	195,7	   0,0557305	195,7
     42,7239	   0,0560824	196,5	   0,0556241	194,5
     42,7258	   0,0558805	196,9	   0,0555077	195,8
     42,7278	   0,0556556	197,0	   0,0553707	196,8
     42,7297	   0,0555712	197,3	   0,0551514	195,5
     42,7317	   0,0554964	197,6	   0,0549659	197,0
     42,7336	    0,055341	197,2	   0,0548651	196,9
     42,7356	   0,0551398	197,9	   0,0547345	197,4
     42,7375	   0,0550304	197,5	   0,0545236	197,9
     42,7395	   0,0548397	197,9	   0,0545101	198,3
     42,7414	    0,054701	198,2	   0,0543933	197,1
     42,7434	   0,0545178	198,2	   0,0542207	196,5
     42,7454	   0,0542998	198,2	   0,0540176	198,2
     42,7473	   0,0541761	198,8	   0,0538603	198,8
     42,7493	   0,0540099	197,9	   0,0536419	197,9
     42,7512	   0,0538296	198,4	   0,0534833	197,8
     42,7532	   0,0537331	199,1	   0,0533836	198,4
     42,7551	   0,0535317	199,3	   0,0532963	199,2
     42,7571	   0,0534046	199,0	    0,053164	198,9
      42,759	   0,0532489	199,5	   0,0530445	198,4
      42,761	   0,0531202	199,0	   0,0528972	198,5
      42,763	   0,0529209	-159,1	   0,0527494	199,4
     42,7649	   0,0528624	-159,8	    0,052568	-159,9
     42,7669	   0,0527586	-160,3	   0,0525203	-160,3
     42,7688	   0,0526726	-160,7	   0,0522663	-160,3
     42,7708	   0,0524302	-159,0	   0,0521542	-161,0
     42,7727	   0,0523092	-159,0	    0,052049	-159,3
     42,7747	   0,0520654	-159,3	   0,0519277	-160,1
     42,7766	   0,0519886	-159,3	   0,0517693	-160,3
     42,7786	   0,0518673	-158,8	   0,0516665	-160,3
     42,7805	   0,0517983	-159,4	   0,0514466	-159,2
     42,7825	   0,0516339	-158,2	   0,0513576	-160,4
     42,7845	   0,0514381	-158,9	   0,0511414	-159,6
     42,7864	    0,051231	-159,4	   0,0510114	-159,4
     42,7884	   0,0511041	-159,0	   0,0508633	-159,3
     42,7903	   0,0509751	-159,9	   0,0508002	-160,6
     42,7923	   0,0509295	-158,3	   0,0506223	-158,4
     42,7942	   0,0508516	-158,5	   0,0504869	-159,5
     42,7962	   0,0506475	-159,3	   0,0503103	-159,9
     42,7981	   0,0505353	-158,8	   0,0503039	-159,1
     42,8001	   0,0504018	-157,3	    0,050112	-157,8
     42,8021	   0,0502316	-157,4	   0,0499324	-158,5
      42,804	   0,0499981	-158,1	   0,0497767	-159,5
      42,806	   0,0498791	-158,3	   0,0496354	-159,4
     42,8079	   0,0497065	-157,8	   0,0495088	-158,4
     42,8099	   0,0496037	-157,3	   0,0493967	-157,7
     42,8118	   0,0494944	-157,6	   0,0492444	-158,4
     42,8138	   0,0493717	-157,6	    0,049123	-158,2
     42,8157	   0,0492135	-156,7	   0,0489187	-157,3
     42,8177	   0,0490632	-157,0	   0,0488337	-157,7
     42,8196	   0,0489189	-156,6	   0,0486119	-157,6
     42,8216	   0,0487379	-156,0	   0,0485563	-156,4
     42,8236	   0,0486395	-157,2	   0,0483532	-156,1
     42,8255	   0,0485349	-156,3	   0,0482088	-158,3
     42,8275	   0,0483859	-156,0	   0,0483008	-156,4
     42,8294	   0,0481757	-154,9	   0,0480266	-154,7
     42,8314	   0,0480042	-155,7	   0,0479141	-155,5
     42,8333	   0,0478703	-155,5	     0,04772	-155,8
     42,8353	   0,0477705	-155,6	   0,0476432	-156,4
     42,8372	    0,047637	-155,1	   0,0474029	-156,8
     42,8392	   0,0474955	-155,5	   0,0472922	-155,7
     42,8412	   0,0473603	-153,8	   0,0470836	-155,4
     42,8431	   0,0473485	-154,8	   0,0471276	-154,5
     42,8451	   0,0472277	-154,8	   0,0470767	-155,3
      42,847	    0,047002	-154,2	   0,0469909	-156,9
      42,849	   0,0468602	-154,0	    0,046834	-154,3
     42,8509	   0,0467123	-153,7	   0,0467063	-155,6
     42,8529	   0,0466305	-154,0	   0,0465282	-154,5
     42,8548	   0,0463853	-154,6	   0,0464121	-155,4
     42,8568	   0,0462922	-154,5	   0,0462168	-155,1
     42,8587	   0,0461397	-154,7	   0,0460424	-155,2
     42,8607	    0,045939	-154,7	   0,0459635	-154,9
     42,8627	   0,0458528	-154,0	   0,0458792	-154,6
     42,8646	   0,0457585	-154,9	   0,0457477	-154,4
     42,8666	    0,045719	-155,1	   0,0455919	-156,1
     42,8685	   0,0456156	-154,0	   0,0453491	-154,9
     42,8705	    0,045517	-153,6	   0,0452981	-154,3
     42,8724	   0,0453784	-154,1	   0,0452524	-154,2
     42,8744	   0,0452953	-152,9	   0,0451333	-154,0
     42,8763	   0,0451614	-153,9	   0,0450839	-154,4
     42,8783	   0,0449877	-152,8	   0,0449723	-154,3
     42,8803	   0,0448698	-152,6	   0,0448617	-153,2
     42,8822	   0,0447025	-152,3	   0,0446769	-152,3
     42,8842	   0,0445577	-153,3	   0,0446681	-152,2
     42,8861	   0,0444217	-152,5	    0,044509	-153,9
     42,8881	   0,0442279	-151,4	   0,0443223	-153,8
       42,89	   0,0440621	-150,9	   0,0441199	-152,5
      42,892	   0,0440213	-152,0	   0,0440457	-152,5
     42,8939	   0,0438592	-152,8	   0,0439208	-152,4
     42,8959	    0,043799	-151,8	   0,0437958	-152,1
     42,8979	   0,0437333	-151,3	   0,0436836	-152,6
     42,8998	   0,0435968	-151,2	   0,0435929	-153,4
     42,9018	   0,0434526	-150,8	   0,0434524	-151,7
     42,9037	   0,0433038	-151,8	   0,0433378	-151,6
     42,9057	   0,0432224	-152,7	   0,0432419	-152,7
     42,9076	   0,0431135	-152,2	   0,0430546	-153,0
     42,9096	   0,0430459	-150,3	   0,0429704	-152,8
     42,9115	   0,0429121	-150,3	   0,0428564	-152,4
     42,9135	   0,0427888	-151,5	   0,0426652	-151,5
     42,9154	   0,0426322	-152,0	   0,0425381	-151,2
     42,9174	   0,0425302	-150,9	   0,0424696	-152,4
     42,9194	    0,042469	-150,7	   0,0423845	-152,0
     42,9213	   0,0423219	-150,4	   0,0421909	-151,4
     42,9233	   0,0422226	-151,4	   0,0420984	-150,8
     42,9252	   0,0421892	-150,6	   0,0419919	-150,5
     42,9272	   0,0420233	-151,7	   0,0418068	-149,8
     42,9291	   0,0418603	-150,6	   0,0417631	-150,6
     42,9311	   0,0417361	-150,1	   0,0416224	-150,7
      42,933	   0,0416774	-150,0	   0,0415281	-149,8
      42,935	   0,0416271	-151,8	   0,0414689	-149,9
      42,937	   0,0415223	-150,3	   0,0413029	-149,6
     42,9389	   0,0413042	-149,5	   0,0412754	-149,9
     42,9409	   0,0411154	-148,7	   0,0411052	-150,2
     42,9428	   0,0409453	-148,6	   0,0409428	-150,7
     42,9448	   0,0407896	-149,5	   0,0408423	-148,3
     42,9467	   0,0407061	-149,5	   0,0408768	-149,8
     42,9487	   0,0405358	-150,0	   0,0407128	-150,2
     42,9506	    0,040329	-148,0	   0,0406002	-150,5
     42,9526	   0,0403213	-148,4	   0,0404921	-150,2
     42,9545	    0,040355	-148,8	   0,0404071	-150,2
     42,9565	   0,0403012	-149,8	   0,0402503	-149,8
     42,9585	   0,0402573	-149,9	   0,0401429	-149,9
     42,9604	   0,0401278	-148,9	   0,0400024	-149,1
     42,9624	   0,0399509	-149,3	   0,0398616	-150,2
     42,9643	    0,039864	-148,4	   0,0397179	-149,1
     42,9663	   0,0397236	-148,5	   0,0395763	-148,7
     42,9682	   0,0394684	-149,3	   0,0394135	-148,4
     42,9702	   0,0394165	-149,1	   0,0393292	-148,1
     42,9721	   0,0392383	-148,4	   0,0392574	-148,0
     42,9741	   0,0391358	-147,7	   0,0391974	-148,7
     42,9761	   0,0390265	-149,1	   0,0391279	-148,7
      42,978	   0,0389923	-147,5	     0,03909	-147,1
       42,98	   0,0389431	-148,3	   0,0390315	-147,7
     42,9819	   0,0387731	-148,2	   0,0389003	-148,8
     42,9839	   0,0386628	-146,4	   0,0387765	-149,3
     42,9858	   0,0385592	-146,5	    0,038621	-148,5
     42,9878	   0,0384644	-146,4	   0,0385154	-149,6
     42,9897	   0,0383677	-147,5	   0,0384021	-147,3
     42,9917	   0,0382652	-147,7	   0,0383349	-147,6
     42,9936	   0,0381575	-147,4	    0,038153	-148,7
     42,9956	   0,0380614	-147,0	   0,0380494	-148,1
     42,9976	   0,0379668	-146,8	   0,0380376	-147,2
     42,9995	   0,0378488	-147,5	   0,0378838	-147,8
     43,0015	   0,0378636	-148,0	   0,0378058	-146,6
     43,0034	    0,037735	-146,9	   0,0376808	-147,0
     43,0054	   0,0375646	-147,4	   0,0375751	-147,8
     43,0073	   0,0374969	-146,3	   0,0374378	-147,4
     43,0093	   0,0373991	-146,0	   0,0372984	-146,0
     43,0112	    0,037277	-147,4	    0,037212	-145,9
     43,0132	   0,0371354	-146,8	   0,0371365	-145,3
     43,0152	   0,0370433	-146,4	   0,0371164	-145,5
     43,0171	   0,0369418	-146,2	   0,0371273	-146,9
     43,0191	    0,036866	-146,1	   0,0368357	-147,9
      43,021	   0,0368105	-145,3	   0,0367603	-147,7
      43,023	    0,036754	-146,6	   0,0366926	-146,2
     43,0249	   0,0366651	-146,6	   0,0365731	-146,8
     43,0269	   0,0365088	-145,8	   0,0364874	-147,0
     43,0288	   0,0362671	-144,9	   0,0363101	-147,2
     43,0308	    0,036272	-145,2	   0,0363033	-146,4
     43,0327	   0,0361281	-146,0	   0,0362327	-146,6
     43,0347	   0,0360689	-145,9	   0,0360736	-146,3
     43,0367	   0,0359097	-146,2	   0,0359504	-145,3
     43,0386	   0,0358832	-146,6	   0,0358827	-144,4
     43,0406	   0,0358042	-145,2	   0,0357756	-145,7
     43,0425	   0,0356898	-145,3	   0,0356991	-146,9
     43,0445	   0,0355424	-145,7	   0,0356143	-145,6
     43,0464	   0,0355114	-145,8	   0,0355211	-145,3
     43,0484	   0,0354323	-145,9	   0,0354844	-145,8
     43,0503	   0,0353913	-144,6	   0,0353827	-145,3
     43,0523	   0,0352259	-144,1	   0,0353367	-145,7
     43,0543	   0,0351081	-143,4	   0,0352819	-145,6
     43,0562	   0,0349705	-145,1	   0,0352277	-145,8
     43,0582	   0,0349049	-145,2	   0,0350862	-145,6
     43,0601	   0,0348298	-144,3	   0,0349442	-144,9
     43,0621	   0,0347289	-144,8	   0,0348428	-144,7
      43,064	   0,0346896	-144,6	   0,0347308	-144,2
      43,066	   0,0345948	-144,6	   0,0346673	-145,8
     43,0679	     0,03463	-144,4	   0,0345543	-145,3
     43,0699	   0,0345477	-145,6	    0,034378	-143,7
     43,0718	   0,0344915	-145,7	   0,0342596	-144,0
     43,0738	   0,0343191	-144,4	   0,0341793	-143,5
     43,0758	   0,0342034	-144,0	   0,0341281	-143,8
     43,0777	   0,0340363	-144,5	   0,0340492	-144,6
     43,0797	   0,0339384	-143,5	   0,0340136	-145,5
     43,0816	   0,0337869	-144,5	    0,033969	-144,8
     43,0836	   0,0337134	-144,0	   0,0337983	-144,4
     43,0855	   0,0336304	-143,3	   0,0336837	-144,4
     43,0875	   0,0335667	-142,5	   0,0336511	-143,9
     43,0894	   0,0335263	-143,0	   0,0335727	-143,2
     43,0914	   0,0333984	-142,6	   0,0334726	-144,5
     43,0934	   0,0333565	-143,6	   0,0332833	-144,3
     43,0953	   0,0332567	-144,2	   0,0332467	-142,8
     43,0973	   0,0331256	-145,6	   0,0332361	-144,1
     43,0992	   0,0330362	-143,7	    0,033083	-142,1
     43,1012	   0,0329678	-143,2	   0,0330637	-142,9
     43,1031	   0,0329316	-143,7	   0,0330109	-143,7
     43,1051	   0,0329338	-142,8	   0,0328221	-144,1
      43,107	   0,0327787	-143,1	   0,0327449	-144,1
      43,109	   0,0326728	-143,5	   0,0326546	-143,9
     43,1109	   0,0325622	-142,6	   0,0324995	-143,6
     43,1129	   0,0324923	-142,4	   0,0325455	-142,6
     43,1149	   0,0323697	-141,8	   0,0323552	-143,5
     43,1168	   0,0322782	-141,8	   0,0322761	-142,2
     43,1188	   0,0321738	-143,1	   0,0321948	-143,2
     43,1207	   0,0322209	-143,8	   0,0321786	-142,8
     43,1227	   0,0321722	-143,0	   0,0320903	-142,4
     43,1246	   0,0320909	-143,1	   0,0321003	-141,5
     43,1266	   0,0319583	-141,3	   0,0319251	-142,7
     43,1285	   0,0318761	-141,4	   0,0318934	-142,7
     43,1305	   0,0317638	-143,1	   0,0318015	-143,3
     43,1325	   0,0316955	-142,1	   0,0316892	-143,9
     43,1344	   0,0315522	-143,3	    0,031633	-142,7
     43,1364	   0,0315073	-142,2	   0,0315624	-142,4
     43,1383	    0,031455	-141,7	   0,0314715	-143,2
     43,1403	   0,0314036	-140,2	   0,0313753	-141,5
     43,1422	   0,0313174	-141,2	   0,0313069	-142,7
     43,1442	    0,031187	-141,5	   0,0311576	-142,3
     43,1461	   0,0311083	-141,6	   0,0309592	-142,3
     43,1481	   0,0310315	-142,7	   0,0309567	-141,6
       43,15	   0,0309494	-142,0	   0,0308448	-140,6
      43,152	   0,0308897	-142,2	   0,0307902	-142,0
      43,154	   0,0309004	-141,0	   0,0307669	-141,9
     43,1559	   0,0307763	-141,2	   0,0308595	-142,5
     43,1579	   0,0307093	-142,4	    0,030713	-142,3
     43,1598	    0,030552	-141,3	   0,0306158	-142,5
     43,1618	   0,0304197	-141,7	   0,0305666	-142,2
     43,1637	   0,0304228	-140,5	   0,0304541	-141,3
     43,1657	   0,0304458	-141,5	   0,0303823	-141,4
     43,1676	   0,0302823	-140,0	   0,0302552	-141,5
     43,1696	   0,0303603	-139,3	   0,0301155	-141,2
     43,1716	   0,0301476	-141,5	   0,0300507	-141,1
     43,1735	   0,0300347	-142,4	   0,0299095	-140,8
     43,1755	   0,0300648	-141,1	   0,0299424	-140,8
     43,1774	   0,0299588	-141,2	   0,0299541	-141,3
     43,1794	    0,029795	-140,0	   0,0298765	-140,6
     43,1813	   0,0297508	-140,8	   0,0297274	-141,5
     43,1833	     0,02985	-141,2	   0,0297127	-142,7
     43,1852	   0,0296718	-140,4	   0,0295884	-141,8
     43,1872	    0,029473	-141,1	   0,0295147	-141,0
     43,1891	   0,0294291	-140,9	   0,0294418	-140,6
     43,1911	   0,0293547	-139,8	   0,0292902	-140,0
     43,1931	   0,0293303	-140,3	   0,0292279	-139,0
      43,195	    0,029239	-139,5	    0,029201	-139,8
      43,197	    0,029036	-140,6	   0,0291337	-140,9
     43,1989	    0,029027	-141,4	   0,0290814	-141,9
     43,2009	   0,0289868	-140,3	   0,0289965	-141,9
     43,2028	    0,028845	-140,4	   0,0289276	-141,5
     43,2048	   0,0287031	-140,1	   0,0288691	-140,4
     43,2067	   0,0286925	-139,3	   0,0287932	-139,7
     43,2087	   0,0286974	-138,6	   0,0287495	-140,5
     43,2107	   0,0286967	-139,2	   0,0285743	-139,9
     43,2126	   0,0286216	-140,0	   0,0285214	-140,4
     43,2146	   0,0285706	-138,7	   0,0284597	-140,3
     43,2165	   0,0284027	-140,2	   0,0284702	-139,1
     43,2185	   0,0282282	-139,4	   0,0284215	-138,9
     43,2204	   0,0282715	-139,9	   0,0283233	-139,4
     43,2224	   0,0281043	-139,1	   0,0282424	-139,8
     43,2243	   0,0280385	-140,1	   0,0281355	-140,6
     43,2263	   0,0281259	-140,6	   0,0281308	-140,7
     43,2282	   0,0280125	-140,0	   0,0280334	-140,5
     43,2302	   0,0279321	-138,6	   0,0279615	-139,4
     43,2322	   0,0277816	-138,5	   0,0279217	-139,6
     43,2341	   0,0278034	-138,3	    0,027755	-139,0
     43,2361	   0,0277985	-138,2	   0,0276903	-138,6
      43,238	    0,027705	-139,2	    0,027591	-139,1
       43,24	   0,0276434	-139,8	   0,0275737	-139,4
     43,2419	   0,0274414	-138,8	   0,0275492	-139,7
     43,2439	   0,0274518	-140,4	   0,0274746	-139,6
     43,2458	     0,02748	-140,1	   0,0274597	-139,2
     43,2478	   0,0273665	-138,4	   0,0273882	-138,3
     43,2498	   0,0272899	-138,5	   0,0273947	-137,7
     43,2517	   0,0272293	-138,3	   0,0272261	-139,7
     43,2537	   0,0270866	-138,5	   0,0271594	-138,3
     43,2556	   0,0270524	-138,6	     0,02703	-139,6
     43,2576	   0,0269849	-139,3	   0,0269154	-139,1
     43,2595	    0,026928	-138,0	   0,0269134	-139,9
     43,2615	   0,0268002	-137,3	    0,026861	-139,4
     43,2634	   0,0268135	-138,2	   0,0268085	-139,4
     43,2654	   0,0267106	-138,4	   0,0268266	-138,8
     43,2673	   0,0266827	-138,8	   0,0267122	-139,2
     43,2693	   0,0266302	-140,0	   0,0266536	-138,8
     43,2713	   0,0265921	-139,0	   0,0266526	-138,0
     43,2732	   0,0265713	-137,3	   0,0265921	-138,9
     43,2752	   0,0263433	-136,9	   0,0264659	-139,3
     43,2771	   0,0263823	-137,2	   0,0263391	-138,0
     43,2791	   0,0262547	-137,4	    0,026237	-139,1
      43,281	   0,0261633	-138,0	   0,0262492	-138,2
      43,283	   0,0261681	-138,6	   0,0262775	-138,0
     43,2849	   0,0260074	-139,8	   0,0262185	-139,3
     43,2869	    0,026303	-139,3	   0,0261043	-139,0
     43,2889	   0,0258248	-137,2	   0,0260542	-138,8
     43,2908	   0,0259812	-137,8	   0,0259278	-138,2
     43,2928	   0,0260846	-137,6	   0,0257508	-137,1
     43,2947	   0,0258465	-137,8	    0,025764	-137,7
     43,2967	   0,0257028	-136,4	   0,0257346	-137,4
     43,2986	    0,025569	-138,8	    0,025811	-137,7
     43,3006	   0,0256136	-138,5	   0,0257326	-138,5
     43,3025	   0,0256311	-137,8	   0,0256937	-138,9
     43,3045	   0,0255393	-138,6	   0,0256038	-139,2
     43,3064	   0,0254612	-137,2	    0,025483	-138,9
     43,3084	   0,0253732	-137,0	   0,0253458	-137,0
     43,3104	   0,0252928	-138,1	   0,0251991	-137,2
     43,3123	   0,0252588	-136,8	   0,0252037	-135,9
     43,3143	   0,0252538	-137,3	   0,0252401	-136,7
     43,3162	    0,025115	-138,0	   0,0252905	-136,7
     43,3182	   0,0251107	-138,3	   0,0252714	-139,2
     43,3201	   0,0249735	-137,4	    0,025132	-138,6
     43,3221	   0,0250296	-138,2	   0,0249709	-138,4
      43,324	   0,0250131	-137,1	    0,024942	-137,8
      43,326	   0,0249754	-136,3	   0,0248163	-137,7
      43,328	   0,0249028	-137,1	   0,0247644	-136,2
     43,3299	   0,0246191	-136,0	   0,0247761	-136,9
     43,3319	   0,0246031	-137,1	   0,0247222	-136,4
     43,3338	   0,0245583	-137,1	    0,024608	-137,2
     43,3358	    0,024481	-136,2	   0,0245168	-137,1
     43,3377	   0,0244538	-136,9	   0,0244673	-137,7
     43,3397	   0,0244266	-136,5	   0,0244827	-137,4
     43,3416	   0,0245133	-136,6	   0,0243607	-138,3
     43,3436	   0,0244414	-137,9	   0,0243594	-136,4
     43,3456	   0,0243114	-136,8	   0,0243335	-136,3
     43,3475	   0,0242166	-136,2	   0,0243622	-136,1
     43,3495	   0,0241464	-137,1	   0,0242275	-136,0
     43,3514	   0,0240989	-137,0	   0,0241477	-137,5
     43,3534	   0,0241202	-135,7	   0,0240914	-137,3
     43,3553	   0,0240231	-136,9	    0,024067	-137,2
     43,3573	   0,0239283	-136,1	   0,0239925	-137,4
     43,3592	   0,0238795	-137,1	   0,0239328	-136,2
     43,3612	   0,0239051	-137,9	   0,0238811	-136,1
     43,3631	   0,0238645	-137,2	   0,0238108	-136,6
     43,3651	   0,0237708	-137,8	   0,0237433	-135,9
     43,3671	   0,0237676	-136,4	   0,0236327	-137,1
      43,369	   0,0236991	-134,9	    0,023708	-137,4
      43,371	   0,0235237	-135,3	   0,0235928	-137,3
     43,3729	   0,0235444	-137,1	   0,0235226	-137,8
     43,3749	   0,0235368	-136,0	   0,0234411	-137,0
     43,3768	   0,0234736	-135,7	   0,0234338	-135,8
     43,3788	   0,0234301	-137,1	    0,023375	-135,6
     43,3807	   0,0233654	-136,7	   0,0233184	-135,2
     43,3827	   0,0233236	-136,5	   0,0232425	-135,5
     43,3847	   0,0231321	-135,8	    0,023265	-135,8
     43,3866	   0,0230792	-134,8	   0,0231886	-136,5
     43,3886	   0,0230051	-135,5	   0,0231901	-137,6
     43,3905	   0,0230501	-135,2	   0,0230733	-136,9
     43,3925	   0,0231152	-136,1	   0,0229794	-136,4
     43,3944	   0,0230842	-136,1	   0,0230011	-136,1
     43,3964	   0,0229459	-135,4	   0,0229566	-135,0
     43,3983	   0,0227466	-136,6	   0,0229914	-135,0
     43,4003	   0,0226904	-136,8	   0,0228775	-135,9
     43,4022	   0,0227743	-135,1	   0,0227405	-136,3
     43,4042	   0,0227964	-134,8	   0,0226239	-136,6
     43,4062	   0,0227265	-135,5	   0,0225783	-136,2
     43,4081	   0,0226124	-134,8	   0,0226043	-136,8
     43,4101	   0,0225378	-135,5	   0,0225963	-136,1
      43,412	   0,0225259	-135,9	   0,0225111	-135,2
      43,414	   0,0224654	-135,2	   0,0225132	-135,0
     43,4159	   0,0224305	-135,6	   0,0224711	-134,7
     43,4179	   0,0223574	-135,3	   0,0223895	-135,2
     43,4198	   0,0223018	-135,3	   0,0223757	-135,5
     43,4218	   0,0222923	-136,0	   0,0222804	-136,4
     43,4238	   0,0222195	-135,3	   0,0222646	-136,7
     43,4257	   0,0221503	-135,4	   0,0222362	-136,2
     43,4277	   0,0221452	-134,7	   0,0221421	-136,0
     43,4296	   0,0221257	-134,9	   0,0220387	-135,0
     43,4316	   0,0220232	-135,7	   0,0221308	-134,3
     43,4335	   0,0219383	-134,4	   0,0221453	-135,4
     43,4355	   0,0218691	-134,6	   0,0219343	-135,1
     43,4374	   0,0217386	-135,8	   0,0217937	-135,0
     43,4394	    0,021795	-135,5	   0,0217603	-135,6
     43,4413	   0,0218731	-136,3	   0,0216097	-134,2
     43,4433	   0,0218839	-135,1	   0,0216742	-134,5
     43,4453	   0,0218253	-134,6	   0,0217675	-135,7
     43,4472	   0,0216476	-134,3	   0,0217126	-136,1
     43,4492	   0,0216087	-133,6	     0,02157	-136,0
     43,4511	   0,0214638	-133,5	   0,0215684	-136,6
     43,4531	   0,0214586	-135,0	   0,0215383	-134,8
      43,455	   0,0215463	-135,7	   0,0214387	-135,0
      43,457	    0,021645	-135,7	    0,021365	-134,2
     43,4589	   0,0215579	-135,0	   0,0212883	-134,0
     43,4609	   0,0213841	-134,5	   0,0212263	-133,9
     43,4629	   0,0212008	-133,9	    0,021305	-135,1
     43,4648	   0,0211993	-133,8	   0,0211325	-135,4
     43,4668	   0,0211318	-133,2	   0,0211744	-135,4
     43,4687	    0,020973	-133,4	   0,0210703	-135,4
     43,4707	   0,0209624	-135,1	   0,0210272	-135,1
     43,4726	    0,021087	-135,7	   0,0209949	-134,2
     43,4746	    0,021109	-135,3	     0,02106	-133,9
     43,4765	   0,0210181	-135,3	   0,0209657	-134,5
     43,4785	   0,0209385	-134,4	   0,0208976	-135,3
     43,4804	   0,0208203	-134,1	   0,0207666	-135,4
     43,4824	   0,0207796	-134,9	    0,020702	-134,5
     43,4844	   0,0207514	-133,5	   0,0207813	-134,6
     43,4863	   0,0207689	-134,5	   0,0208065	-133,8
     43,4883	   0,0207501	-134,7	   0,0206923	-134,2
     43,4902	   0,0207304	-133,1	   0,0207152	-134,8
     43,4922	   0,0206211	-134,6	     0,02058	-134,7
     43,4941	    0,020516	-133,6	   0,0204164	-134,4
     43,4961	   0,0204165	-133,7	   0,0203779	-134,3
      43,498	    0,020422	-134,3	   0,0204458	-133,1
        43,5	   0,0205094	-133,3	   0,0204618	-134,7

