X-Data [Hz]	Laser (M - Filtered) [m/s]	Phase [Deg]	Laser (M - Filtered) [m/s]	Phase [Deg]	
	003: [06-27-24 10:45]		005: [06-27-24 10:50]	
         155	    0,027207	58,2	   0,0270861	56,3
     155,044	   0,0279268	56,7	     0,02676	55,8
     155,088	   0,0291346	54,4	   0,0272253	55,7
     155,132	   0,0287871	57,7	   0,0277635	56,7
     155,176	   0,0291899	57,9	   0,0275965	56,0
      155,22	   0,0297993	56,6	   0,0283732	55,1
     155,264	   0,0296963	56,6	    0,028451	57,1
     155,308	   0,0301236	57,2	   0,0277955	55,2
     155,352	   0,0301203	58,0	   0,0288759	55,6
     155,396	    0,030077	57,1	   0,0289606	58,1
      155,44	     0,03124	54,5	   0,0292735	57,0
     155,484	   0,0304844	57,6	   0,0291711	57,0
     155,528	   0,0317053	55,9	   0,0292236	57,6
     155,572	   0,0309857	59,0	   0,0302391	56,6
     155,616	   0,0318529	57,7	   0,0296266	57,1
      155,66	   0,0318601	56,3	   0,0304999	57,9
     155,704	   0,0326875	55,6	   0,0302194	58,1
     155,748	   0,0322299	58,6	   0,0313207	57,5
     155,792	   0,0329585	58,0	   0,0309034	55,9
     155,836	   0,0328801	57,6	   0,0318084	57,7
      155,88	   0,0341183	56,7	   0,0312011	56,7
     155,924	    0,033092	58,6	   0,0323288	57,1
     155,968	    0,034368	54,9	   0,0327681	56,9
     156,012	    0,033775	57,7	   0,0321972	57,6
     156,056	   0,0345102	56,1	   0,0338474	56,5
       156,1	    0,035874	57,3	   0,0324392	56,4
     156,144	   0,0350818	55,9	   0,0340207	59,0
     156,188	   0,0363448	57,0	   0,0343329	55,9
     156,232	   0,0360845	56,7	    0,033891	58,8
     156,276	   0,0363117	56,3	   0,0350561	56,8
      156,32	   0,0370406	57,6	   0,0347821	57,6
     156,364	   0,0364498	59,1	   0,0346624	59,0
     156,408	   0,0378353	58,7	   0,0358601	58,2
     156,452	   0,0379829	58,0	   0,0358152	58,6
     156,496	   0,0380043	57,6	   0,0358018	58,3
      156,54	    0,038408	57,7	    0,036707	57,5
     156,584	   0,0384983	55,9	   0,0372547	57,9
     156,628	   0,0392292	57,7	   0,0373118	55,7
     156,672	   0,0396937	57,6	   0,0379197	57,0
     156,716	   0,0402527	56,9	   0,0379251	59,7
      156,76	   0,0404253	59,0	    0,038789	56,6
     156,804	   0,0409651	58,1	   0,0392835	57,5
     156,848	   0,0414409	57,6	   0,0394636	57,2
     156,891	   0,0419906	58,3	   0,0396299	58,3
     156,935	   0,0422514	59,2	   0,0407257	56,1
     156,979	   0,0432077	56,6	   0,0408689	57,9
     157,023	   0,0427989	56,5	   0,0408481	58,1
     157,067	   0,0432825	58,8	   0,0414915	57,4
     157,111	   0,0446233	56,5	   0,0421335	56,3
     157,155	   0,0445531	58,8	   0,0428541	58,0
     157,199	   0,0452952	59,0	   0,0432684	57,8
     157,243	   0,0455661	59,3	   0,0436765	58,5
     157,287	   0,0464904	57,9	   0,0438673	57,5
     157,331	   0,0468122	58,0	   0,0445568	57,7
     157,375	   0,0470685	59,1	   0,0458254	57,5
     157,419	   0,0481229	57,5	   0,0457445	59,1
     157,463	   0,0489854	57,4	   0,0465631	57,7
     157,507	   0,0489573	57,7	   0,0469539	58,9
     157,551	   0,0493645	58,1	   0,0478256	57,8
     157,595	   0,0507553	57,8	   0,0479424	59,2
     157,639	    0,051654	58,9	    0,048317	59,4
     157,683	   0,0524218	58,1	   0,0490541	57,3
     157,727	   0,0532551	55,7	   0,0499976	57,8
     157,771	   0,0536625	60,1	   0,0506852	57,3
     157,815	   0,0540206	59,3	   0,0507386	59,4
     157,859	   0,0559483	58,9	   0,0524814	57,0
     157,903	   0,0557768	59,3	    0,052854	58,2
     157,947	   0,0569039	59,0	   0,0537697	58,8
     157,991	   0,0579719	58,9	   0,0538247	59,4
     158,035	   0,0584484	59,6	   0,0547388	57,3
     158,079	   0,0591529	59,3	   0,0550918	58,5
     158,123	   0,0600224	58,5	   0,0563139	58,7
     158,167	    0,060512	58,0	   0,0566935	60,6
     158,211	   0,0614803	60,5	   0,0571784	57,3
     158,255	   0,0622586	60,3	   0,0580428	59,0
     158,299	   0,0634988	60,5	   0,0590985	58,9
     158,343	   0,0644592	59,0	   0,0601237	58,0
     158,387	   0,0647104	59,9	   0,0608243	60,5
     158,431	   0,0660165	60,5	     0,06211	59,6
     158,475	   0,0677377	61,0	   0,0629709	58,5
     158,519	    0,069614	59,0	   0,0637749	57,7
     158,563	   0,0707038	58,1	   0,0644994	59,6
     158,607	   0,0713077	57,2	   0,0655784	61,1
     158,651	   0,0728576	60,0	   0,0666816	60,1
     158,695	   0,0736998	60,1	   0,0678459	58,4
     158,739	   0,0744125	58,6	   0,0695554	59,8
     158,783	   0,0753104	60,7	   0,0698016	60,9
     158,827	   0,0778362	58,5	    0,071637	58,0
     158,871	   0,0794381	60,8	   0,0729371	59,1
     158,915	   0,0805629	57,7	   0,0733128	61,0
     158,959	   0,0822287	60,5	   0,0758394	60,1
     159,003	   0,0837234	58,8	   0,0769633	60,2
     159,047	   0,0852932	61,5	   0,0777155	59,0
     159,091	   0,0874839	59,7	   0,0795808	60,2
     159,135	   0,0881604	60,9	    0,080094	61,9
     159,179	   0,0900286	60,2	   0,0807046	59,0
     159,223	   0,0923039	61,3	   0,0834076	61,8
     159,267	   0,0938803	61,7	   0,0844031	59,3
     159,311	   0,0956605	59,6	   0,0862643	60,6
     159,355	   0,0968596	62,4	   0,0878119	60,2
     159,399	   0,0995736	62,1	   0,0903116	60,4
     159,443	    0,100786	63,4	   0,0914353	61,9
     159,487	    0,103027	61,4	    0,094232	61,0
     159,531	    0,105156	63,7	   0,0947903	60,7
     159,575	     0,10711	59,7	   0,0966722	60,7
     159,619	    0,108722	62,3	   0,0997702	60,4
     159,663	    0,111434	61,8	    0,100871	60,0
     159,707	    0,113473	61,9	    0,102601	62,1
     159,751	     0,11536	61,5	    0,104852	61,6
     159,795	    0,118074	62,5	    0,106709	61,0
     159,839	    0,120152	63,3	    0,109413	63,2
     159,883	    0,121941	62,9	    0,110985	61,2
     159,927	    0,123858	65,9	    0,113823	62,5
     159,971	    0,126734	66,3	    0,115994	63,2
     160,015	    0,130067	63,5	    0,117991	64,0
     160,059	     0,13165	63,4	    0,120467	61,7
     160,103	    0,134008	64,1	    0,123744	60,4
     160,147	    0,136815	63,2	    0,125366	63,9
     160,191	     0,13935	65,0	    0,127639	62,9
     160,235	    0,141037	63,1	    0,130231	61,6
     160,279	    0,144952	63,3	    0,132259	62,3
     160,323	    0,146607	65,2	    0,135237	65,2
     160,367	    0,149536	65,1	    0,137817	61,3
     160,411	    0,151702	63,8	    0,139994	64,0
     160,455	    0,154759	63,2	    0,142769	63,5
     160,499	    0,156819	67,0	    0,145024	65,9
     160,543	    0,159014	65,3	    0,148439	64,1
     160,587	    0,161697	63,8	     0,15037	63,2
      160,63	    0,164365	64,4	    0,153254	64,3
     160,674	    0,166444	66,1	    0,155344	65,1
     160,718	    0,169589	68,5	    0,158414	65,1
     160,762	    0,172415	66,6	    0,160813	62,9
     160,806	    0,174666	66,1	    0,163298	65,5
      160,85	     0,17659	66,8	    0,165273	64,1
     160,894	    0,179877	65,9	    0,168018	66,4
     160,938	    0,182537	66,8	    0,170358	64,3
     160,982	    0,184936	66,2	    0,173499	67,5
     161,026	    0,188562	67,7	    0,175444	66,8
      161,07	    0,189785	70,0	    0,179037	62,1
     161,114	    0,192447	67,2	    0,180802	64,5
     161,158	    0,195019	67,6	    0,184009	65,4
     161,202	    0,197056	68,6	    0,186303	65,7
     161,246	     0,19981	68,6	    0,188673	67,8
      161,29	    0,202662	67,5	    0,191187	65,5
     161,334	     0,20532	70,0	    0,194029	67,5
     161,378	    0,208648	68,9	    0,196487	66,0
     161,422	    0,209859	68,0	    0,198555	65,9
     161,466	     0,21216	67,4	    0,201566	68,9
      161,51	    0,215025	69,3	     0,20371	66,8
     161,554	    0,218415	69,5	     0,20521	69,4
     161,598	     0,21965	70,5	    0,208727	66,4
     161,642	    0,222737	68,5	    0,211824	66,3
     161,686	    0,224842	70,4	    0,212551	68,8
      161,73	    0,227286	70,0	    0,216621	66,5
     161,774	    0,229262	70,5	    0,217996	67,3
     161,818	    0,232434	69,4	    0,221475	68,2
     161,862	    0,234289	68,7	    0,222604	69,0
     161,906	    0,236702	69,1	     0,22628	68,6
      161,95	    0,239124	69,7	    0,227557	70,1
     161,994	    0,241638	70,1	    0,230321	67,0
     162,038	    0,243959	70,1	    0,231941	68,8
     162,082	    0,246857	70,7	    0,234638	66,9
     162,126	    0,248903	70,0	    0,237174	68,6
      162,17	    0,250947	71,2	    0,239264	68,8
     162,214	    0,252972	72,8	    0,241239	70,7
     162,258	    0,254668	71,5	    0,243777	69,3
     162,302	    0,256719	72,0	    0,245904	69,1
     162,346	    0,258768	70,8	    0,248622	69,9
      162,39	    0,261408	68,8	    0,250529	69,3
     162,434	    0,263446	72,2	    0,252427	70,7
     162,478	    0,266563	71,9	    0,254711	70,9
     162,522	    0,268553	71,1	    0,257435	69,9
     162,566	    0,270948	71,1	    0,258533	71,6
      162,61	    0,273045	72,1	     0,26119	71,1
     162,654	    0,274531	71,1	    0,263983	70,2
     162,698	    0,277014	72,9	    0,264638	69,5
     162,742	    0,279565	74,9	    0,267156	71,5
     162,786	    0,281214	72,8	    0,269635	71,3
      162,83	    0,283146	73,4	    0,271043	72,5
     162,874	    0,285821	74,0	    0,225579	185,8
     162,918	    0,287911	72,8	    0,208947	-147,5
     162,962	    0,289049	75,5	    0,189587	-143,8
     163,006	    0,292028	71,8	    0,169419	-139,0
      163,05	    0,294766	71,4	    0,151354	-137,8
     163,094	     0,29647	71,6	    0,139546	-134,3
     163,138	     0,29832	74,7	    0,130732	-133,6
     163,182	    0,300232	72,8	    0,124766	-133,2
     163,226	    0,302296	74,8	     0,12004	-134,0
      163,27	    0,304219	72,6	     0,11422	-132,3
     163,314	    0,307105	72,6	    0,108802	-132,1
     163,358	    0,308971	72,6	    0,103423	-133,7
     163,402	    0,310442	74,3	    0,100124	-130,5
     163,446	    0,311767	76,2	   0,0965504	-131,6
      163,49	    0,314257	76,1	    0,094917	-132,1
     163,534	    0,316407	74,8	   0,0935121	-132,0
     163,578	    0,318055	77,0	   0,0895697	-132,9
     163,622	     0,32032	75,2	   0,0876151	-129,1
     163,666	    0,322037	73,8	   0,0869452	-131,8
      163,71	    0,323922	75,1	   0,0842157	-131,3
     163,754	    0,326178	74,9	   0,0826233	-130,5
     163,798	    0,327891	76,4	    0,080741	-132,8
     163,842	    0,329547	77,0	   0,0778769	-131,5
     163,886	    0,331678	76,2	   0,0757256	-131,8
      163,93	    0,333431	76,0	   0,0756713	-131,3
     163,974	    0,335294	74,6	   0,0752559	-130,3
     164,018	    0,336977	75,9	   0,0721473	-128,1
     164,062	    0,339347	78,0	   0,0711648	-134,0
     164,106	    0,341459	76,6	   0,0704526	-129,6
      164,15	      0,3433	74,7	   0,0688945	-130,2
     164,194	    0,344902	77,2	   0,0675942	-133,4
     164,238	    0,346864	76,4	   0,0669651	-131,1
     164,282	    0,348432	75,1	    0,066084	-129,7
     164,326	    0,351268	73,9	   0,0651147	-127,6
      164,37	     0,35292	77,1	   0,0639605	-131,7
     164,413	    0,354491	78,0	   0,0613244	-130,9
     164,457	    0,355376	77,8	   0,0629464	-129,6
     164,501	    0,356975	76,1	   0,0606786	-128,1
     164,545	    0,359444	77,0	   0,0599658	-130,4
     164,589	    0,361179	75,8	   0,0593097	-128,3
     164,633	    0,362839	78,0	   0,0582716	-128,7
     164,677	    0,364254	76,3	   0,0583364	-128,3
     164,721	    0,365783	76,6	   0,0565604	-127,4
     164,765	     0,36741	81,4	   0,0556069	-127,5
     164,809	    0,369434	74,6	   0,0555357	-129,1
     164,853	    0,371279	77,9	   0,0546292	-128,6
     164,897	    0,372622	76,7	   0,0534845	-129,7
     164,941	     0,37421	76,2	   0,0546672	-131,3
     164,985	    0,376277	75,7	   0,0523141	-130,5
     165,029	    0,377814	77,5	   0,0524959	-130,1
     165,073	    0,379381	78,7	   0,0515119	-131,0
     165,117	    0,380795	81,9	   0,0509957	-127,5
     165,161	    0,383347	78,1	   0,0507361	-130,5
     165,205	     0,38436	79,6	   0,0506657	-129,5
     165,249	    0,386688	78,3	   0,0501378	-127,7
     165,293	    0,388195	78,7	   0,0489399	-130,1
     165,337	    0,390532	76,6	    0,047975	-131,3
     165,381	    0,392219	78,7	   0,0490993	-127,0
     165,425	    0,393187	78,6	   0,0475235	-130,0
     165,469	    0,394857	77,8	   0,0468856	-127,4
     165,513	    0,396313	78,7	   0,0465169	-129,2
     165,557	      0,3982	78,4	   0,0461533	-128,5
     165,601	    0,399347	81,6	   0,0452734	-130,2
     165,645	    0,401067	82,5	   0,0459815	-128,2
     165,689	    0,402307	79,7	   0,0450679	-127,0
     165,733	    0,404023	80,2	   0,0449174	-128,9
     165,777	    0,406542	77,3	   0,0441361	-129,8
     165,821	    0,408468	80,3	   0,0439616	-129,8
     165,865	    0,410115	78,6	   0,0426544	-129,0
     165,909	    0,411404	78,6	   0,0426339	-128,8
     165,953	    0,412833	81,4	   0,0422108	-129,9
     165,997	    0,414819	79,6	   0,0415045	-127,3
     166,041	    0,415976	80,3	   0,0417602	-128,6
     166,085	     0,41762	80,1	   0,0414803	-128,9
     166,129	    0,419641	80,9	   0,0414596	-127,9
     166,173	     0,42063	81,7	   0,0405722	-130,1
     166,217	    0,422424	80,8	   0,0406058	-128,4
     166,261	    0,424165	81,2	   0,0397336	-129,6
     166,305	    0,426077	80,2	   0,0394503	-125,6
     166,349	    0,427129	81,8	   0,0395035	-127,7
     166,393	    0,429004	81,9	   0,0397151	-128,8
     166,437	    0,430011	84,5	   0,0387779	-129,5
     166,481	    0,431668	82,1	   0,0388466	-128,6
     166,525	    0,433584	79,2	   0,0379424	-128,8
     166,569	    0,434776	81,7	   0,0377708	-126,8
     166,613	    0,436619	81,9	    0,037345	-128,3
     166,657	      0,4381	81,3	   0,0371248	-129,8
     166,701	    0,439155	82,7	   0,0362157	-128,6
     166,745	    0,440964	82,9	   0,0365593	-127,6
     166,789	    0,442716	82,2	   0,0362175	-127,2
     166,833	    0,444364	83,5	   0,0359657	-126,3
     166,877	    0,445047	82,0	   0,0354892	-129,1
     166,921	    0,446277	82,7	   0,0350516	-127,7
     166,965	    0,448271	85,8	   0,0356746	-130,4
     167,009	    0,449058	84,7	   0,0353726	-127,3
     167,053	    0,451426	80,9	   0,0347869	-127,2
     167,097	    0,451957	82,8	   0,0343499	-127,0
     167,141	    0,454171	82,7	     0,03414	-127,1
     167,185	    0,456291	80,3	   0,0344725	-128,2
     167,229	    0,457011	81,8	    0,033669	-128,6
     167,273	    0,458373	82,6	   0,0331275	-129,5
     167,317	    0,460443	81,9	   0,0338532	-127,7
     167,361	    0,461472	83,0	    0,033552	-128,7
     167,405	    0,462962	83,3	    0,032587	-129,1
     167,449	    0,464392	82,2	   0,0328687	-126,1
     167,493	    0,465213	83,3	   0,0328481	-130,8
     167,537	    0,467076	81,4	   0,0319353	-127,0
     167,581	    0,468835	82,7	   0,0322781	-128,3
     167,625	    0,469399	85,9	   0,0324717	-128,4
     167,669	    0,471249	85,6	   0,0319715	-128,8
     167,713	    0,472613	84,5	   0,0315559	-128,2
     167,757	    0,474569	85,4	   0,0310561	-129,1
     167,801	    0,475505	86,6	   0,0316097	-125,6
     167,845	    0,477764	81,4	   0,0305984	-128,1
     167,889	    0,478349	83,7	   0,0314485	-128,8
     167,933	    0,479756	87,7	   0,0299259	-125,8
     167,977	    0,481319	83,3	    0,030115	-129,1
     168,021	    0,482361	84,4	   0,0300537	-129,0
     168,065	    0,484297	85,5	    0,030392	-128,8
     168,109	    0,485272	88,1	    0,030613	-127,9
     168,152	    0,486704	84,6	   0,0296137	-128,1
     168,196	     0,48831	83,3	    0,029834	-124,3
      168,24	    0,489688	84,3	   0,0295123	-127,7
     168,284	    0,490458	86,5	   0,0294516	-127,7
     168,328	    0,492063	87,4	   0,0289589	-127,7
     168,372	    0,493411	82,3	   0,0283104	-125,0
     168,416	    0,495099	85,1	   0,0284953	-129,8
      168,46	    0,496825	82,9	   0,0284651	-127,9
     168,504	    0,498037	86,3	   0,0277576	-128,2
     168,548	    0,498859	89,0	    0,028465	-127,7
     168,592	    0,500196	85,1	    0,027739	-128,2
     168,636	    0,501394	85,2	   0,0273828	-129,7
      168,68	    0,502763	88,9	   0,0285067	-126,3
     168,724	    0,504486	84,5	   0,0276601	-124,3
     168,768	    0,506132	83,2	   0,0271751	-126,5
     168,812	    0,507081	86,6	   0,0269278	-129,4
     168,856	     0,50855	84,5	   0,0278446	-127,2
       168,9	    0,509578	85,9	   0,0275762	-124,2
     168,944	     0,51193	87,3	   0,0269058	-127,3
     168,988	    0,512584	84,9	   0,0268511	-127,6
     169,032	    0,513896	88,1	    0,026643	-127,4
     169,076	    0,515429	86,9	   0,0264356	-126,0
      169,12	    0,517072	87,0	   0,0260463	-127,1
     169,164	    0,517743	89,5	    0,026182	-125,9
     169,208	    0,519183	88,1	    0,026187	-125,0
     169,252	    0,521289	88,8	   0,0260794	-127,0
     169,296	    0,522805	90,7	   0,0254069	-129,0
      169,34	    0,523818	89,7	   0,0254728	-126,9
     169,384	    0,525307	88,6	   0,0251438	-127,7
     169,428	    0,526742	85,6	   0,0251002	-125,8
     169,472	    0,527904	88,9	   0,0252396	-127,7
     169,516	    0,529236	87,4	   0,0253947	-128,2
      169,56	    0,530676	87,9	    0,024749	-129,6
     169,604	    0,531762	88,9	   0,0249122	-124,6
     169,648	    0,533173	88,0	   0,0244373	-127,6
     169,692	    0,534185	89,3	    0,024436	-130,3
     169,736	    0,535612	87,3	   0,0243824	-126,5
      169,78	    0,536919	87,9	   0,0244843	-125,7
     169,824	    0,538934	87,1	    0,024472	-126,1
     169,868	    0,540015	90,4	   0,0243271	-126,2
     169,912	    0,541295	88,0	    0,024481	-126,5
     169,956	     0,54282	86,0	   0,0240618	-126,0
         170	    0,543774	87,8	   0,0239475	-125,6
     170,044	    0,544954	89,5	   0,0237751	-127,0
     170,088	    0,546648	88,2	   0,0236153	-127,3
     170,132	    0,547288	87,3	   0,0234748	-127,5
     170,176	    0,549585	89,0	   0,0232922	-129,1
      170,22	    0,549632	90,6	    0,022891	-125,1
     170,264	    0,551289	89,7	   0,0233615	-127,7
     170,308	    0,552388	91,1	   0,0231719	-124,5
     170,352	    0,554322	88,6	   0,0231406	-127,7
     170,396	    0,555351	88,1	   0,0227445	-126,7
      170,44	    0,556572	90,6	   0,0223291	-126,4
     170,484	    0,557999	92,3	   0,0220831	-129,9
     170,528	    0,558957	90,4	   0,0222554	-127,5
     170,572	    0,560939	91,4	   0,0223878	-128,5
     170,616	    0,561551	89,3	   0,0225633	-127,1
      170,66	    0,562726	89,8	   0,0223197	-129,0
     170,704	    0,564307	88,5	   0,0227349	-126,3
     170,748	    0,565093	90,8	   0,0223369	-129,3
     170,792	    0,566828	88,1	   0,0217321	-127,0
     170,836	     0,56777	90,3	   0,0215772	-126,4
      170,88	    0,569206	89,6	   0,0221614	-126,5
     170,924	    0,570539	88,1	   0,0219637	-125,1
     170,968	    0,571541	89,7	   0,0217577	-129,4
     171,012	    0,573149	88,5	    0,021552	-127,0
     171,056	    0,573491	91,8	   0,0217685	-127,5
       171,1	    0,574917	90,9	    0,021461	-128,9
     171,144	    0,576293	89,6	   0,0207859	-127,0
     171,188	    0,578045	92,3	   0,0212665	-131,1
     171,232	    0,578774	90,4	   0,0210869	-124,4
     171,276	    0,580132	91,7	   0,0209952	-125,7
      171,32	    0,581329	93,7	   0,0211247	-128,7
     171,364	    0,583433	89,3	   0,0209629	-124,2
     171,408	     0,58414	91,1	   0,0207607	-128,9
     171,452	    0,585266	90,1	   0,0208594	-128,6
     171,496	    0,586376	91,6	   0,0208304	-126,8
      171,54	     0,58743	91,7	    0,020691	-126,1
     171,584	    0,589312	95,3	   0,0205709	-127,3
     171,628	    0,590468	91,2	   0,0203369	-126,7
     171,672	    0,591879	93,9	    0,020032	-128,6
     171,716	    0,592512	91,5	   0,0200494	-130,0
      171,76	     0,59433	90,4	   0,0202372	-127,6
     171,804	    0,595491	91,8	   0,0200044	-127,9
     171,848	    0,596731	92,0	     0,01989	-128,5
     171,891	    0,598232	92,6	   0,0198003	-126,3
     171,935	    0,599934	92,0	   0,0197465	-126,8
     171,979	    0,600662	92,8	   0,0197356	-125,9
     172,023	    0,601535	92,4	   0,0193009	-128,4
     172,067	    0,603003	92,5	   0,0195632	-131,1
     172,111	    0,604321	92,0	   0,0198352	-128,5
     172,155	    0,605344	92,4	   0,0194352	-125,6
     172,199	    0,606584	94,6	   0,0191136	-127,1
     172,243	    0,608172	94,0	   0,0193323	-129,0
     172,287	    0,609441	92,7	    0,019259	-127,5
     172,331	    0,610637	93,8	   0,0190303	-129,4
     172,375	    0,612375	92,9	   0,0188012	-129,1
     172,419	    0,613074	91,8	   0,0187165	-124,5
     172,463	    0,614554	94,6	   0,0188937	-128,8
     172,507	     0,61598	93,9	   0,0190312	-126,5
     172,551	     0,61675	91,7	   0,0187998	-126,5
     172,595	    0,618044	92,6	   0,0186982	-125,4
     172,639	    0,619003	93,9	   0,0188329	-126,4
     172,683	     0,62067	91,4	   0,0183251	-126,2
     172,727	    0,621994	92,3	   0,0183076	-129,2
     172,771	    0,622639	94,5	   0,0182839	-125,3
     172,815	    0,624518	95,9	   0,0182841	-127,2
     172,859	    0,625796	96,7	   0,0181522	-127,6
     172,903	    0,627014	94,7	    0,017923	-125,0
     172,947	    0,627606	94,1	   0,0179582	-127,5
     172,991	    0,628758	93,1	   0,0179181	-125,2
     173,035	    0,630245	94,1	   0,0182369	-127,5
     173,079	      0,6321	92,7	   0,0179941	-127,5
     173,123	    0,632506	95,5	   0,0183674	-128,1
     173,167	    0,633609	93,5	   0,0183509	-126,5
     173,211	    0,635331	94,5	   0,0181323	-126,6
     173,255	    0,636457	92,4	   0,0178149	-127,3
     173,299	     0,63788	97,6	   0,0180662	-127,0
     173,343	    0,639121	94,9	   0,0179526	-124,3
     173,387	    0,640473	93,7	   0,0172703	-126,2
     173,431	    0,641217	96,1	   0,0174877	-126,0
     173,475	    0,642268	96,6	   0,0175607	-131,4
     173,519	    0,643443	94,6	   0,0169695	-125,6
     173,563	    0,645042	98,2	   0,0174709	-129,6
     173,607	    0,646477	94,9	   0,0175514	-124,2
     173,651	    0,647896	94,7	   0,0171588	-126,3
     173,695	    0,648332	98,3	   0,0173521	-127,7
     173,739	    0,649588	93,9	   0,0173467	-123,1
     173,783	    0,651002	94,6	   0,0168929	-127,7
     173,827	    0,652034	97,2	   0,0167127	-127,8
     173,871	    0,653131	92,0	   0,0172559	-126,6
     173,915	    0,654462	94,6	   0,0168716	-126,1
     173,959	    0,655969	95,9	   0,0168946	-125,3
     174,003	    0,657509	94,5	   0,0170765	-127,5
     174,047	    0,658079	96,2	   0,0167475	-126,8
     174,091	    0,659555	96,6	   0,0169549	-125,9
     174,135	    0,661439	95,3	    0,016697	-127,5
     174,179	    0,661948	96,9	   0,0167549	-127,3
     174,223	    0,663598	96,5	   0,0168392	-129,7
     174,267	    0,664206	95,7	   0,0167952	-127,3
     174,311	    0,665503	97,2	   0,0166411	-126,4
     174,355	    0,666925	97,0	   0,0166526	-128,8
     174,399	    0,668845	96,9	   0,0162545	-128,5
     174,443	    0,668816	97,3	   0,0163997	-125,8
     174,487	    0,670645	94,8	   0,0159059	-123,8
     174,531	    0,671848	97,3	   0,0159284	-126,2
     174,575	    0,673538	95,9	   0,0163291	-127,3
     174,619	    0,673808	96,8	   0,0161002	-126,6
     174,663	    0,675207	96,0	   0,0159505	-127,2
     174,707	    0,676656	96,5	   0,0161306	-124,8
     174,751	     0,67744	99,8	    0,015876	-128,9
     174,795	     0,67883	98,9	   0,0158529	-127,9
     174,839	    0,679998	98,2	    0,016024	-126,2
     174,883	    0,680932	98,4	   0,0157084	-126,8
     174,927	    0,682637	97,0	   0,0159304	-128,6
     174,971	    0,683875	100,1	    0,015647	-126,3
     175,015	    0,684569	97,5	   0,0155371	-125,2
     175,059	    0,685885	99,6	    0,015517	-128,4
     175,103	    0,686659	99,6	   0,0153238	-125,6
     175,147	    0,688483	98,2	    0,015658	-126,5
     175,191	    0,689448	97,7	   0,0154387	-126,8
     175,235	    0,690358	100,3	   0,0159072	-125,7
     175,279	    0,691593	96,8	   0,0154419	-129,7
     175,323	     0,69326	102,3	   0,0156051	-127,4
     175,367	    0,693882	97,5	   0,0154885	-128,0
     175,411	    0,695609	98,0	    0,015566	-127,2
     175,455	    0,696547	97,1	   0,0153941	-123,8
     175,499	    0,696842	100,5	   0,0152482	-127,8
     175,543	    0,698654	98,5	   0,0156466	-127,6
     175,587	    0,699708	98,8	   0,0150156	-131,4
      175,63	    0,700653	101,9	   0,0152473	-124,9
     175,674	    0,702067	100,2	   0,0150059	-124,8
     175,718	    0,703258	99,8	   0,0148904	-129,4
     175,762	    0,704866	99,4	   0,0152427	-128,6
     175,806	    0,705084	99,6	   0,0151863	-126,6
      175,85	    0,706714	98,4	   0,0149028	-124,8
     175,894	    0,707764	98,9	   0,0147257	-126,9
     175,938	     0,70888	100,1	   0,0151144	-127,1
     175,982	     0,71052	100,1	   0,0147827	-128,4
     176,026	    0,711225	100,7	   0,0148355	-127,5
      176,07	     0,71277	98,8	   0,0145312	-128,1
     176,114	    0,713465	100,0	   0,0148035	-128,5
     176,158	    0,715058	98,3	   0,0145808	-129,5
     176,202	    0,715735	100,9	   0,0144289	-127,1
     176,246	     0,71701	98,3	   0,0145295	-125,4
      176,29	     0,71812	99,6	   0,0144734	-126,6
     176,334	    0,719424	101,5	   0,0147275	-128,0
     176,378	    0,720479	100,3	   0,0143045	-129,8
     176,422	    0,721875	101,3	   0,0142817	-128,2
     176,466	    0,723388	100,2	   0,0141182	-125,2
      176,51	    0,723996	100,5	   0,0142126	-129,0
     176,554	    0,725489	98,8	   0,0144762	-131,4
     176,598	    0,726771	99,6	   0,0145536	-126,0
     176,642	     0,72763	102,0	   0,0144905	-127,7
     176,686	    0,728965	103,4	   0,0140209	-125,3
      176,73	    0,730139	103,0	   0,0144169	-128,3
     176,774	    0,731505	100,5	   0,0142168	-129,2
     176,818	    0,732084	100,9	   0,0139272	-130,5
     176,862	     0,73361	102,7	   0,0142119	-127,4
     176,906	    0,735208	101,2	   0,0141458	-128,5
      176,95	    0,736384	100,7	   0,0138373	-126,6
     176,994	    0,738073	102,5	   0,0138309	-127,6
     177,038	    0,738888	99,8	   0,0137833	-124,7
     177,082	    0,740256	100,9	   0,0140127	-129,6
     177,126	    0,740896	102,5	   0,0140877	-123,9
      177,17	    0,742247	100,3	   0,0139638	-129,5
     177,214	     0,74338	101,0	   0,0138951	-126,5
     177,258	    0,744754	102,0	   0,0137501	-127,7
     177,302	    0,745588	103,3	   0,0138369	-123,4
     177,346	    0,746175	102,0	   0,0134839	-128,8
      177,39	    0,748118	101,1	   0,0137985	-127,8
     177,434	    0,748885	104,3	   0,0136104	-128,1
     177,478	    0,749985	102,6	   0,0137067	-123,5
     177,522	    0,751209	104,0	   0,0134598	-126,6
     177,566	    0,752274	102,4	   0,0138238	-127,1
      177,61	    0,753758	99,3	   0,0134562	-129,7
     177,654	    0,755145	102,9	   0,0135458	-127,5
     177,698	    0,756189	103,6	   0,0133578	-125,2
     177,742	    0,757412	100,9	   0,0136091	-130,6
     177,786	    0,758635	103,7	   0,0133295	-129,4
      177,83	    0,759968	104,0	   0,0133507	-129,1
     177,874	    0,761027	101,5	   0,0134632	-127,0
     177,918	    0,762204	102,3	   0,0134843	-128,0
     177,962	    0,763196	105,2	   0,0133586	-125,0
     178,006	    0,764582	103,4	   0,0133394	-125,4
      178,05	     0,76571	101,4	   0,0131065	-125,5
     178,094	    0,767071	102,3	   0,0132885	-125,6
     178,138	    0,767711	103,3	   0,0130615	-128,6
     178,182	    0,769452	101,3	   0,0133096	-125,0
     178,226	    0,770453	103,4	   0,0131857	-124,7
      178,27	    0,771694	103,8	   0,0133102	-128,1
     178,314	    0,773181	104,4	   0,0130571	-125,8
     178,358	    0,774149	102,3	   0,0131748	-128,7
     178,402	    0,775045	102,5	   0,0129802	-126,0
     178,446	    0,776247	103,6	   0,0132722	-125,1
      178,49	    0,777706	102,6	   0,0132511	-123,5
     178,534	    0,778849	103,8	    0,012853	-131,3
     178,578	    0,779234	105,5	   0,0130557	-128,0
     178,622	    0,780745	103,9	   0,0132154	-127,2
     178,666	    0,781893	105,5	   0,0128031	-127,4
      178,71	    0,783543	102,0	   0,0131711	-131,4
     178,754	    0,784697	105,9	   0,0130351	-123,9
     178,798	    0,785482	106,7	   0,0127046	-127,8
     178,842	    0,787085	107,1	   0,0130797	-127,9
     178,886	     0,78771	104,8	   0,0127508	-126,7
      178,93	    0,789171	103,9	   0,0127578	-128,4
     178,974	    0,790464	103,6	   0,0130873	-126,6
     179,018	     0,79199	106,8	   0,0126984	-123,4
     179,062	    0,793012	101,7	   0,0128548	-126,5
     179,106	      0,7945	102,7	   0,0127719	-126,6
      179,15	    0,795469	106,4	   0,0127533	-124,6
     179,194	    0,796507	107,8	   0,0126072	-123,6
     179,238	    0,797421	106,7	   0,0123603	-127,9
     179,282	    0,798707	104,4	   0,0127298	-126,3
     179,326	    0,799541	106,6	    0,012511	-126,7
      179,37	    0,800982	105,3	   0,0125517	-126,9
     179,413	    0,802276	104,6	   0,0127106	-129,6
     179,457	    0,803095	106,0	     0,01264	-128,3
     179,501	    0,804654	106,0	   0,0127596	-128,7
     179,545	    0,805584	104,9	   0,0128646	-127,6
     179,589	     0,80639	105,5	   0,0127057	-130,2
     179,633	    0,808083	107,4	   0,0128761	-128,9
     179,677	    0,809434	105,5	   0,0125604	-129,1
     179,721	    0,810287	109,0	   0,0123861	-132,1
     179,765	    0,811456	106,4	   0,0121102	-126,1
     179,809	    0,813442	106,6	   0,0121082	-126,3
     179,853	    0,814703	105,7	    0,012371	-129,3
     179,897	    0,815767	108,8	   0,0123363	-130,1
     179,941	    0,816636	106,7	   0,0121385	-126,6
     179,985	    0,818108	109,0	   0,0124812	-123,8
     180,029	    0,819141	106,0	   0,0125963	-127,4
     180,073	    0,820579	109,9	   0,0124556	-130,4
     180,117	    0,821192	108,1	    0,012118	-123,2
     180,161	    0,822472	108,9	     0,01191	-126,8
     180,205	    0,823528	107,3	   0,0122839	-128,2
     180,249	    0,824893	105,7	   0,0119276	-125,7
     180,293	    0,825791	107,3	   0,0120697	-127,3
     180,337	    0,826777	108,4	   0,0120887	-127,5
     180,381	     0,82732	108,9	   0,0123225	-126,1
     180,425	    0,829028	108,0	   0,0119694	-128,3
     180,469	    0,829935	105,3	   0,0119775	-126,6
     180,513	    0,831977	108,6	   0,0121014	-127,7
     180,557	    0,832577	107,8	   0,0120338	-126,5
     180,601	    0,832807	104,8	   0,0121439	-126,4
     180,645	    0,834149	108,9	    0,011855	-126,8
     180,689	    0,835664	108,2	   0,0118945	-126,4
     180,733	    0,836113	108,4	   0,0119508	-124,3
     180,777	    0,837773	108,8	   0,0121308	-126,9
     180,821	    0,838624	107,8	   0,0119621	-125,3
     180,865	    0,839403	111,2	   0,0120557	-130,1
     180,909	    0,840423	107,7	   0,0115454	-127,1
     180,953	    0,841747	109,7	   0,0119885	-129,4
     180,997	    0,843224	109,6	   0,0118816	-126,8
     181,041	    0,843995	108,1	   0,0117233	-125,7
     181,085	    0,845174	108,2	   0,0116925	-128,5
     181,129	    0,846816	110,2	   0,0116342	-124,0
     181,173	     0,84748	108,8	   0,0119018	-128,0
     181,217	    0,848854	109,9	   0,0115929	-126,1
     181,261	    0,849287	109,1	   0,0118027	-126,4
     181,305	    0,850535	109,5	   0,0119706	-126,7
     181,349	    0,851165	109,1	   0,0118716	-122,8
     181,393	    0,853068	107,8	   0,0116112	-125,4
     181,437	    0,854024	111,4	   0,0116717	-126,8
     181,481	    0,854663	109,7	    0,011715	-124,6
     181,525	    0,856367	109,7	   0,0118587	-127,4
     181,569	    0,857107	109,9	   0,0115943	-130,2
     181,613	    0,858004	110,6	   0,0116023	-128,0
     181,657	    0,860345	110,3	   0,0119164	-126,2
     181,701	    0,861482	111,6	   0,0116539	-123,1
     181,745	    0,861696	111,9	   0,0115271	-132,2
     181,789	    0,862694	110,0	   0,0115414	-127,7
     181,833	    0,864611	109,3	   0,0118028	-128,1
     181,877	    0,865553	110,0	   0,0114563	-122,1
     181,921	    0,866569	110,2	   0,0115521	-125,5
     181,965	    0,867057	111,7	   0,0114602	-124,1
     182,009	    0,868462	109,4	   0,0115447	-129,9
     182,053	    0,869803	110,2	   0,0115576	-127,1
     182,097	    0,870832	111,7	    0,011399	-130,7
     182,141	    0,871815	113,0	   0,0115154	-129,0
     182,185	    0,872369	109,9	    0,011457	-123,0
     182,229	    0,874147	110,0	   0,0111395	-127,9
     182,273	    0,876004	112,2	   0,0114107	-126,9
     182,317	    0,876491	111,1	   0,0116776	-125,9
     182,361	    0,876983	111,1	   0,0115676	-128,1
     182,405	    0,878413	111,8	   0,0115412	-128,4
     182,449	    0,879015	110,3	   0,0112402	-124,3
     182,493	     0,88149	113,4	   0,0112614	-126,4
     182,537	    0,881733	114,4	   0,0114627	-124,7
     182,581	    0,883131	113,8	   0,0111112	-126,3
     182,625	    0,883747	114,2	   0,0112864	-128,0
     182,669	    0,884936	114,8	   0,0112388	-124,4
     182,713	    0,886728	112,1	   0,0110623	-126,2
     182,757	    0,887935	113,6	   0,0110188	-127,7
     182,801	    0,889068	110,1	   0,0110885	-128,3
     182,845	    0,890353	112,7	   0,0108209	-127,4
     182,889	     0,89142	112,2	   0,0109313	-123,5
     182,933	    0,892835	110,0	   0,0110481	-125,6
     182,977	     0,89421	110,1	   0,0111596	-128,8
     183,021	    0,895139	110,1	   0,0108605	-126,7
     183,065	    0,895793	112,0	   0,0109021	-124,7
     183,109	    0,896553	112,0	   0,0107273	-123,6
     183,152	    0,898168	112,2	   0,0111618	-127,7
     183,196	    0,899181	111,6	   0,0112531	-129,1
      183,24	    0,900396	113,1	   0,0106959	-126,0
     183,284	    0,901668	112,1	   0,0108135	-124,4
     183,328	    0,902684	109,7	   0,0107042	-127,7
     183,372	    0,903849	113,0	   0,0107638	-125,9
     183,416	    0,904801	112,0	   0,0111599	-130,1
      183,46	     0,90589	113,9	   0,0109782	-127,5
     183,504	    0,906761	112,6	   0,0106915	-126,6
     183,548	    0,907484	114,7	   0,0108296	-124,9
     183,592	    0,909596	112,4	   0,0107565	-123,1
     183,636	    0,911099	111,9	   0,0110487	-126,6
      183,68	    0,911854	109,2	   0,0107232	-127,0
     183,724	    0,912002	115,9	   0,0107483	-125,9
     183,768	     0,91365	114,8	   0,0109628	-126,4
     183,812	    0,915353	113,7	   0,0109777	-129,2
     183,856	    0,916027	115,4	   0,0108078	-128,4
       183,9	    0,917097	110,3	    0,010835	-125,5
     183,944	    0,917657	114,9	   0,0107024	-130,4
     183,988	    0,919597	112,5	   0,0107713	-125,0
     184,032	    0,920889	113,1	   0,0109236	-125,3
     184,076	    0,921811	113,6	   0,0105624	-126,0
      184,12	    0,922357	117,1	   0,0107359	-123,9
     184,164	    0,923491	114,6	   0,0106653	-127,6
     184,208	      0,9248	115,1	   0,0104478	-126,0
     184,252	     0,92588	114,5	   0,0105126	-126,9
     184,296	    0,926722	114,9	   0,0106522	-128,1
      184,34	     0,92824	111,6	   0,0105826	-125,9
     184,384	    0,928605	112,0	   0,0108019	-125,7
     184,428	    0,930281	116,1	   0,0105211	-126,4
     184,472	    0,931341	112,8	   0,0107824	-127,8
     184,516	    0,932755	116,2	   0,0106068	-127,3
      184,56	    0,933203	113,6	    0,010536	-124,5
     184,604	    0,935298	116,3	   0,0106265	-128,5
     184,648	    0,935921	115,7	   0,0107023	-125,2
     184,692	      0,9372	112,3	   0,0102806	-121,0
     184,736	    0,937919	116,5	   0,0107499	-124,5
      184,78	    0,939674	111,9	   0,0103215	-124,7
     184,824	     0,94001	118,4	    0,010329	-127,8
     184,868	    0,941846	115,1	   0,0105986	-128,1
     184,912	    0,942319	118,8	   0,0104588	-126,4
     184,956	    0,943764	114,8	    0,010635	-126,5
         185	    0,945359	116,8	   0,0102256	-126,0
     185,044	    0,946443	116,5	   0,0104275	-128,5
     185,088	    0,947307	114,3	   0,0106692	-129,3
     185,132	     0,94895	115,0	   0,0105328	-128,3
     185,176	    0,950184	115,2	      0,0105	-127,0
      185,22	    0,950274	117,7	   0,0104385	-123,4
     185,264	    0,952297	115,7	   0,0101585	-127,4
     185,308	    0,952885	115,3	   0,0101328	-127,0
     185,352	    0,953965	115,9	   0,0101696	-126,3
     185,396	     0,95454	118,2	   0,0103388	-129,4
      185,44	    0,956179	114,9	   0,0101398	-125,1
     185,484	    0,957114	116,6	   0,0100708	-125,8
     185,528	    0,958163	113,8	   0,0102786	-131,5
     185,572	     0,95941	118,1	    0,010198	-121,8
     185,616	     0,96027	117,1	   0,0101321	-125,6
      185,66	    0,961066	118,4	   0,0105549	-127,9
     185,704	    0,962087	116,6	   0,0104208	-126,0
     185,748	    0,963654	117,5	   0,0102564	-127,0
     185,792	    0,964512	116,8	   0,0101498	-124,2
     185,836	    0,965663	113,4	   0,0100869	-124,5
      185,88	    0,966602	116,7	   0,0100764	-125,7
     185,924	    0,967778	116,0	   0,0103366	-128,7
     185,968	     0,96842	120,8	   0,0101576	-125,1
     186,012	    0,969376	117,5	  0,00987784	-125,4
     186,056	    0,970783	118,3	   0,0101356	-127,2
       186,1	    0,971774	117,7	   0,0101229	-130,2
     186,144	    0,972742	117,4	   0,0103685	-127,7
     186,188	    0,974208	115,7	   0,0104265	-128,9
     186,232	    0,975444	116,0	   0,0100589	-124,7
     186,276	    0,975809	115,6	   0,0101202	-124,4
      186,32	    0,977494	115,6	   0,0101724	-124,5
     186,364	    0,978348	114,7	   0,0100397	-123,9
     186,408	    0,979462	115,7	   0,0100223	-129,0
     186,452	    0,981018	118,6	  0,00999896	-125,6
     186,496	    0,981848	117,3	    0,010193	-124,9
      186,54	    0,983403	115,4	   0,0101219	-127,4
     186,584	    0,983894	115,9	   0,0100787	-125,5
     186,628	    0,984938	117,6	    0,010053	-126,4
     186,672	    0,986454	115,2	   0,0101389	-129,1
     186,716	    0,987905	118,7	  0,00980686	-124,8
      186,76	    0,988513	118,6	  0,00995402	-124,1
     186,804	    0,990003	118,2	  0,00973559	-124,7
     186,848	    0,990804	120,5	  0,00977283	-126,3
     186,891	    0,992762	113,8	  0,00992218	-126,8
     186,935	    0,993257	117,9	   0,0100165	-127,7
     186,979	    0,994328	117,9	   0,0100577	-129,6
     187,023	    0,995313	120,5	   0,0102231	-128,1
     187,067	    0,996349	120,4	   0,0100709	-124,7
     187,111	    0,998318	119,1	   0,0102784	-127,3
     187,155	    0,999226	118,4	   0,0100991	-125,4
     187,199	     1,00036	122,4	  0,00986698	-129,1
     187,243	     1,00184	119,2	  0,00982651	-123,1
     187,287	     1,00235	118,0	  0,00995759	-131,0
     187,331	     1,00337	120,0	   0,0100442	-127,7
     187,375	     1,00455	121,2	  0,00964364	-127,5
     187,419	     1,00504	119,9	  0,00975316	-124,2
     187,463	     1,00683	118,6	  0,00974549	-125,0
     187,507	     1,00792	121,4	  0,00977406	-121,4
     187,551	     1,00871	118,5	    0,010222	-129,3
     187,595	     1,01014	119,6	  0,00971038	-129,1
     187,639	     1,01068	121,3	  0,00953901	-123,4
     187,683	     1,01248	118,8	  0,00990513	-128,5
     187,727	     1,01374	119,6	  0,00989525	-129,9
     187,771	     1,01424	118,5	  0,00994464	-129,8
     187,815	     1,01582	123,6	  0,00958753	-126,1
     187,859	     1,01655	118,6	  0,00962327	-123,8
     187,903	     1,01752	121,1	  0,00986047	-125,9
     187,947	     1,01871	118,5	  0,00961434	-124,0
     187,991	     1,02007	120,7	  0,00993887	-129,5
     188,035	     1,02095	120,5	  0,00965217	-126,9
     188,079	     1,02174	123,2	  0,00977755	-126,6
     188,123	     1,02273	123,2	   0,0098964	-129,4
     188,167	     1,02372	122,0	    0,010008	-127,9
     188,211	     1,02563	118,9	  0,00975621	-127,0
     188,255	      1,0258	121,7	  0,00974334	-130,3
     188,299	     1,02717	119,9	  0,00933206	-123,7
     188,343	       1,029	120,5	   0,0097335	-129,2
     188,387	     1,02956	121,2	  0,00956197	-123,9
     188,431	     1,03085	121,0	  0,00974238	-125,8
     188,475	     1,03188	120,0	  0,00959756	-128,8
     188,519	     1,03262	123,4	  0,00947252	-124,2
     188,563	      1,0346	118,5	  0,00967639	-127,0
     188,607	     1,03457	125,3	  0,00939361	-126,2
     188,651	     1,03627	120,3	  0,00966857	-128,2
     188,695	     1,03762	120,7	  0,00939765	-127,0
     188,739	     1,03854	121,8	  0,00950837	-128,9
     188,783	     1,03979	122,4	  0,00964163	-126,4
     188,827	     1,04065	125,2	  0,00932408	-128,1
     188,871	     1,04156	125,5	  0,00963637	-129,0
     188,915	     1,04217	123,4	  0,00952793	-121,4
     188,959	     1,04374	122,0	  0,00926959	-127,9
     189,003	     1,04426	121,6	   0,0094653	-122,9
     189,047	     1,04466	124,7	  0,00945398	-127,4
     189,091	      1,0469	122,7	  0,00944742	-124,7
     189,135	     1,04796	122,3	  0,00934152	-129,5
     189,179	     1,04889	119,3	  0,00972762	-126,5
     189,223	     1,04999	125,1	  0,00935506	-125,1
     189,267	     1,05039	124,0	  0,00968656	-129,3
     189,311	     1,05099	125,4	  0,00925087	-126,4
     189,355	     1,05241	121,3	  0,00949194	-129,8
     189,399	     1,05342	119,2	  0,00957441	-127,3
     189,443	     1,05546	124,3	  0,00948129	-124,7
     189,487	     1,05637	127,5	  0,00920384	-126,2
     189,531	     1,05691	120,7	  0,00965847	-127,7
     189,575	     1,05794	122,2	  0,00956229	-126,3
     189,619	     1,06005	124,0	  0,00926604	-123,0
     189,663	     1,06148	124,2	  0,00921996	-128,9
     189,707	     1,06067	124,2	  0,00959206	-128,3
     189,751	      1,0622	122,0	  0,00957514	-125,3
     189,795	     1,06449	122,4	  0,00937881	-124,0
     189,839	      1,0646	124,5	   0,0090814	-126,4
     189,883	     1,06605	122,7	  0,00933874	-130,9
     189,927	     1,06813	126,1	  0,00944145	-130,7
     189,971	     1,06809	123,9	  0,00947605	-126,6
     190,015	     1,06852	122,8	  0,00958557	-125,2
     190,059	     1,07171	122,0	  0,00944308	-127,6
     190,103	     1,07113	123,5	  0,00890624	-125,8
     190,147	     1,07213	125,2	  0,00911497	-128,7
     190,191	     1,07486	123,5	  0,00926488	-126,7
     190,235	      1,0745	126,0	  0,00936806	-127,7
     190,279	     1,07715	125,1	  0,00897013	-130,8
     190,323	     1,07677	123,9	  0,00896571	-128,6
     190,367	     1,07891	122,9	  0,00932867	-129,2
     190,411	     1,08025	128,0	  0,00948337	-127,2
     190,455	     1,07998	126,3	  0,00961442	-129,7
     190,499	     1,08166	124,8	  0,00916448	-130,8
     190,543	     1,08216	123,3	   0,0087319	-127,4
     190,587	     1,08458	126,7	  0,00908768	-128,2
      190,63	     1,08454	125,5	  0,00923699	-133,7
     190,674	     1,08663	127,3	  0,00950407	-128,1
     190,718	     1,08738	126,7	  0,00902801	-124,7
     190,762	      1,0886	127,7	  0,00900772	-127,4
     190,806	     1,08989	126,1	  0,00898055	-128,1
      190,85	     1,08954	130,2	  0,00899839	-128,0
     190,894	     1,09097	130,7	  0,00881201	-129,3
     190,938	     1,09176	129,3	  0,00885346	-128,6
     190,982	      1,0933	130,3	  0,00909531	-129,1
     191,026	     1,09473	124,5	  0,00899608	-130,7
      191,07	     1,09527	128,4	  0,00928899	-122,6
     191,114	     1,09742	127,6	  0,00900504	-125,4
     191,158	     1,09852	125,7	   0,0093125	-125,8
     191,202	     1,09886	129,8	   0,0094891	-128,4
     191,246	     1,10008	129,2	  0,00917602	-129,2
      191,29	       1,102	128,9	   0,0089067	-130,9
     191,334	     1,10209	128,8	  0,00880489	-126,9
     191,378	     1,10377	129,3	  0,00927364	-125,5
     191,422	      1,1055	124,1	  0,00913402	-125,1
     191,466	     1,10561	130,4	  0,00919924	-128,2
      191,51	     1,10697	127,4	  0,00887495	-128,8
     191,554	     1,10789	130,6	  0,00891626	-123,2
     191,598	     1,11067	128,8	  0,00890752	-128,4
     191,642	     1,11039	131,2	  0,00923405	-128,2
     191,686	       1,111	129,6	  0,00958114	-126,2
      191,73	     1,11319	128,2	   0,0088784	-129,2
     191,774	     1,11439	128,3	  0,00901181	-125,7
     191,818	     1,11499	128,8	  0,00912991	-129,3
     191,862	      1,1159	132,6	  0,00897979	-129,2
     191,906	     1,11681	131,0	  0,00896462	-131,8
      191,95	      1,1178	131,5	  0,00873037	-126,5
     191,994	     1,11855	134,2	  0,00912567	-129,7
     192,038	     1,12021	131,1	  0,00867312	-127,3
     192,082	     1,12207	132,6	  0,00922448	-124,1
     192,126	     1,12178	134,7	  0,00859245	-126,7
      192,17	     1,12332	133,9	  0,00901257	-125,8
     192,214	     1,12364	139,0	  0,00867363	-126,3
     192,258	     1,12469	137,0	  0,00902293	-126,9
     192,302	     1,12613	134,5	  0,00868044	-129,2
     192,346	     1,12601	139,9	   0,0089995	-125,5
      192,39	     1,12686	140,5	  0,00903733	-126,7
     192,434	     1,12727	143,4	  0,00898302	-123,2
     192,478	     1,12769	146,8	  0,00885089	-126,5
     192,522	     1,12584	162,9	  0,00858588	-126,0
     192,566	     1,11651	199,3	     0,00915	-127,1
      192,61	  0,00866317	-125,4	   0,0085105	-129,5
     192,654	  0,00898607	-125,6	   0,0090908	-124,1
     192,698	  0,00840215	-124,7	  0,00885864	-124,9
     192,742	  0,00914755	-129,9	  0,00869102	-127,2
     192,786	  0,00868211	-125,0	  0,00897595	-127,3
      192,83	  0,00893989	-124,8	   0,0086703	-127,4
     192,874	  0,00865124	-129,7	  0,00835192	-127,7
     192,918	  0,00908359	-128,2	  0,00920846	-131,1
     192,962	  0,00868023	-127,1	   0,0088938	-125,3
     193,006	  0,00833792	-127,4	  0,00897668	-127,0
      193,05	  0,00872714	-126,0	  0,00867196	-124,8
     193,094	  0,00894641	-131,6	  0,00890925	-128,4
     193,138	  0,00895675	-127,4	  0,00893143	-130,1
     193,182	  0,00913006	-125,5	   0,0087212	-130,6
     193,226	  0,00853543	-128,5	  0,00863368	-128,0
      193,27	  0,00834132	-128,5	   0,0087142	-128,0
     193,314	  0,00874058	-125,3	  0,00938141	-128,7
     193,358	  0,00877226	-126,8	  0,00874713	-122,2
     193,402	  0,00880773	-122,8	  0,00871872	-125,4
     193,446	  0,00895613	-126,0	  0,00860824	-126,2
      193,49	    0,008616	-127,0	  0,00912166	-125,8
     193,534	  0,00853088	-133,9	   0,0086749	-126,0
     193,578	  0,00867889	-130,0	  0,00886868	-126,6
     193,622	  0,00844135	-122,5	  0,00893735	-126,7
     193,666	  0,00853531	-126,5	  0,00888836	-125,1
      193,71	   0,0086868	-128,0	  0,00842932	-126,0
     193,754	  0,00840783	-126,3	  0,00846875	-123,6
     193,798	  0,00854069	-127,0	  0,00883547	-128,2
     193,842	  0,00875064	-124,2	  0,00881181	-130,7
     193,886	  0,00879506	-127,9	  0,00889896	-128,3
      193,93	  0,00874914	-130,6	  0,00894302	-126,0
     193,974	  0,00863875	-126,9	  0,00861411	-124,4
     194,018	   0,0084788	-128,5	   0,0085562	-125,5
     194,062	  0,00853564	-127,1	  0,00868485	-127,1
     194,106	  0,00866566	-129,9	  0,00839595	-127,1
      194,15	  0,00841505	-131,1	  0,00890788	-129,9
     194,194	  0,00791366	-122,8	  0,00825766	-129,6
     194,238	  0,00819957	-127,3	  0,00889737	-127,3
     194,282	  0,00851749	-127,4	  0,00884121	-128,2
     194,326	  0,00860782	-131,2	  0,00893025	-126,8
      194,37	  0,00841239	-124,5	  0,00888733	-129,5
     194,413	  0,00830185	-123,3	   0,0090847	-126,7
     194,457	    0,008993	-125,8	  0,00890404	-123,0
     194,501	  0,00844845	-124,4	  0,00872077	-126,7
     194,545	  0,00833987	-124,3	  0,00855851	-125,3
     194,589	  0,00847727	-127,5	  0,00870217	-124,9
     194,633	  0,00854528	-128,7	  0,00882684	-126,6
     194,677	  0,00860264	-129,3	  0,00894255	-126,6
     194,721	  0,00850134	-133,1	  0,00870178	-127,8
     194,765	  0,00875418	-129,4	  0,00862441	-129,9
     194,809	  0,00883066	-128,3	  0,00847595	-129,0
     194,853	  0,00848188	-124,3	  0,00857279	-124,2
     194,897	  0,00841984	-125,4	  0,00893238	-125,4
     194,941	  0,00841313	-129,9	  0,00876242	-124,9
     194,985	  0,00817844	-126,2	  0,00891023	-122,7
     195,029	  0,00856925	-125,9	  0,00863233	-127,4
     195,073	  0,00878261	-131,1	  0,00845143	-127,5
     195,117	  0,00864445	-127,5	  0,00875179	-122,8
     195,161	  0,00880327	-125,0	  0,00883917	-130,4
     195,205	  0,00854096	-128,5	   0,0084528	-128,7
     195,249	  0,00830261	-128,3	  0,00842565	-123,7
     195,293	  0,00878479	-128,9	  0,00829032	-125,3
     195,337	  0,00852422	-125,3	   0,0087176	-125,3
     195,381	  0,00857467	-126,5	  0,00911143	-125,1
     195,425	  0,00852806	-125,1	  0,00860862	-127,7
     195,469	  0,00843101	-125,2	  0,00846841	-125,1
     195,513	  0,00801751	-125,7	  0,00855564	-124,8
     195,557	  0,00824221	-127,5	  0,00832229	-126,6
     195,601	   0,0087263	-127,0	  0,00843704	-125,1
     195,645	  0,00785403	-122,6	  0,00869988	-123,5
     195,689	  0,00784936	-124,4	  0,00879224	-128,2
     195,733	  0,00817539	-132,0	  0,00839793	-125,5
     195,777	  0,00851217	-124,5	  0,00856391	-128,1
     195,821	  0,00826574	-123,4	  0,00887155	-127,2
     195,865	  0,00822007	-125,2	  0,00817662	-126,5
     195,909	  0,00857006	-130,1	  0,00851848	-127,8
     195,953	  0,00866923	-123,9	  0,00843857	-130,5
     195,997	  0,00861648	-126,2	  0,00839848	-126,6
     196,041	  0,00850613	-129,2	  0,00898604	-124,7
     196,085	  0,00880385	-124,1	  0,00855679	-127,7
     196,129	  0,00848884	-124,7	  0,00817709	-123,4
     196,173	  0,00871441	-128,8	  0,00832807	-126,5
     196,217	  0,00794405	-127,0	   0,0083889	-126,7
     196,261	  0,00842779	-127,0	  0,00852873	-128,5
     196,305	  0,00816561	-129,9	  0,00838767	-126,4
     196,349	  0,00841646	-125,9	  0,00855478	-125,7
     196,393	  0,00863985	-126,8	  0,00842781	-124,2
     196,437	  0,00809504	-131,4	  0,00836407	-129,3
     196,481	  0,00897101	-124,9	  0,00828031	-124,1
     196,525	  0,00833448	-129,2	    0,008681	-127,4
     196,569	  0,00836253	-124,4	  0,00842282	-128,6
     196,613	  0,00846191	-122,4	  0,00853313	-129,3
     196,657	  0,00835119	-127,7	    0,008441	-126,8
     196,701	  0,00847596	-126,1	  0,00851288	-125,4
     196,745	  0,00849971	-125,6	  0,00842907	-129,7
     196,789	  0,00839115	-130,2	  0,00824066	-128,9
     196,833	  0,00827189	-125,3	  0,00869947	-125,8
     196,877	  0,00839334	-125,1	  0,00830374	-127,8
     196,921	  0,00832213	-127,8	    0,008704	-127,4
     196,965	  0,00815633	-123,9	  0,00827478	-124,7
     197,009	  0,00805401	-129,4	  0,00843302	-127,3
     197,053	  0,00826487	-125,7	  0,00823322	-131,4
     197,097	  0,00830768	-127,4	  0,00853743	-123,6
     197,141	  0,00858708	-125,9	  0,00825404	-130,4
     197,185	  0,00821201	-128,3	  0,00816789	-128,5
     197,229	  0,00854929	-123,7	  0,00833086	-129,5
     197,273	  0,00817278	-127,8	  0,00842937	-129,6
     197,317	  0,00824999	-131,0	  0,00847311	-131,3
     197,361	  0,00829787	-128,1	  0,00809077	-126,6
     197,405	  0,00822601	-129,6	  0,00835403	-125,9
     197,449	  0,00831806	-123,6	  0,00873751	-125,6
     197,493	  0,00837239	-125,1	  0,00852932	-124,7
     197,537	  0,00854918	-132,0	  0,00810095	-124,0
     197,581	  0,00791127	-126,0	  0,00805205	-126,6
     197,625	   0,0077591	-126,3	  0,00819775	-126,8
     197,669	  0,00790497	-125,3	  0,00804811	-126,1
     197,713	  0,00820865	-124,5	  0,00825956	-129,1
     197,757	  0,00812078	-126,4	   0,0079923	-129,5
     197,801	  0,00817386	-123,0	  0,00861768	-127,7
     197,845	  0,00850348	-127,7	  0,00856188	-126,3
     197,889	  0,00784673	-132,1	  0,00840837	-129,5
     197,933	  0,00793662	-130,2	  0,00825998	-127,5
     197,977	  0,00784965	-125,0	  0,00805681	-129,4
     198,021	  0,00844878	-125,3	  0,00827013	-130,0
     198,065	   0,0085568	-129,2	  0,00823169	-127,7
     198,109	   0,0085414	-123,8	  0,00837146	-126,2
     198,152	   0,0083301	-126,8	  0,00869962	-124,7
     198,196	  0,00827385	-125,2	  0,00774972	-126,4
      198,24	  0,00812329	-124,5	  0,00822848	-122,8
     198,284	  0,00819042	-126,6	  0,00819946	-129,2
     198,328	  0,00838591	-127,1	  0,00813006	-126,4
     198,372	  0,00848392	-130,1	  0,00834806	-127,6
     198,416	  0,00854485	-126,3	  0,00825332	-121,0
      198,46	  0,00858961	-124,3	  0,00835268	-124,7
     198,504	  0,00824278	-125,8	  0,00851826	-120,8
     198,548	  0,00777267	-128,3	  0,00826154	-126,8
     198,592	  0,00803548	-126,8	  0,00837984	-129,2
     198,636	  0,00811372	-126,7	  0,00832001	-123,9
      198,68	  0,00802204	-127,8	  0,00846931	-125,4
     198,724	  0,00864614	-125,2	  0,00833762	-124,5
     198,768	  0,00872521	-123,6	  0,00833321	-122,4
     198,812	  0,00866374	-125,6	  0,00865449	-124,6
     198,856	    0,008057	-126,8	  0,00799822	-126,6
       198,9	  0,00845695	-126,0	  0,00824301	-126,4
     198,944	  0,00800251	-127,6	  0,00822906	-128,5
     198,988	  0,00839673	-128,4	  0,00814613	-127,0
     199,032	  0,00845793	-123,0	  0,00817529	-123,8
     199,076	  0,00844235	-125,3	  0,00845873	-125,7
      199,12	  0,00809621	-124,5	  0,00829387	-125,8
     199,164	  0,00813964	-125,3	   0,0081983	-125,8
     199,208	  0,00823265	-129,4	  0,00857204	-123,2
     199,252	  0,00835402	-128,9	   0,0084333	-126,5
     199,296	  0,00818328	-130,1	  0,00821831	-127,3
      199,34	  0,00851237	-127,2	  0,00806749	-127,3
     199,384	  0,00812151	-129,6	  0,00834443	-128,8
     199,428	   0,0084231	-127,1	  0,00834484	-127,6
     199,472	  0,00838216	-125,6	  0,00793255	-125,3
     199,516	    0,008085	-122,8	  0,00846508	-123,8
      199,56	  0,00797728	-130,6	   0,0079613	-128,8
     199,604	   0,0083517	-125,3	  0,00826491	-125,6
     199,648	  0,00813602	-127,4	  0,00826986	-126,4
     199,692	  0,00838991	-130,5	  0,00803421	-129,4
     199,736	  0,00785373	-122,8	  0,00796674	-126,0
      199,78	  0,00745516	-127,1	  0,00817167	-124,1
     199,824	  0,00802472	-128,2	  0,00815382	-129,6
     199,868	  0,00798078	-123,2	  0,00817208	-127,4
     199,912	  0,00842963	-127,8	  0,00818226	-129,2
     199,956	  0,00835474	-128,8	  0,00778358	-126,6
         200	  0,00806734	-123,9	  0,00834452	-126,9

