X-Data [Hz]	Laser (M - Filtered) [m/s]	Phase [Deg]	Laser (M - Filtered) [m/s]	Phase [Deg]	
	003: [06-04-24 10:31]		007: [06-04-24 10:36]	
         120	   0,0065806	68,4	   0,0070608	59,8
     120,088	  0,00712021	66,2	  0,00754608	63,9
     120,176	  0,00750604	57,5	  0,00819597	65,5
     120,264	  0,00821555	60,8	  0,00801292	65,5
     120,352	  0,00833273	64,5	  0,00812534	58,3
      120,44	  0,00770484	61,6	  0,00774737	61,6
     120,528	   0,0078102	61,3	  0,00819111	67,0
     120,616	  0,00834567	61,2	  0,00813664	59,3
     120,704	  0,00844345	62,6	  0,00780294	62,5
     120,792	  0,00768861	58,3	  0,00803962	66,7
      120,88	  0,00813031	57,0	  0,00836408	62,5
     120,968	  0,00796366	60,0	  0,00825029	59,2
     121,056	  0,00779239	58,2	  0,00806214	65,3
     121,144	  0,00856616	65,1	  0,00834048	60,6
     121,232	  0,00794504	60,7	  0,00791418	64,6
      121,32	  0,00854934	61,5	  0,00862035	61,5
     121,408	  0,00778481	58,4	   0,0080832	62,7
     121,496	  0,00857743	60,3	  0,00869923	59,9
     121,584	  0,00799194	60,7	  0,00818753	65,5
     121,672	  0,00896787	64,7	   0,0084978	58,8
      121,76	  0,00848567	61,7	  0,00829024	61,7
     121,848	  0,00831954	65,1	  0,00826499	58,5
     121,935	  0,00814301	56,4	  0,00853886	64,3
     122,023	  0,00870797	63,7	  0,00818825	60,4
     122,111	  0,00835123	56,2	  0,00875272	59,9
     122,199	  0,00852344	63,1	  0,00873738	63,0
     122,287	   0,0091278	61,9	   0,0083353	61,3
     122,375	  0,00859734	59,5	  0,00838535	59,5
     122,463	  0,00877537	66,2	  0,00892114	60,0
     122,551	  0,00850082	62,9	  0,00899025	62,7
     122,639	   0,0090405	61,2	  0,00898801	64,9
     122,727	  0,00931235	63,4	  0,00869528	64,1
     122,815	  0,00882686	59,4	  0,00910789	64,6
     122,903	  0,00887103	60,9	  0,00904151	64,5
     122,991	  0,00872146	57,7	  0,00923748	64,4
     123,079	  0,00891758	61,0	  0,00924613	62,2
     123,167	  0,00902707	63,3	   0,0091419	62,6
     123,255	  0,00868946	62,3	  0,00920551	65,6
     123,343	  0,00912613	64,3	  0,00893417	60,8
     123,431	  0,00903827	62,6	    0,009232	65,5
     123,519	  0,00896347	62,3	  0,00928341	61,8
     123,607	  0,00919911	63,3	  0,00943448	59,8
     123,695	  0,00932254	65,2	  0,00952228	61,5
     123,783	  0,00926829	61,8	  0,00923189	58,9
     123,871	  0,00902794	56,9	  0,00918219	64,0
     123,959	  0,00937758	61,0	   0,0092051	62,8
     124,047	  0,00938627	59,2	  0,00974794	62,8
     124,135	  0,00991513	62,2	   0,0097327	60,9
     124,223	  0,00975902	62,5	  0,00933822	63,2
     124,311	   0,0094188	61,1	  0,00981983	63,1
     124,399	  0,00953879	60,2	  0,00962826	59,7
     124,487	   0,0104018	64,8	  0,00910969	57,2
     124,575	    0,009762	62,8	   0,0098712	62,6
     124,663	  0,00973698	59,4	  0,00936175	57,7
     124,751	   0,0102567	63,6	  0,00980625	63,5
     124,839	  0,00987389	59,0	  0,00996161	59,7
     124,927	   0,0102307	62,5	  0,00943265	58,5
     125,015	  0,00975928	56,3	   0,0101636	64,4
     125,103	   0,0104248	62,4	  0,00955461	58,5
     125,191	   0,0100793	58,3	    0,010297	65,4
     125,279	   0,0104682	64,0	  0,00979241	61,0
     125,367	   0,0103983	60,6	    0,010112	57,5
     125,455	   0,0104988	62,7	   0,0103316	62,4
     125,543	   0,0105879	60,9	   0,0103068	63,4
     125,631	   0,0102703	64,1	   0,0101062	60,9
     125,718	   0,0108549	63,4	    0,010519	61,5
     125,806	   0,0103677	57,6	   0,0107348	63,0
     125,894	   0,0105851	62,2	    0,010403	62,7
     125,982	   0,0106191	62,2	   0,0105383	56,1
      126,07	   0,0107945	59,7	   0,0105607	61,2
     126,158	   0,0107018	57,6	   0,0104231	62,3
     126,246	   0,0106149	59,0	   0,0105536	59,3
     126,334	   0,0107147	62,8	   0,0109326	60,5
     126,422	   0,0111765	65,3	   0,0111197	63,9
      126,51	    0,011103	64,1	   0,0109281	60,8
     126,598	   0,0112384	59,9	   0,0112264	61,3
     126,686	   0,0111088	58,7	   0,0112711	63,4
     126,774	   0,0111039	57,2	   0,0113083	63,1
     126,862	   0,0111572	62,0	   0,0111433	63,8
      126,95	   0,0111892	57,1	   0,0113647	63,5
     127,038	   0,0111981	60,4	   0,0110871	60,7
     127,126	   0,0116182	62,2	   0,0112753	62,0
     127,214	   0,0116119	60,6	   0,0115526	62,3
     127,302	   0,0117783	61,7	   0,0113997	61,9
      127,39	   0,0120132	62,1	     0,01152	63,0
     127,478	   0,0120497	64,9	   0,0114052	61,7
     127,566	   0,0118909	61,5	   0,0118909	64,1
     127,654	   0,0116827	60,5	   0,0121046	62,0
     127,742	   0,0117533	60,2	   0,0118858	61,4
      127,83	   0,0119694	60,4	   0,0115305	61,8
     127,918	    0,012154	58,7	   0,0120678	64,6
     128,006	   0,0123196	62,0	   0,0121161	60,5
     128,094	   0,0121353	59,1	    0,012153	62,4
     128,182	   0,0124383	57,7	   0,0119425	63,4
      128,27	    0,012581	61,8	   0,0122289	63,8
     128,358	   0,0124295	58,2	   0,0122483	60,7
     128,446	   0,0127216	60,5	   0,0123482	60,3
     128,534	   0,0127089	62,1	   0,0123299	65,4
     128,622	   0,0125257	58,5	   0,0122069	64,3
      128,71	   0,0129342	63,0	   0,0124342	62,4
     128,798	   0,0127655	61,7	    0,012506	63,6
     128,886	   0,0129235	60,0	    0,012624	62,1
     128,974	   0,0128521	62,4	   0,0125908	64,0
     129,062	   0,0132209	61,8	   0,0127582	60,4
      129,15	   0,0130995	60,2	   0,0128405	60,2
     129,238	   0,0133563	63,2	   0,0131018	58,4
     129,326	   0,0133859	62,5	   0,0131408	62,0
     129,413	   0,0133319	59,2	    0,013184	58,2
     129,501	   0,0136577	62,0	   0,0130411	63,2
     129,589	   0,0135215	60,1	    0,013192	65,3
     129,677	   0,0136051	60,9	   0,0132295	59,8
     129,765	   0,0137507	61,4	   0,0134299	62,3
     129,853	   0,0138869	60,5	   0,0134423	61,3
     129,941	   0,0140714	62,0	   0,0135454	61,7
     130,029	   0,0140109	59,7	   0,0136013	59,7
     130,117	   0,0140209	60,4	   0,0137254	61,6
     130,205	   0,0144424	61,1	   0,0138691	58,1
     130,293	   0,0143695	57,7	   0,0139175	59,3
     130,381	   0,0144778	62,0	   0,0142033	60,2
     130,469	   0,0144611	57,6	   0,0141577	60,1
     130,557	   0,0146399	61,1	   0,0142951	62,6
     130,645	   0,0149704	61,3	   0,0145273	60,4
     130,733	   0,0150909	61,9	   0,0143884	62,0
     130,821	   0,0151416	63,9	   0,0147669	59,1
     130,909	    0,015248	62,3	   0,0146382	59,5
     130,997	    0,015262	61,5	    0,015023	59,3
     131,085	   0,0152859	62,1	   0,0149149	59,6
     131,173	   0,0153421	61,8	   0,0152693	57,5
     131,261	   0,0156255	61,0	   0,0152129	59,9
     131,349	   0,0156978	61,4	   0,0151628	59,1
     131,437	   0,0158718	60,1	   0,0154084	57,2
     131,525	   0,0158513	59,7	   0,0155413	63,7
     131,613	   0,0160356	58,1	   0,0155423	62,4
     131,701	   0,0162764	59,8	   0,0161685	59,7
     131,789	   0,0164213	62,3	   0,0158109	59,1
     131,877	    0,016354	60,5	   0,0159363	59,7
     131,965	   0,0164409	59,6	   0,0161059	59,4
     132,053	   0,0168687	60,9	   0,0161908	61,6
     132,141	   0,0167078	57,4	   0,0164341	60,5
     132,229	   0,0170482	59,5	   0,0169641	58,6
     132,317	   0,0170093	58,7	   0,0170094	60,0
     132,405	   0,0174108	62,2	   0,0167801	61,1
     132,493	   0,0173351	60,5	   0,0169794	58,7
     132,581	   0,0176263	60,1	   0,0170626	62,3
     132,669	   0,0177992	59,0	   0,0172392	60,7
     132,757	   0,0180423	60,0	   0,0172312	62,3
     132,845	   0,0180934	59,9	   0,0176848	61,1
     132,933	   0,0183836	59,7	   0,0179402	56,6
     133,021	   0,0183744	60,8	   0,0180976	60,7
     133,109	   0,0185081	60,2	   0,0181327	58,7
     133,196	   0,0188328	60,5	    0,018166	60,2
     133,284	   0,0189564	58,6	   0,0184428	56,9
     133,372	   0,0189983	61,6	   0,0188184	59,1
      133,46	   0,0191193	59,6	   0,0186495	62,1
     133,548	   0,0192694	58,6	   0,0190255	60,3
     133,636	   0,0199651	59,8	   0,0192906	58,3
     133,724	   0,0197169	61,8	   0,0189665	60,4
     133,812	   0,0198616	59,3	   0,0193381	57,8
       133,9	   0,0203336	60,4	   0,0199206	58,6
     133,988	   0,0203723	59,3	   0,0199827	59,6
     134,076	   0,0205298	57,5	   0,0199189	61,5
     134,164	   0,0206846	60,4	   0,0201604	57,2
     134,252	   0,0211129	61,0	   0,0210207	57,2
      134,34	   0,0212824	61,1	   0,0206278	59,7
     134,428	   0,0214482	60,8	   0,0208067	60,2
     134,516	   0,0216004	60,4	   0,0210616	62,3
     134,604	   0,0219164	61,0	   0,0211306	61,0
     134,692	   0,0225039	59,7	   0,0215004	60,3
      134,78	   0,0223891	60,8	    0,021619	60,8
     134,868	    0,022437	61,8	   0,0218617	58,9
     134,956	   0,0227331	62,3	   0,0223883	57,1
     135,044	    0,022992	62,0	   0,0225925	61,1
     135,132	   0,0234629	61,1	   0,0223906	59,6
      135,22	   0,0235135	60,8	   0,0229754	59,8
     135,308	    0,024176	61,9	   0,0232459	60,0
     135,396	   0,0246261	60,6	   0,0232328	61,0
     135,484	   0,0246756	59,2	   0,0240399	60,1
     135,572	   0,0248135	57,8	   0,0242815	59,8
      135,66	   0,0249024	60,9	   0,0247576	57,7
     135,748	   0,0255682	60,2	   0,0247737	58,5
     135,836	   0,0258029	60,6	   0,0251687	61,9
     135,924	   0,0260875	58,8	   0,0255197	59,7
     136,012	    0,026362	59,1	   0,0257659	56,3
       136,1	   0,0264618	61,3	    0,025539	60,5
     136,188	   0,0270161	59,3	   0,0262876	59,2
     136,276	   0,0274178	59,7	   0,0269038	58,8
     136,364	   0,0277717	60,6	   0,0271428	59,2
     136,452	   0,0281946	59,1	   0,0274129	58,0
      136,54	   0,0286017	61,2	    0,027432	57,8
     136,628	   0,0293612	57,6	    0,027457	59,4
     136,716	   0,0294947	60,3	   0,0283753	57,5
     136,804	   0,0298763	60,3	   0,0285886	59,6
     136,891	   0,0302542	59,1	   0,0293271	58,4
     136,979	   0,0308213	59,3	   0,0295378	59,8
     137,067	   0,0311299	61,3	   0,0303911	56,0
     137,155	   0,0316491	58,1	   0,0303204	60,5
     137,243	   0,0320226	59,9	   0,0302057	59,0
     137,331	   0,0324777	60,8	    0,031043	60,8
     137,419	   0,0333542	58,3	   0,0315855	62,1
     137,507	   0,0334792	57,7	   0,0332617	57,1
     137,595	   0,0342082	60,1	   0,0330768	56,3
     137,683	   0,0350893	58,5	   0,0332817	60,5
     137,771	   0,0355835	57,7	   0,0342628	59,1
     137,859	   0,0359178	59,3	   0,0350504	56,3
     137,947	   0,0369197	59,7	   0,0356412	57,8
     138,035	   0,0375523	57,9	   0,0362703	58,8
     138,123	   0,0381205	60,7	   0,0364425	60,7
     138,211	   0,0390375	57,1	   0,0379791	57,8
     138,299	   0,0399637	58,8	   0,0385224	58,1
     138,387	   0,0408474	57,7	   0,0397673	57,8
     138,475	   0,0412947	59,1	   0,0401313	56,6
     138,563	   0,0430562	58,7	   0,0413688	58,2
     138,651	   0,0435787	58,3	   0,0425037	59,1
     138,739	   0,0446943	58,5	    0,043019	59,1
     138,827	   0,0460055	57,9	   0,0444015	60,1
     138,915	   0,0467803	58,4	   0,0451812	59,8
     139,003	   0,0477177	59,6	   0,0453791	59,2
     139,091	   0,0491565	59,5	   0,0464832	58,4
     139,179	   0,0504631	61,5	   0,0479713	58,9
     139,267	   0,0514456	60,9	   0,0487083	60,1
     139,355	   0,0522955	60,7	   0,0499513	60,8
     139,443	   0,0536939	62,1	   0,0514999	60,7
     139,531	   0,0556162	60,6	   0,0525858	60,2
     139,619	   0,0569653	59,8	   0,0541921	58,1
     139,707	   0,0582353	62,1	   0,0552915	59,6
     139,795	   0,0595702	61,5	   0,0575934	61,5
     139,883	   0,0616166	61,1	   0,0600498	60,9
     139,971	   0,0628486	62,7	   0,0612264	60,6
     140,059	   0,0645987	62,1	   0,0625343	62,1
     140,147	   0,0667953	61,3	   0,0646787	60,9
     140,235	     0,06827	63,5	   0,0666375	59,7
     140,323	   0,0710837	62,0	   0,0678246	62,4
     140,411	   0,0725922	63,8	   0,0692197	61,0
     140,499	   0,0750398	61,8	   0,0712184	64,2
     140,587	    0,077403	63,0	   0,0741387	61,0
     140,674	   0,0803117	63,2	   0,0762336	63,1
     140,762	   0,0826692	64,2	   0,0792916	61,7
      140,85	   0,0857336	63,1	   0,0828609	64,8
     140,938	   0,0884044	64,2	    0,084265	62,4
     141,026	   0,0916435	65,3	   0,0862483	62,2
     141,114	   0,0941484	64,6	   0,0889217	66,0
     141,202	   0,0974198	65,7	   0,0930176	62,6
      141,29	    0,100909	65,6	   0,0958205	64,3
     141,378	    0,104546	65,4	   0,0983377	63,1
     141,466	    0,107049	64,8	    0,101529	63,0
     141,554	    0,110478	67,0	    0,104018	64,6
     141,642	    0,114111	66,0	    0,107766	65,7
      141,73	    0,118161	65,5	    0,111058	64,8
     141,818	    0,121801	65,9	     0,11448	65,2
     141,906	    0,125189	65,8	    0,118335	63,4
     141,994	    0,128655	66,9	    0,121817	65,3
     142,082	    0,132001	67,7	    0,124155	65,9
      142,17	    0,136196	68,2	    0,128529	67,3
     142,258	     0,14104	68,9	    0,131615	67,3
     142,346	    0,144662	68,6	      0,1358	66,5
     142,434	    0,148102	68,9	    0,138544	66,3
     142,522	    0,151891	69,6	     0,14311	67,6
      142,61	    0,155414	69,7	    0,145743	65,6
     142,698	    0,159047	69,0	    0,150063	67,4
     142,786	    0,162786	69,5	    0,153112	68,6
     142,874	    0,166505	70,0	    0,157853	68,9
     142,962	    0,170108	68,8	    0,160844	65,7
      143,05	    0,174438	68,7	    0,165209	66,8
     143,138	    0,178597	69,1	    0,167881	66,5
     143,226	    0,182222	70,1	    0,171819	66,4
     143,314	    0,184972	72,1	    0,175068	68,5
     143,402	    0,188109	70,3	    0,178763	69,6
      143,49	    0,192554	69,5	    0,182722	67,2
     143,578	    0,195687	71,9	    0,185233	68,6
     143,666	    0,199265	71,3	    0,188976	70,1
     143,754	    0,203178	70,9	    0,193693	68,9
     143,842	    0,205946	72,4	    0,195656	68,3
      143,93	    0,209044	72,0	    0,198778	71,1
     144,018	    0,213561	72,7	     0,20302	70,0
     144,106	    0,215714	73,9	    0,205837	69,4
     144,194	    0,220407	73,0	    0,209686	70,9
     144,282	    0,222887	74,2	    0,211903	70,0
      144,37	    0,226716	70,9	    0,215409	71,5
     144,457	     0,22862	74,0	    0,219364	69,6
     144,545	    0,233664	71,9	    0,222274	71,4
     144,633	     0,23501	71,8	     0,22466	69,6
     144,721	    0,239813	72,3	    0,228831	70,2
     144,809	    0,242232	70,8	    0,231207	71,2
     144,897	    0,244313	75,0	    0,237951	71,9
     144,985	    0,249542	74,1	    0,242652	68,8
     145,073	    0,251371	72,1	    0,240435	180,2
     145,161	    0,253212	73,8	     0,24686	182,1
     145,249	    0,258271	75,7	    0,225903	194,4
     145,337	    0,261969	72,9	    0,154119	-141,0
     145,425	    0,262787	73,5	    0,128133	-136,1
     145,513	    0,265445	75,0	    0,114001	-134,2
     145,601	    0,268844	75,8	    0,105511	-133,8
     145,689	    0,273774	76,6	   0,0972769	-131,6
     145,777	    0,277076	74,7	    0,091412	-131,5
     145,865	    0,280237	72,9	   0,0875199	-131,1
     145,953	    0,281452	70,5	   0,0842399	-130,8
     146,041	    0,283803	73,6	   0,0809893	-130,8
     146,129	    0,284965	73,8	   0,0771838	-128,7
     146,217	    0,287915	72,0	   0,0757146	-130,6
     146,305	    0,289782	73,2	   0,0731881	-129,0
     146,393	    0,292511	73,9	   0,0705475	-128,4
     146,481	    0,296054	73,5	   0,0692905	-129,5
     146,569	    0,298737	74,4	   0,0660886	-128,1
     146,657	    0,302663	72,1	   0,0653482	-129,2
     146,745	    0,307245	73,3	    0,062166	-128,7
     146,833	    0,311077	74,9	   0,0610413	-128,3
     146,921	    0,313693	77,2	    0,060522	-129,8
     147,009	     0,31354	78,8	   0,0592233	-128,9
     147,097	    0,315975	77,0	    0,056819	-127,7
     147,185	    0,319286	77,3	    0,056014	-127,2
     147,273	    0,323641	73,8	   0,0558057	-128,7
     147,361	    0,325229	77,1	   0,0536248	-127,6
     147,449	    0,327116	75,8	   0,0513818	-127,7
     147,537	    0,330644	77,1	   0,0517233	-127,4
     147,625	    0,332926	76,9	   0,0503187	-126,2
     147,713	     0,33465	76,6	   0,0485446	-128,0
     147,801	    0,338635	77,4	   0,0484331	-128,1
     147,889	    0,339994	78,2	   0,0467673	-127,5
     147,977	    0,343302	77,6	    0,046605	-127,7
     148,065	    0,345044	78,9	   0,0447556	-128,1
     148,152	    0,348274	78,4	   0,0451302	-128,5
      148,24	    0,350692	76,3	   0,0437771	-128,7
     148,328	    0,353411	76,2	   0,0439787	-129,5
     148,416	    0,355369	77,6	   0,0423412	-128,2
     148,504	    0,358493	76,6	   0,0425759	-125,6
     148,592	    0,360339	77,7	   0,0414354	-127,7
      148,68	    0,362916	77,4	   0,0400934	-126,2
     148,768	    0,365777	77,3	   0,0403068	-125,9
     148,856	    0,367559	78,0	   0,0392034	-128,4
     148,944	    0,370473	78,4	   0,0384823	-127,1
     149,032	    0,373199	78,1	   0,0384481	-126,6
      149,12	    0,375441	78,3	   0,0378368	-127,4
     149,208	    0,377524	78,1	   0,0371099	-127,6
     149,296	    0,379647	78,7	   0,0363564	-124,9
     149,384	    0,382535	78,1	   0,0353427	-125,9
     149,472	    0,384859	79,1	   0,0356944	-126,2
      149,56	    0,387052	80,6	   0,0354116	-127,0
     149,648	    0,389647	78,6	   0,0348046	-126,6
     149,736	    0,391887	78,4	   0,0339848	-128,1
     149,824	    0,394251	79,6	   0,0333077	-126,9
     149,912	    0,396615	79,7	   0,0329442	-128,2
         150	    0,399575	79,7	   0,0332537	-126,8
     150,088	    0,401631	78,3	   0,0323613	-125,8
     150,176	    0,403731	78,8	    0,032251	-127,4
     150,264	    0,406192	79,5	    0,031533	-126,5
     150,352	    0,408363	79,3	   0,0311554	-126,5
      150,44	     0,41114	78,6	   0,0312252	-127,4
     150,528	    0,413451	79,5	   0,0302317	-125,8
     150,616	    0,415722	78,6	   0,0303257	-127,0
     150,704	    0,417877	79,3	   0,0303366	-126,0
     150,792	    0,419767	79,6	   0,0293859	-126,2
      150,88	     0,42242	79,2	   0,0290868	-127,3
     150,968	    0,424741	80,5	   0,0292416	-127,4
     151,056	    0,426822	80,3	   0,0291234	-126,7
     151,144	    0,429251	80,0	   0,0282455	-126,7
     151,232	    0,431257	80,0	   0,0282286	-124,7
      151,32	    0,433891	79,5	   0,0282481	-126,2
     151,408	    0,435786	81,9	    0,027121	-127,8
     151,496	    0,438387	79,7	   0,0272238	-128,0
     151,584	    0,440148	79,7	   0,0269504	-126,4
     151,672	    0,442742	81,6	   0,0263174	-127,7
      151,76	    0,445005	80,9	   0,0267294	-127,7
     151,848	    0,447052	81,6	   0,0256859	-127,4
     151,935	    0,448829	82,2	    0,026396	-126,5
     152,023	    0,451708	81,9	   0,0255716	-126,4
     152,111	     0,45334	79,8	   0,0257642	-126,3
     152,199	    0,455783	79,2	   0,0248115	-126,2
     152,287	    0,458094	80,9	   0,0249918	-126,3
     152,375	    0,460508	80,2	   0,0252711	-125,3
     152,463	    0,462326	81,9	   0,0240569	-127,4
     152,551	    0,464184	80,7	    0,024482	-128,1
     152,639	    0,466951	81,2	   0,0238748	-126,5
     152,727	    0,468749	81,2	   0,0236812	-125,1
     152,815	     0,47038	81,7	   0,0238832	-126,1
     152,903	    0,472957	79,7	   0,0237976	-126,1
     152,991	    0,475772	83,4	   0,0232552	-126,5
     153,079	    0,477785	82,9	   0,0224946	-128,2
     153,167	      0,4795	81,4	   0,0228547	-124,2
     153,255	    0,481084	82,4	   0,0228315	-129,0
     153,343	    0,483722	79,9	   0,0227246	-125,8
     153,431	    0,486394	80,6	   0,0225754	-125,4
     153,519	    0,488783	81,3	    0,022235	-126,5
     153,607	    0,490768	81,4	   0,0221245	-126,1
     153,695	    0,492932	84,7	   0,0215702	-127,8
     153,783	    0,495192	82,3	    0,021573	-123,6
     153,871	    0,497237	83,2	   0,0215576	-127,2
     153,959	    0,499549	82,1	   0,0210938	-127,5
     154,047	    0,501802	80,5	   0,0212279	-124,8
     154,135	    0,503567	83,0	   0,0211313	-126,7
     154,223	    0,505213	82,1	   0,0210606	-125,7
     154,311	     0,50713	80,7	      0,0211	-125,6
     154,399	     0,50865	81,2	   0,0207064	-127,3
     154,487	    0,510403	84,4	   0,0206145	-126,6
     154,575	    0,513826	83,8	   0,0200022	-126,9
     154,663	    0,516783	82,3	   0,0197217	-126,7
     154,751	    0,518011	81,0	   0,0200177	-126,9
     154,839	    0,518686	83,9	   0,0200648	-127,0
     154,927	    0,522006	85,6	   0,0198593	-126,3
     155,015	    0,525222	82,9	   0,0198317	-124,1
     155,103	    0,525354	81,7	   0,0201088	-125,9
     155,191	    0,526535	85,9	   0,0193736	-125,7
     155,279	    0,531647	85,5	   0,0187219	-126,4
     155,367	    0,531356	81,9	   0,0193149	-126,3
     155,455	    0,534831	87,2	   0,0183119	-127,6
     155,543	    0,537138	81,3	   0,0186333	-127,6
      155,63	    0,536344	86,2	   0,0182697	-126,3
     155,718	    0,542213	81,2	   0,0185239	-126,3
     155,806	    0,540326	84,5	   0,0182393	-126,9
     155,894	      0,5467	82,2	    0,018173	-125,6
     155,982	    0,545356	88,6	   0,0182315	-126,6
      156,07	    0,550309	82,9	   0,0184481	-124,8
     156,158	    0,549956	88,2	   0,0176888	-126,5
     156,246	    0,551536	84,4	   0,0183062	-126,6
     156,334	    0,556239	84,6	    0,017927	-128,0
     156,422	    0,555329	85,6	   0,0174006	-127,9
      156,51	    0,557682	82,3	   0,0178559	-125,8
     156,598	    0,562227	82,8	   0,0175525	-126,6
     156,686	    0,562616	85,0	   0,0170989	-127,3
     156,774	    0,563784	85,0	   0,0173385	-127,2
     156,862	    0,566717	82,9	   0,0174217	-127,5
      156,95	    0,569641	84,1	   0,0171748	-124,5
     157,038	    0,571628	84,2	   0,0167963	-127,5
     157,126	    0,572106	88,0	   0,0166906	-124,2
     157,214	    0,574478	86,3	   0,0166769	-124,3
     157,302	    0,576062	87,5	   0,0164793	-126,6
      157,39	    0,578213	85,2	   0,0165739	-127,6
     157,478	    0,580072	86,8	   0,0165462	-126,8
     157,566	     0,58213	86,5	   0,0165547	-127,3
     157,654	    0,584393	85,4	   0,0166638	-124,2
     157,742	    0,586333	86,5	    0,016461	-126,3
      157,83	    0,588517	84,6	   0,0164317	-125,6
     157,918	    0,590693	87,1	   0,0162678	-124,8
     158,006	    0,592412	87,3	   0,0159712	-127,3
     158,094	     0,59482	87,9	   0,0156209	-126,9
     158,182	     0,59692	85,3	   0,0156797	-126,4
      158,27	     0,59919	86,1	   0,0156356	-125,6
     158,358	     0,60119	84,9	   0,0158219	-126,2
     158,446	    0,602053	88,3	   0,0159856	-125,6
     158,534	    0,604996	88,7	   0,0155257	-125,8
     158,622	     0,60689	87,7	   0,0148167	-127,4
      158,71	    0,608922	86,9	   0,0153987	-126,3
     158,798	    0,610367	86,6	   0,0154896	-124,8
     158,886	    0,612689	85,9	   0,0151465	-126,5
     158,974	    0,614615	85,6	   0,0148109	-126,9
     159,062	    0,616172	89,1	   0,0151744	-125,5
      159,15	    0,619273	87,3	   0,0147354	-127,8
     159,238	    0,620326	87,1	     0,01499	-124,5
     159,326	     0,62298	86,7	   0,0148074	-126,1
     159,413	    0,624794	88,9	   0,0149813	-123,8
     159,501	    0,626246	90,2	   0,0148909	-126,3
     159,589	    0,628311	88,1	   0,0144883	-124,1
     159,677	    0,630672	89,1	   0,0142901	-128,5
     159,765	     0,63221	88,8	   0,0142971	-124,6
     159,853	    0,634538	87,6	   0,0142319	-128,6
     159,941	     0,63591	89,7	   0,0144952	-125,1
     160,029	    0,638258	89,2	   0,0141369	-125,5
     160,117	    0,640518	88,2	   0,0145158	-125,6
     160,205	    0,642432	90,0	   0,0143664	-125,8
     160,293	    0,644393	87,6	   0,0139353	-128,3
     160,381	    0,646538	88,6	   0,0141524	-126,7
     160,469	    0,648377	89,4	   0,0144011	-124,8
     160,557	    0,650317	88,5	   0,0140109	-127,8
     160,645	     0,65152	90,2	   0,0134807	-128,5
     160,733	    0,653936	89,1	   0,0137744	-126,9
     160,821	    0,656499	88,0	   0,0138311	-124,3
     160,909	    0,658021	89,7	   0,0137707	-127,2
     160,997	    0,659911	88,6	   0,0137693	-125,5
     161,085	    0,661697	89,0	   0,0136778	-125,8
     161,173	    0,663606	89,2	   0,0135927	-124,2
     161,261	    0,664974	91,8	   0,0133634	-126,0
     161,349	    0,667286	91,2	   0,0132742	-126,6
     161,437	     0,66984	90,3	   0,0133124	-125,6
     161,525	    0,670997	89,9	   0,0129137	-126,8
     161,613	    0,673646	88,9	   0,0131297	-126,5
     161,701	    0,675385	89,5	    0,013333	-125,5
     161,789	    0,677624	89,3	   0,0130542	-125,8
     161,877	    0,679402	89,1	   0,0133729	-125,2
     161,965	     0,68116	90,9	   0,0128167	-126,6
     162,053	    0,682651	91,5	   0,0131848	-123,5
     162,141	    0,684983	92,9	   0,0126551	-125,4
     162,229	    0,687287	90,9	   0,0126596	-126,3
     162,317	    0,689119	88,2	   0,0129387	-125,0
     162,405	    0,691162	88,9	   0,0128838	-124,9
     162,493	    0,692797	91,8	    0,012662	-126,0
     162,581	    0,694709	90,4	   0,0125903	-127,0
     162,669	    0,696503	90,0	   0,0128431	-124,8
     162,757	    0,698565	92,7	    0,012609	-125,6
     162,845	     0,70039	90,5	   0,0123809	-125,0
     162,933	    0,702603	89,5	    0,012472	-126,1
     163,021	    0,704643	90,5	   0,0122843	-128,7
     163,109	    0,705954	90,3	   0,0127065	-125,4
     163,196	     0,70802	92,2	   0,0123058	-128,5
     163,284	    0,710299	89,8	   0,0123715	-122,2
     163,372	    0,711875	90,4	   0,0121085	-125,1
      163,46	    0,713804	91,5	   0,0123977	-123,0
     163,548	    0,715934	90,8	   0,0120612	-126,7
     163,636	    0,718048	91,2	   0,0121702	-121,9
     163,724	    0,719443	91,0	    0,011947	-126,3
     163,812	    0,721143	93,3	   0,0122101	-124,1
       163,9	    0,722924	92,5	   0,0121558	-126,7
     163,988	    0,725659	91,6	   0,0119126	-126,6
     164,076	    0,727455	93,0	    0,012001	-124,3
     164,164	    0,729109	92,6	   0,0121172	-125,8
     164,252	    0,731011	91,6	   0,0117661	-126,6
      164,34	    0,733337	90,6	   0,0115595	-128,3
     164,428	    0,735131	93,0	   0,0119935	-125,2
     164,516	    0,736701	92,2	   0,0120361	-127,2
     164,604	    0,738868	90,7	   0,0119074	-123,7
     164,692	    0,740515	91,3	   0,0118309	-125,6
      164,78	    0,742926	92,6	     0,01153	-129,4
     164,868	    0,744511	92,4	   0,0116512	-126,5
     164,956	    0,746435	92,1	   0,0114417	-129,0
     165,044	     0,74845	92,3	    0,011297	-124,9
     165,132	    0,750425	92,1	   0,0115356	-124,6
      165,22	    0,752402	91,7	   0,0113116	-126,2
     165,308	    0,754557	92,2	   0,0115244	-124,3
     165,396	    0,756076	93,0	   0,0111572	-128,2
     165,484	    0,757827	93,7	   0,0113052	-127,0
     165,572	    0,759757	94,8	   0,0112555	-125,4
      165,66	    0,761536	93,0	   0,0112166	-127,4
     165,748	    0,763413	93,1	   0,0113867	-123,8
     165,836	    0,765423	92,7	   0,0113492	-124,6
     165,924	    0,767296	92,7	   0,0112185	-124,6
     166,012	    0,769552	92,0	    0,010965	-125,9
       166,1	    0,771296	93,8	   0,0109951	-126,2
     166,188	    0,773451	94,7	   0,0109404	-126,9
     166,276	    0,775184	92,9	   0,0109027	-125,3
     166,364	    0,777016	92,2	   0,0110186	-127,9
     166,452	    0,778914	95,2	   0,0112007	-126,8
      166,54	    0,780587	93,1	   0,0110128	-124,0
     166,628	    0,782302	93,7	   0,0108981	-126,7
     166,716	    0,784289	95,9	   0,0108583	-124,2
     166,804	    0,786129	94,6	   0,0108635	-125,1
     166,891	    0,788189	93,8	   0,0108661	-124,1
     166,979	    0,790219	93,4	   0,0107887	-125,7
     167,067	    0,792138	94,1	   0,0108044	-124,0
     167,155	    0,794045	93,0	   0,0106985	-127,1
     167,243	    0,795989	94,9	    0,010566	-122,6
     167,331	    0,797987	93,9	   0,0107865	-128,0
     167,419	    0,799877	96,0	   0,0107737	-125,0
     167,507	     0,80145	94,8	   0,0105673	-128,0
     167,595	    0,803621	93,0	   0,0106791	-126,1
     167,683	    0,805374	95,4	   0,0106894	-128,0
     167,771	    0,807402	93,2	   0,0104397	-128,8
     167,859	    0,809263	94,3	    0,010346	-127,3
     167,947	    0,811311	94,7	   0,0103663	-125,2
     168,035	    0,812952	94,6	    0,010392	-129,2
     168,123	    0,815097	96,6	   0,0104481	-131,2
     168,211	    0,817023	95,4	   0,0106054	-125,3
     168,299	    0,818242	96,7	   0,0104133	-126,1
     168,387	    0,821008	94,9	   0,0103907	-126,0
     168,475	    0,822843	96,9	   0,0103592	-128,1
     168,563	    0,824618	97,3	   0,0104318	-130,1
     168,651	    0,826636	93,6	    0,010157	-126,8
     168,739	    0,828586	95,3	    0,010141	-125,2
     168,827	    0,830539	96,2	   0,0101338	-126,6
     168,915	    0,832112	94,5	   0,0100934	-128,2
     169,003	    0,833775	95,8	   0,0104009	-126,9
     169,091	    0,835931	95,4	   0,0101718	-126,3
     169,179	      0,8377	95,8	   0,0101809	-129,0
     169,267	    0,839362	95,1	   0,0101418	-126,0
     169,355	    0,841867	95,8	   0,0100762	-126,5
     169,443	     0,84326	96,5	  0,00998834	-127,6
     169,531	    0,845331	95,1	   0,0099294	-123,6
     169,619	    0,847086	96,1	   0,0100499	-124,6
     169,707	    0,849099	97,4	   0,0100977	-127,9
     169,795	     0,85132	96,0	  0,00994354	-127,6
     169,883	    0,852923	95,8	   0,0100495	-127,2
     169,971	    0,855038	97,2	  0,00991892	-127,3
     170,059	    0,856991	96,1	  0,00989583	-124,7
     170,147	      0,8585	96,5	  0,00982685	-129,5
     170,235	    0,860171	96,4	   0,0097095	-122,4
     170,323	    0,862535	97,1	   0,0099688	-129,0
     170,411	    0,864529	97,2	  0,00972319	-126,8
     170,499	    0,865907	97,6	  0,00980897	-124,5
     170,587	    0,867714	98,8	  0,00973933	-126,6
     170,674	    0,869789	95,9	  0,00977616	-127,6
     170,762	    0,872138	98,0	  0,00946361	-124,5
      170,85	    0,874735	96,6	  0,00968472	-125,3
     170,938	     0,87578	96,8	  0,00988936	-125,1
     171,026	    0,877969	97,4	  0,00973296	-126,9
     171,114	    0,879537	98,9	  0,00956135	-125,2
     171,202	     0,88141	95,8	  0,00944326	-125,3
      171,29	    0,883433	96,6	  0,00953908	-126,5
     171,378	    0,885189	98,5	  0,00928325	-125,4
     171,466	    0,887064	96,9	  0,00977605	-131,1
     171,554	    0,888872	98,0	  0,00963358	-127,4
     171,642	    0,891178	95,7	  0,00949135	-125,9
      171,73	    0,892686	101,1	  0,00946726	-126,2
     171,818	    0,894789	98,8	  0,00954378	-125,6
     171,906	    0,896738	97,4	   0,0095686	-130,5
     171,994	    0,898324	98,1	  0,00928243	-127,4
     172,082	    0,900691	96,5	  0,00949225	-124,8
      172,17	     0,90289	98,2	  0,00937441	-127,0
     172,258	    0,904743	96,2	  0,00935629	-127,1
     172,346	    0,906246	97,1	  0,00939116	-129,5
     172,434	    0,908201	98,0	  0,00927082	-124,5
     172,522	     0,90999	100,1	   0,0095344	-127,1
      172,61	    0,912592	98,5	  0,00905732	-124,3
     172,698	    0,913206	99,3	  0,00930502	-124,4
     172,786	    0,915397	99,1	  0,00938888	-128,3
     172,874	    0,917773	98,6	  0,00940093	-126,0
     172,962	      0,9195	97,0	  0,00939942	-127,6
      173,05	     0,92165	97,9	  0,00928641	-125,1
     173,138	    0,923165	99,5	   0,0091252	-124,1
     173,226	    0,925386	99,4	  0,00925422	-126,9
     173,314	    0,927427	97,5	  0,00902495	-125,6
     173,402	    0,929301	95,8	  0,00896471	-123,1
      173,49	    0,930896	99,7	  0,00931357	-127,0
     173,578	    0,933316	98,0	  0,00941738	-125,2
     173,666	    0,934371	100,4	  0,00890816	-124,9
     173,754	    0,936867	100,0	  0,00915316	-129,5
     173,842	    0,938658	98,5	  0,00917358	-124,7
      173,93	    0,940645	100,0	  0,00892339	-124,9
     174,018	    0,942353	101,5	  0,00917653	-129,7
     174,106	    0,944536	98,8	  0,00882255	-123,0
     174,194	    0,946458	99,2	  0,00872019	-123,9
     174,282	    0,948118	100,0	   0,0091793	-127,0
      174,37	     0,95046	100,3	  0,00893014	-124,4
     174,457	    0,952433	100,1	  0,00924968	-131,3
     174,545	    0,954272	97,4	   0,0090731	-126,8
     174,633	     0,95617	99,4	  0,00922233	-129,4
     174,721	    0,958022	101,2	   0,0091779	-126,1
     174,809	    0,959865	99,7	  0,00912305	-127,1
     174,897	    0,961771	100,4	  0,00849801	-126,1
     174,985	    0,963848	100,1	   0,0089243	-127,5
     175,073	    0,965933	98,8	  0,00889325	-126,4
     175,161	     0,96734	100,5	  0,00877668	-125,9
     175,249	     0,96923	98,9	  0,00868928	-125,5
     175,337	    0,971362	101,8	  0,00875442	-128,3
     175,425	    0,973337	99,9	  0,00861382	-125,2
     175,513	    0,975448	100,4	  0,00855343	-123,9
     175,601	    0,976529	102,6	  0,00893093	-125,1
     175,689	    0,979703	100,8	   0,0088395	-126,0
     175,777	    0,981062	100,0	  0,00865479	-127,5
     175,865	    0,982649	99,2	  0,00859027	-128,9
     175,953	    0,985072	100,1	  0,00891536	-131,5
     176,041	    0,986693	101,2	  0,00875989	-125,2
     176,129	    0,988471	102,3	  0,00863042	-128,4
     176,217	     0,99073	100,2	  0,00863353	-121,3
     176,305	    0,992793	100,2	  0,00881475	-129,3
     176,393	    0,994316	101,4	  0,00850299	-125,2
     176,481	    0,996119	100,8	  0,00867393	-127,0
     176,569	    0,998265	100,6	  0,00866718	-126,3
     176,657	    0,999819	100,5	  0,00850554	-124,6
     176,745	     1,00239	99,9	  0,00828782	-127,6
     176,833	     1,00458	102,2	  0,00840244	-126,3
     176,921	     1,00628	100,0	   0,0087746	-128,1
     177,009	     1,00774	101,5	  0,00868253	-127,4
     177,097	     1,00999	101,5	  0,00900604	-129,7
     177,185	     1,01205	99,1	   0,0085497	-130,1
     177,273	     1,01367	100,7	  0,00875654	-127,5
     177,361	     1,01525	101,6	  0,00842396	-126,2
     177,449	     1,01765	101,0	  0,00858561	-125,9
     177,537	      1,0188	101,3	  0,00899738	-130,2
     177,625	     1,02209	98,9	  0,00860223	-130,3
     177,713	      1,0236	99,1	  0,00858726	-124,6
     177,801	     1,02535	100,1	  0,00814039	-127,0
     177,889	     1,02681	103,1	  0,00859562	-129,6
     177,977	      1,0293	101,8	  0,00857316	-126,9
     178,065	     1,03068	103,1	  0,00846637	-127,5
     178,152	     1,03314	101,7	  0,00866498	-128,0
      178,24	     1,03522	101,1	  0,00852658	-126,6
     178,328	     1,03698	101,9	  0,00782622	-124,8
     178,416	     1,03852	101,3	  0,00849672	-129,1
     178,504	     1,04089	101,7	  0,00904681	-130,0
     178,592	     1,04247	102,4	  0,00833198	-124,8
      178,68	     1,04475	101,7	  0,00851803	-128,7
     178,768	     1,04678	103,5	  0,00818037	-125,3
     178,856	     1,04856	101,6	  0,00842286	-126,8
     178,944	     1,05083	101,3	  0,00866216	-127,0
     179,032	     1,05252	103,3	  0,00841457	-123,9
      179,12	     1,05446	102,0	  0,00850224	-128,7
     179,208	     1,05646	104,7	  0,00875177	-128,4
     179,296	     1,05839	102,8	  0,00827493	-127,5
     179,384	     1,06073	103,3	  0,00845867	-123,4
     179,472	     1,06186	102,3	  0,00843725	-129,0
      179,56	     1,06429	101,9	  0,00816017	-130,4
     179,648	     1,06629	101,7	  0,00870849	-131,4
     179,736	     1,06783	102,8	   0,0080647	-127,4
     179,824	     1,06989	104,0	  0,00827882	-123,2
     179,912	     1,07194	102,8	  0,00813282	-127,7
         180	     1,07452	102,1	  0,00850026	-127,0
     180,088	      1,0757	101,6	   0,0082191	-126,9
     180,176	     1,07725	101,1	  0,00790892	-126,0
     180,264	     1,07998	103,2	  0,00848965	-123,8
     180,352	     1,08178	103,2	  0,00828468	-127,0
      180,44	     1,08338	101,9	  0,00774791	-129,6
     180,528	     1,08607	102,3	  0,00887799	-127,0
     180,616	     1,08737	104,3	  0,00784034	-128,7
     180,704	     1,08926	102,8	  0,00792858	-128,8
     180,792	     1,09181	103,1	  0,00770843	-121,9
      180,88	     1,09286	104,7	  0,00808372	-124,5
     180,968	     1,09518	102,6	  0,00750937	-122,7
     181,056	     1,09825	103,9	  0,00792656	-126,0
     181,144	      1,0993	103,9	  0,00752868	-125,0
     181,232	     1,10155	103,5	  0,00807939	-130,4
      181,32	     1,10294	104,3	  0,00783924	-128,9
     181,408	      1,1053	102,7	  0,00816171	-126,9
     181,496	     1,10722	103,7	  0,00840609	-128,7
     181,584	     1,10883	103,5	  0,00819695	-129,9
     181,672	     1,11107	104,1	  0,00816643	-128,2
      181,76	     1,11341	103,0	  0,00790842	-124,5
     181,848	     1,11512	104,7	  0,00807187	-126,4
     181,935	     1,11737	104,0	  0,00780514	-126,3
     182,023	     1,11904	103,6	  0,00780792	-122,7
     182,111	     1,12094	105,5	   0,0077952	-126,6
     182,199	     1,12325	102,0	   0,0083301	-128,9
     182,287	     1,12555	102,4	  0,00816652	-125,9
     182,375	     1,12727	105,4	  0,00854654	-128,5
     182,463	     1,12937	106,1	  0,00796974	-126,4
     182,551	     1,13115	103,5	  0,00857178	-124,2
     182,639	     1,13287	104,8	   0,0078385	-125,2
     182,727	     1,13505	103,7	  0,00806198	-125,0
     182,815	     1,13723	106,6	  0,00746514	-128,1
     182,903	     1,13893	105,3	  0,00780344	-127,0
     182,991	     1,14104	104,7	  0,00774048	-121,3
     183,079	     1,14281	104,5	  0,00806755	-128,1
     183,167	     1,14482	105,6	  0,00817944	-121,2
     183,255	     1,14651	105,0	  0,00775569	-125,2
     183,343	     1,14908	105,2	  0,00757155	-123,7
     183,431	     1,15081	106,5	  0,00735789	-125,8
     183,519	     1,15365	106,1	  0,00807715	-128,7
     183,607	     1,15523	104,4	  0,00834304	-129,3
     183,695	     1,15646	109,8	   0,0076655	-124,8
     183,783	      1,1591	105,4	  0,00750473	-126,5
     183,871	      1,1612	105,7	  0,00746322	-123,2
     183,959	     1,16264	106,1	  0,00738855	-130,5
     184,047	      1,1651	105,9	  0,00790944	-124,4
     184,135	     1,16663	105,6	  0,00791737	-120,7
     184,223	     1,16862	106,7	   0,0074842	-134,4
     184,311	     1,17037	107,2	  0,00804304	-128,0
     184,399	     1,17257	107,3	  0,00834126	-122,5
     184,487	     1,17456	108,1	  0,00783924	-127,6
     184,575	     1,17709	104,5	  0,00810992	-126,8
     184,663	     1,17884	106,0	  0,00732482	-126,2
     184,751	     1,18079	106,3	   0,0081617	-125,2
     184,839	     1,18309	106,9	   0,0075535	-124,1
     184,927	     1,18484	106,1	   0,0080471	-128,8
     185,015	     1,18651	106,8	  0,00809659	-125,9
     185,103	     1,18857	107,1	  0,00741128	-125,8
     185,191	     1,19099	104,6	   0,0078254	-128,6
     185,279	     1,19295	108,7	  0,00810999	-125,1
     185,367	     1,19434	107,5	  0,00722511	-128,2
     185,455	     1,19697	106,6	  0,00777929	-126,3
     185,543	     1,19874	106,9	  0,00763116	-129,9
      185,63	     1,20077	108,1	  0,00766392	-127,3
     185,718	     1,20296	107,2	  0,00724513	-128,6
     185,806	     1,20444	107,8	  0,00799888	-123,6
     185,894	      1,2072	105,7	   0,0072873	-126,9
     185,982	     1,20898	108,0	  0,00791347	-125,4
      186,07	     1,21083	110,2	  0,00809951	-129,1
     186,158	     1,21302	106,9	  0,00754255	-127,7
     186,246	     1,21505	108,6	  0,00798795	-125,0
     186,334	     1,21727	106,8	  0,00772341	-124,7
     186,422	     1,21874	109,4	  0,00797021	-128,3
      186,51	     1,22087	108,8	  0,00806565	-126,0
     186,598	     1,22236	110,1	  0,00785279	-129,0
     186,686	     1,22522	107,2	  0,00798058	-127,5
     186,774	     1,22668	108,2	  0,00802106	-127,5
     186,862	     1,22898	108,8	    0,007939	-132,2
      186,95	      1,2305	107,0	  0,00754405	-123,9
     187,038	     1,23285	109,1	  0,00800466	-127,3
     187,126	     1,23423	109,0	  0,00813053	-127,7
     187,214	     1,23671	109,3	    0,007889	-124,6
     187,302	     1,23887	107,9	  0,00735174	-124,6
      187,39	     1,24025	111,8	  0,00776681	-122,1
     187,478	      1,2426	111,5	  0,00750697	-128,6
     187,566	     1,24516	109,8	  0,00748247	-122,1
     187,654	     1,24636	112,3	  0,00775004	-123,8
     187,742	     1,24795	113,3	  0,00779234	-127,9
      187,83	     1,25007	111,2	  0,00731692	-124,9
     187,918	     1,25107	113,3	   0,0076723	-125,5
     188,006	     1,25229	118,6	   0,0070876	-130,2
     188,094	     1,25503	117,1	  0,00724936	-124,6
     188,182	     1,25632	120,1	  0,00818848	-122,4
      188,27	     1,25748	122,3	  0,00767103	-124,8
     188,358	     1,25794	129,0	  0,00801711	-129,3
     188,446	     1,25846	133,8	  0,00761804	-124,4
     188,534	     1,25815	142,7	  0,00754178	-129,8
     188,622	     1,25989	151,1	  0,00798042	-125,7
      188,71	     1,26034	159,1	    0,007457	-124,1
     188,798	      1,2608	175,8	  0,00785032	-125,8
     188,886	      1,2522	-152,6	  0,00756948	-125,3
     188,974	  0,00723465	-127,0	  0,00743704	-130,1
     189,062	  0,00778037	-128,8	  0,00761635	-126,0
      189,15	  0,00734964	-125,5	  0,00740009	-127,2
     189,238	   0,0074415	-127,4	  0,00744484	-130,8
     189,326	  0,00799168	-122,8	  0,00775297	-125,0
     189,413	  0,00736751	-129,6	  0,00769229	-123,1
     189,501	  0,00710535	-127,4	  0,00716643	-129,8
     189,589	  0,00750164	-124,0	  0,00764671	-128,4
     189,677	  0,00748845	-124,2	  0,00770464	-125,5
     189,765	  0,00733539	-123,2	  0,00758472	-132,1
     189,853	  0,00766842	-127,8	  0,00751973	-125,5
     189,941	    0,007819	-123,0	  0,00737463	-127,2
     190,029	  0,00746677	-125,0	  0,00728091	-124,9
     190,117	  0,00759443	-121,6	  0,00748067	-123,6
     190,205	  0,00773138	-124,9	  0,00777506	-126,9
     190,293	  0,00737763	-127,4	  0,00770569	-122,3
     190,381	   0,0079507	-123,6	   0,0079899	-126,5
     190,469	  0,00770708	-123,8	  0,00741375	-128,7
     190,557	  0,00713907	-122,9	  0,00788403	-128,7
     190,645	  0,00737717	-126,6	  0,00746439	-126,2
     190,733	  0,00758134	-125,3	  0,00767574	-128,4
     190,821	  0,00727348	-129,7	  0,00793913	-131,1
     190,909	  0,00712402	-127,9	  0,00774744	-124,3
     190,997	  0,00719166	-125,6	  0,00730097	-125,1
     191,085	  0,00724548	-128,1	  0,00710715	-127,7
     191,173	  0,00764003	-126,1	  0,00789033	-124,5
     191,261	  0,00715007	-123,6	  0,00784577	-124,7
     191,349	  0,00712122	-128,5	  0,00766175	-124,6
     191,437	  0,00712537	-126,1	  0,00734589	-127,2
     191,525	  0,00788144	-126,5	  0,00708027	-126,3
     191,613	  0,00773452	-126,0	  0,00784036	-125,5
     191,701	  0,00712123	-129,0	  0,00730705	-125,5
     191,789	  0,00777605	-128,5	  0,00796999	-125,7
     191,877	  0,00749773	-123,4	  0,00736363	-126,4
     191,965	  0,00714814	-129,6	  0,00767363	-123,3
     192,053	  0,00792088	-123,5	  0,00745458	-127,1
     192,141	  0,00707292	-128,8	  0,00784461	-129,0
     192,229	  0,00744179	-125,8	   0,0067223	-128,2
     192,317	  0,00719718	-122,3	  0,00759955	-128,0
     192,405	   0,0076595	-125,1	  0,00707623	-122,6
     192,493	  0,00769001	-126,4	  0,00760054	-130,7
     192,581	  0,00717491	-128,4	  0,00759203	-126,4
     192,669	  0,00717434	-121,6	  0,00783855	-128,1
     192,757	  0,00748548	-126,7	  0,00708642	-130,9
     192,845	  0,00763526	-125,4	  0,00742088	-130,3
     192,933	  0,00701586	-125,4	  0,00737125	-125,2
     193,021	  0,00711274	-126,3	  0,00791254	-129,3
     193,109	  0,00797616	-122,8	  0,00725291	-128,0
     193,196	  0,00765992	-125,8	  0,00736836	-125,8
     193,284	   0,0077522	-126,1	  0,00722403	-130,6
     193,372	    0,007021	-129,6	  0,00759676	-125,9
      193,46	  0,00735146	-126,2	  0,00779983	-125,8
     193,548	  0,00771213	-123,0	  0,00719345	-125,1
     193,636	   0,0073156	-128,7	  0,00757936	-129,0
     193,724	  0,00701647	-127,6	  0,00795594	-123,2
     193,812	  0,00722428	-125,0	   0,0076863	-122,3
       193,9	  0,00756372	-125,8	  0,00765485	-124,7
     193,988	  0,00732542	-127,7	  0,00758076	-125,1
     194,076	  0,00745915	-126,8	  0,00764399	-123,4
     194,164	   0,0076383	-128,5	  0,00781004	-128,3
     194,252	  0,00764817	-123,7	  0,00762117	-126,4
      194,34	  0,00810576	-129,1	  0,00748839	-129,1
     194,428	  0,00712497	-129,6	  0,00688432	-129,0
     194,516	  0,00743172	-126,4	  0,00712603	-128,3
     194,604	  0,00755913	-126,0	  0,00727346	-126,6
     194,692	  0,00748848	-122,4	  0,00759391	-121,4
      194,78	  0,00714669	-127,7	   0,0077697	-128,3
     194,868	  0,00686818	-131,0	   0,0075693	-125,4
     194,956	  0,00719958	-128,0	  0,00778107	-128,4
     195,044	  0,00722095	-127,0	  0,00716444	-127,7
     195,132	   0,0075691	-121,1	   0,0073351	-124,2
      195,22	  0,00735819	-125,3	  0,00734065	-125,3
     195,308	   0,0075986	-127,1	  0,00737022	-126,3
     195,396	  0,00759344	-125,0	   0,0070457	-126,3
     195,484	  0,00769499	-128,0	  0,00768011	-128,7
     195,572	   0,0077138	-124,3	  0,00734737	-124,8
      195,66	  0,00767827	-123,1	  0,00738218	-125,8
     195,748	  0,00750837	-128,9	  0,00762983	-128,9
     195,836	  0,00700977	-125,1	  0,00723648	-129,2
     195,924	  0,00794481	-120,1	  0,00758412	-124,0
     196,012	  0,00722693	-127,6	  0,00772713	-125,9
       196,1	  0,00747934	-126,7	   0,0073281	-125,2
     196,188	  0,00757203	-126,9	  0,00770664	-124,6
     196,276	  0,00719466	-125,4	  0,00727534	-128,5
     196,364	  0,00756047	-124,9	  0,00766413	-127,7
     196,452	  0,00748306	-126,4	  0,00696342	-127,8
      196,54	  0,00741321	-124,8	  0,00732582	-127,7
     196,628	  0,00795575	-124,5	  0,00737216	-128,7
     196,716	  0,00738654	-125,6	  0,00776065	-122,4
     196,804	  0,00757677	-121,4	  0,00692413	-127,7
     196,891	  0,00735504	-127,4	   0,0072952	-127,3
     196,979	  0,00760335	-123,0	  0,00730105	-127,8
     197,067	   0,0076949	-124,4	  0,00749214	-125,7
     197,155	  0,00732004	-126,0	  0,00769865	-123,2
     197,243	  0,00759791	-122,8	  0,00775827	-124,2
     197,331	  0,00768836	-123,8	  0,00771227	-122,9
     197,419	  0,00748531	-128,3	  0,00724837	-127,0
     197,507	  0,00732518	-127,7	  0,00744224	-127,7
     197,595	  0,00748093	-122,3	  0,00790707	-123,2
     197,683	  0,00748571	-125,4	  0,00769878	-126,4
     197,771	  0,00766322	-123,5	   0,0079013	-125,2
     197,859	  0,00777216	-123,6	  0,00803171	-121,8
     197,947	  0,00761881	-121,4	  0,00767509	-124,7
     198,035	  0,00727009	-125,3	  0,00714902	-126,5
     198,123	  0,00773469	-124,9	  0,00751698	-125,8
     198,211	  0,00749199	-124,5	  0,00726397	-126,2
     198,299	  0,00795274	-122,8	  0,00755901	-123,1
     198,387	   0,0077853	-124,0	  0,00780551	-122,6
     198,475	  0,00729496	-127,5	  0,00750787	-125,6
     198,563	  0,00733862	-123,7	  0,00773843	-123,1
     198,651	  0,00744932	-126,6	   0,0077056	-123,4
     198,739	  0,00761959	-122,9	  0,00751518	-131,1
     198,827	   0,0076735	-125,6	  0,00729521	-126,5
     198,915	  0,00740295	-127,6	  0,00767301	-123,3
     199,003	  0,00787493	-121,8	  0,00740376	-129,0
     199,091	  0,00745973	-128,5	  0,00732208	-127,7
     199,179	  0,00740661	-124,1	   0,0073143	-125,3
     199,267	  0,00784165	-125,7	  0,00749989	-128,4
     199,355	  0,00727568	-124,3	  0,00748551	-130,8
     199,443	   0,0074786	-125,3	  0,00720999	-127,7
     199,531	  0,00740319	-122,2	  0,00766478	-121,7
     199,619	  0,00779999	-124,9	  0,00736011	-127,8
     199,707	  0,00747534	-125,3	  0,00759645	-122,2
     199,795	  0,00756509	-126,0	  0,00782156	-124,1
     199,883	  0,00774386	-124,5	  0,00730178	-124,7
     199,971	  0,00694845	-129,1	  0,00789116	-123,3
     200,059	  0,00773496	-127,0	  0,00727891	-127,6
     200,147	  0,00731563	-128,5	  0,00748177	-127,9
     200,235	  0,00733639	-125,9	  0,00722304	-124,4
     200,323	  0,00772695	-125,6	  0,00773547	-127,3
     200,411	   0,0078023	-127,6	  0,00730859	-124,6
     200,499	  0,00727648	-130,0	  0,00772467	-126,6
     200,587	  0,00758783	-126,3	  0,00791452	-125,8
     200,674	   0,0077676	-124,2	  0,00778202	-122,6
     200,762	  0,00800312	-124,6	  0,00772272	-123,8
      200,85	   0,0073361	-119,2	  0,00771693	-125,9
     200,938	  0,00748103	-126,6	  0,00787533	-124,3
     201,026	   0,0076968	-126,6	  0,00741844	-124,3
     201,114	  0,00744887	-125,6	    0,007612	-126,6
     201,202	   0,0078182	-120,9	    0,007394	-126,4
      201,29	  0,00782368	-123,7	  0,00763397	-130,1
     201,378	  0,00747007	-126,6	  0,00791791	-124,2
     201,466	   0,0076605	-127,1	  0,00779703	-122,0
     201,554	  0,00741444	-127,2	  0,00740735	-127,9
     201,642	  0,00775407	-123,3	  0,00763081	-123,3
      201,73	  0,00762377	-121,8	  0,00725053	-129,1
     201,818	  0,00743705	-126,0	   0,0075917	-125,2
     201,906	  0,00760473	-124,2	  0,00782746	-125,4
     201,994	  0,00738344	-126,5	  0,00740066	-129,3
     202,082	  0,00744138	-130,4	  0,00738834	-128,7
      202,17	  0,00753242	-127,6	  0,00776026	-124,8
     202,258	  0,00780218	-124,6	  0,00784734	-121,4
     202,346	  0,00772875	-123,3	  0,00769765	-126,2
     202,434	  0,00774356	-123,9	  0,00761355	-128,7
     202,522	  0,00732128	-129,0	   0,0076735	-126,5
      202,61	  0,00762964	-125,8	  0,00806788	-123,1
     202,698	  0,00775827	-126,5	  0,00767902	-128,2
     202,786	  0,00780181	-120,6	  0,00743372	-126,2
     202,874	  0,00766562	-121,2	  0,00759764	-126,1
     202,962	  0,00754396	-125,7	  0,00773969	-128,0
      203,05	  0,00773902	-128,3	  0,00765635	-125,6
     203,138	  0,00762658	-126,5	   0,0079507	-125,4
     203,226	   0,0076473	-131,7	  0,00747602	-127,5
     203,314	  0,00783363	-125,4	  0,00744983	-127,8
     203,402	  0,00781355	-123,2	   0,0076313	-127,3
      203,49	  0,00751291	-125,9	  0,00756629	-125,8
     203,578	  0,00785639	-123,6	  0,00778949	-127,8
     203,666	  0,00749504	-128,5	  0,00788656	-128,3
     203,754	  0,00741912	-127,8	  0,00797114	-120,8
     203,842	  0,00782624	-125,8	  0,00755755	-126,4
      203,93	  0,00765152	-125,9	  0,00780843	-125,2
     204,018	  0,00775869	-127,8	  0,00763987	-122,7
     204,106	  0,00744019	-127,9	  0,00782444	-124,6
     204,194	  0,00786464	-126,0	  0,00770107	-122,9
     204,282	  0,00794608	-121,4	  0,00753703	-126,4
      204,37	  0,00777404	-125,8	  0,00767316	-125,7
     204,457	  0,00768455	-126,2	  0,00768034	-126,4
     204,545	  0,00784039	-125,4	  0,00802765	-120,0
     204,633	  0,00792555	-124,6	  0,00763129	-123,9
     204,721	  0,00776082	-125,9	  0,00779545	-127,7
     204,809	  0,00778038	-124,3	  0,00770013	-125,2
     204,897	   0,0077523	-128,5	  0,00760965	-126,1
     204,985	  0,00759191	-129,1	   0,0077325	-127,2
     205,073	  0,00752685	-126,8	  0,00790862	-126,5
     205,161	  0,00775829	-123,6	   0,0079105	-126,7
     205,249	  0,00766754	-124,8	  0,00791193	-126,5
     205,337	  0,00777014	-124,7	  0,00798304	-123,3
     205,425	  0,00791817	-124,0	  0,00802211	-124,4
     205,513	  0,00792652	-128,1	  0,00769711	-126,9
     205,601	  0,00755938	-127,9	  0,00795913	-122,4
     205,689	  0,00768491	-126,0	  0,00780995	-125,1
     205,777	  0,00769718	-122,9	  0,00803962	-124,7
     205,865	  0,00787737	-127,5	  0,00786246	-122,7
     205,953	   0,0079627	-125,8	  0,00793512	-123,8
     206,041	  0,00803568	-124,4	  0,00778526	-127,6
     206,129	  0,00756328	-125,9	  0,00810528	-126,4
     206,217	  0,00799655	-124,8	  0,00792222	-129,2
     206,305	  0,00775248	-124,7	   0,0078823	-124,7
     206,393	  0,00775372	-126,7	  0,00811994	-123,4
     206,481	  0,00781167	-125,9	  0,00797116	-125,9
     206,569	  0,00815047	-124,6	  0,00783102	-129,7
     206,657	  0,00782319	-124,7	  0,00767494	-126,8
     206,745	  0,00795354	-125,2	  0,00779324	-123,6
     206,833	  0,00788964	-122,1	  0,00787988	-122,8
     206,921	  0,00799656	-123,8	  0,00780436	-124,3
     207,009	  0,00786336	-121,6	  0,00793219	-128,2
     207,097	  0,00804789	-121,9	   0,0081952	-123,1
     207,185	  0,00781137	-124,6	  0,00780056	-126,6
     207,273	   0,0080977	-121,7	  0,00791743	-123,5
     207,361	  0,00785687	-125,0	  0,00808069	-127,4
     207,449	  0,00788152	-122,9	   0,0080679	-124,8
     207,537	  0,00773741	-127,8	  0,00813749	-123,5
     207,625	  0,00802576	-122,7	  0,00801461	-124,1
     207,713	  0,00796422	-128,2	  0,00785618	-124,7
     207,801	  0,00787902	-127,1	  0,00803549	-123,8
     207,889	  0,00785532	-125,6	  0,00801252	-123,5
     207,977	  0,00818653	-125,8	   0,0080733	-123,7
     208,065	  0,00780107	-125,6	  0,00818198	-124,7
     208,152	  0,00788411	-125,0	  0,00787206	-124,3
      208,24	  0,00779996	-123,0	  0,00779768	-121,4
     208,328	   0,0078144	-127,1	  0,00783838	-123,3
     208,416	  0,00802954	-123,6	  0,00832578	-128,5
     208,504	  0,00786631	-127,0	  0,00811589	-123,9
     208,592	  0,00811527	-122,9	  0,00803457	-125,8
      208,68	  0,00790906	-124,4	  0,00798238	-125,9
     208,768	  0,00808039	-125,1	  0,00799733	-122,9
     208,856	  0,00814609	-126,5	   0,0078785	-122,1
     208,944	   0,0081049	-123,3	  0,00810365	-127,5
     209,032	  0,00811756	-126,5	  0,00803971	-126,0
      209,12	  0,00807944	-127,2	  0,00813519	-129,7
     209,208	  0,00798082	-128,4	  0,00809618	-126,2
     209,296	  0,00812523	-126,6	  0,00803938	-122,0
     209,384	  0,00796909	-123,2	  0,00804358	-126,6
     209,472	  0,00823987	-123,2	  0,00823641	-126,9
      209,56	  0,00804595	-122,6	  0,00816382	-121,1
     209,648	  0,00822842	-126,5	  0,00810376	-125,0
     209,736	  0,00801648	-119,7	  0,00804872	-124,2
     209,824	  0,00825295	-125,6	  0,00819305	-126,1
     209,912	  0,00808382	-126,6	    0,008106	-128,0
         210	  0,00788708	-125,7	  0,00826721	-126,8

