X-Data [Hz]	Laser (M - Filtered) [m/s]	Phase [Deg]	Laser (M - Filtered) [m/s]	Phase [Deg]	
	002: [07-10-24 10:58]		003: [07-10-24 11:01]	
        41,5	  0,00853636	77,3	  0,00865985	76,4
      41,502	  0,00853738	79,6	  0,00865287	77,8
     41,5039	   0,0085697	78,8	  0,00870681	80,0
     41,5059	  0,00866166	80,5	  0,00870289	78,8
     41,5078	  0,00863306	79,5	  0,00874373	76,8
     41,5098	  0,00864567	77,4	  0,00878596	79,9
     41,5117	  0,00876503	78,5	  0,00876186	77,0
     41,5137	  0,00885138	78,5	  0,00876948	80,6
     41,5156	  0,00874362	78,1	  0,00873091	78,5
     41,5176	   0,0087345	80,1	    0,008816	79,1
     41,5196	   0,0087698	77,4	  0,00882507	79,8
     41,5215	  0,00876998	79,2	  0,00882177	76,8
     41,5235	  0,00877553	75,9	   0,0088606	78,4
     41,5254	  0,00882799	75,6	  0,00883469	77,7
     41,5274	  0,00882937	78,7	   0,0088445	78,1
     41,5293	  0,00888586	77,0	  0,00892537	77,0
     41,5313	  0,00891764	77,7	  0,00886195	76,9
     41,5332	  0,00891762	74,7	  0,00895558	76,3
     41,5352	   0,0089185	80,3	  0,00896415	76,1
     41,5371	  0,00900163	76,9	  0,00889182	80,7
     41,5391	  0,00896839	80,7	  0,00889159	78,6
     41,5411	  0,00888273	78,9	  0,00896533	75,9
      41,543	  0,00889579	79,2	  0,00903319	80,7
      41,545	  0,00896846	80,6	  0,00894375	78,6
     41,5469	  0,00902317	79,0	  0,00893247	79,1
     41,5489	  0,00907042	80,4	  0,00904452	77,3
     41,5508	  0,00903406	76,6	  0,00908988	79,9
     41,5528	  0,00902313	76,9	   0,0090628	76,7
     41,5547	   0,0091199	76,7	  0,00904554	76,0
     41,5567	  0,00914445	76,1	  0,00913582	78,2
     41,5587	  0,00907702	78,9	  0,00916108	77,0
     41,5606	  0,00907089	77,9	   0,0090769	80,3
     41,5626	  0,00910605	77,4	  0,00914724	76,0
     41,5645	  0,00911516	77,1	  0,00914207	77,7
     41,5665	  0,00908116	76,0	  0,00911287	78,4
     41,5684	  0,00909852	81,0	  0,00917083	76,9
     41,5704	  0,00913308	78,9	  0,00924376	79,0
     41,5723	  0,00911129	80,6	  0,00925521	77,9
     41,5743	   0,0091725	78,2	  0,00921741	78,0
     41,5762	  0,00922782	78,7	  0,00914537	77,9
     41,5782	  0,00922497	80,9	  0,00919617	81,1
     41,5802	  0,00928929	78,7	  0,00931729	79,7
     41,5821	  0,00921802	81,9	  0,00924367	78,5
     41,5841	  0,00925249	75,8	  0,00929842	79,3
      41,586	  0,00925473	78,8	  0,00931291	78,4
      41,588	  0,00925617	77,1	  0,00936444	80,5
     41,5899	  0,00922815	77,8	  0,00941318	79,5
     41,5919	  0,00934268	81,8	  0,00947397	79,7
     41,5938	  0,00945876	77,8	  0,00938352	82,0
     41,5958	  0,00930517	80,0	  0,00944456	77,1
     41,5978	  0,00928155	78,3	  0,00935178	78,9
     41,5997	  0,00933276	81,7	  0,00939075	79,2
     41,6017	  0,00947454	81,1	  0,00942528	76,8
     41,6036	  0,00942029	78,2	  0,00955529	80,0
     41,6056	  0,00936607	80,9	  0,00947886	78,0
     41,6075	  0,00950365	79,8	  0,00947955	80,4
     41,6095	  0,00949522	77,8	  0,00947259	78,4
     41,6114	   0,0094706	80,0	  0,00946996	80,8
     41,6134	  0,00939946	79,1	  0,00946634	81,5
     41,6153	  0,00947902	81,2	  0,00950165	78,1
     41,6173	  0,00944591	77,3	  0,00960751	80,2
     41,6193	  0,00946801	76,7	  0,00966366	77,2
     41,6212	  0,00943227	78,0	  0,00963749	79,6
     41,6232	  0,00953437	78,2	  0,00960841	79,8
     41,6251	  0,00967081	81,2	  0,00956411	79,0
     41,6271	  0,00971494	78,1	    0,009634	78,9
      41,629	  0,00965105	80,3	  0,00965516	78,9
      41,631	  0,00956454	79,3	  0,00966986	80,2
     41,6329	  0,00955305	80,8	  0,00971054	78,9
     41,6349	  0,00957577	81,4	  0,00969718	81,7
     41,6369	  0,00962135	79,2	  0,00962814	82,5
     41,6388	  0,00971103	80,8	  0,00962121	80,8
     41,6408	  0,00973206	77,4	  0,00976553	79,3
     41,6427	  0,00971948	78,6	  0,00986802	80,0
     41,6447	  0,00966655	79,2	  0,00982148	79,0
     41,6466	  0,00971931	79,0	   0,0097239	80,9
     41,6486	  0,00972594	79,8	  0,00970521	79,3
     41,6505	  0,00975785	79,3	  0,00992434	79,3
     41,6525	  0,00977987	79,2	  0,00996916	79,6
     41,6544	  0,00985518	78,4	  0,00985492	81,0
     41,6564	  0,00984701	78,6	  0,00984673	80,9
     41,6584	  0,00982024	80,6	  0,00982731	80,0
     41,6603	  0,00981745	78,7	  0,00991502	80,9
     41,6623	   0,0098959	80,2	  0,00997896	82,1
     41,6642	  0,00997098	81,6	   0,0100353	79,2
     41,6662	   0,0100182	79,0	  0,00995719	82,4
     41,6681	  0,00999715	78,4	  0,00989604	77,7
     41,6701	  0,00987686	78,7	  0,00997454	78,8
      41,672	  0,00994495	79,2	  0,00997681	80,6
      41,674	   0,0100396	80,8	  0,00999134	79,7
      41,676	   0,0100166	78,6	   0,0100802	79,8
     41,6779	   0,0100046	80,5	   0,0101947	76,5
     41,6799	   0,0100397	79,9	   0,0102005	81,0
     41,6818	    0,010025	81,7	   0,0101879	80,8
     41,6838	   0,0100879	83,0	   0,0101345	79,2
     41,6857	   0,0101793	80,5	  0,00999771	81,6
     41,6877	   0,0102038	81,4	   0,0100259	79,2
     41,6896	   0,0102383	78,1	   0,0101285	80,4
     41,6916	     0,01021	78,5	    0,010252	79,8
     41,6936	      0,0101	79,5	   0,0103196	79,9
     41,6955	   0,0101253	80,5	   0,0103413	81,8
     41,6975	   0,0102423	81,7	   0,0103059	79,0
     41,6994	   0,0102405	79,7	   0,0102991	81,2
     41,7014	   0,0102333	78,8	    0,010324	77,9
     41,7033	   0,0102539	80,4	   0,0102878	78,1
     41,7053	   0,0101725	78,8	   0,0103666	81,0
     41,7072	   0,0103268	83,5	   0,0103417	80,0
     41,7092	   0,0104106	82,1	    0,010446	81,4
     41,7111	   0,0104547	79,9	   0,0104801	82,9
     41,7131	    0,010386	80,9	    0,010471	79,8
     41,7151	   0,0103453	78,5	   0,0104428	81,5
      41,717	   0,0103736	80,1	   0,0103875	79,2
      41,719	   0,0104915	80,4	   0,0103962	80,1
     41,7209	   0,0104599	79,8	   0,0104349	81,5
     41,7229	   0,0105121	81,2	   0,0105476	79,7
     41,7248	    0,010513	80,1	   0,0106364	82,4
     41,7268	   0,0105596	81,8	   0,0105768	80,7
     41,7287	   0,0105957	80,1	   0,0105117	78,0
     41,7307	   0,0105486	79,6	   0,0104556	83,0
     41,7327	    0,010541	83,1	   0,0105013	78,6
     41,7346	   0,0105271	82,1	   0,0106703	83,1
     41,7366	   0,0105226	79,6	   0,0107803	82,9
     41,7385	   0,0105355	84,0	   0,0107216	81,3
     41,7405	   0,0106308	80,4	   0,0107765	81,6
     41,7424	   0,0106593	80,8	   0,0108615	78,2
     41,7444	   0,0107104	80,6	   0,0108331	82,3
     41,7463	   0,0107228	80,8	   0,0107869	83,0
     41,7483	   0,0107373	81,6	   0,0107957	79,0
     41,7502	   0,0106747	79,9	   0,0107918	82,6
     41,7522	   0,0106712	83,0	   0,0107667	79,9
     41,7542	   0,0107989	80,7	   0,0109047	79,1
     41,7561	   0,0108489	81,2	   0,0109388	82,6
     41,7581	   0,0109068	82,2	   0,0108943	81,1
       41,76	   0,0108494	80,2	   0,0109667	82,7
      41,762	   0,0108446	80,7	   0,0109543	82,9
     41,7639	   0,0108591	83,7	   0,0109555	80,7
     41,7659	   0,0108615	78,7	   0,0109502	83,2
     41,7678	   0,0108919	80,5	   0,0109359	78,8
     41,7698	   0,0110148	83,4	   0,0110075	81,1
     41,7718	   0,0109989	80,3	   0,0110163	82,2
     41,7737	    0,011005	84,4	   0,0110382	79,6
     41,7757	   0,0109972	80,4	    0,011127	81,4
     41,7776	   0,0109699	80,9	   0,0111799	82,0
     41,7796	   0,0110047	81,2	   0,0112102	81,9
     41,7815	   0,0110464	79,4	   0,0111323	83,2
     41,7835	   0,0110317	84,7	   0,0112041	82,3
     41,7854	   0,0111376	83,1	   0,0112862	83,0
     41,7874	   0,0111559	83,1	   0,0111857	84,0
     41,7893	   0,0112095	83,3	   0,0112177	79,6
     41,7913	    0,011209	79,2	   0,0112706	82,6
     41,7933	   0,0111912	83,1	   0,0113131	80,3
     41,7952	   0,0111829	84,8	   0,0114065	79,3
     41,7972	    0,011234	80,9	   0,0113813	83,1
     41,7991	   0,0112563	83,3	   0,0113438	80,8
     41,8011	   0,0113055	82,8	   0,0113786	84,2
      41,803	   0,0113733	81,2	   0,0113792	84,1
      41,805	   0,0113976	82,4	   0,0114327	82,4
     41,8069	   0,0113303	81,4	   0,0114847	82,8
     41,8089	   0,0113883	82,7	   0,0115352	82,1
     41,8109	   0,0113875	82,4	   0,0115428	81,6
     41,8128	   0,0113829	82,0	   0,0115306	84,2
     41,8148	   0,0114918	84,8	   0,0115961	82,3
     41,8167	   0,0116463	82,5	   0,0115801	82,1
     41,8187	   0,0116665	81,6	   0,0116326	85,4
     41,8206	    0,011581	82,0	   0,0116065	83,1
     41,8226	   0,0115181	79,3	   0,0116517	82,7
     41,8245	   0,0115183	84,4	   0,0116709	83,7
     41,8265	   0,0115542	84,1	   0,0117046	81,6
     41,8284	   0,0116252	84,8	   0,0117385	85,2
     41,8304	   0,0117457	84,8	   0,0117983	81,9
     41,8324	   0,0117434	84,8	   0,0117882	82,3
     41,8343	   0,0117522	81,6	   0,0117931	82,7
     41,8363	    0,011706	83,6	    0,011826	82,0
     41,8382	    0,011781	80,8	   0,0119666	83,1
     41,8402	   0,0117748	82,0	   0,0120222	83,6
     41,8421	   0,0118487	85,5	   0,0120379	82,4
     41,8441	   0,0118672	82,4	   0,0121077	83,8
      41,846	   0,0118981	83,4	   0,0120051	83,7
      41,848	   0,0120008	84,9	   0,0119566	81,2
       41,85	   0,0119838	80,8	    0,012001	83,4
     41,8519	   0,0119796	84,4	   0,0120535	79,7
     41,8539	   0,0120664	83,3	   0,0121361	80,8
     41,8558	      0,0121	81,5	   0,0121331	84,9
     41,8578	   0,0119593	83,7	   0,0121921	83,4
     41,8597	   0,0119704	82,5	   0,0122404	85,5
     41,8617	   0,0121215	84,3	   0,0122347	83,1
     41,8636	   0,0120939	85,4	   0,0121661	81,9
     41,8656	   0,0120761	81,5	   0,0121985	83,7
     41,8675	   0,0121054	84,0	   0,0122816	82,2
     41,8695	   0,0121698	83,3	   0,0124115	82,9
     41,8715	   0,0123185	82,3	   0,0124165	85,8
     41,8734	   0,0122794	85,3	   0,0123937	83,6
     41,8754	   0,0122221	84,1	   0,0124395	84,8
     41,8773	   0,0123038	82,3	    0,012424	87,0
     41,8793	   0,0122845	84,8	   0,0125612	81,9
     41,8812	   0,0123244	82,7	    0,012514	84,4
     41,8832	   0,0123769	85,1	   0,0126457	83,4
     41,8851	   0,0124511	84,1	    0,012672	83,0
     41,8871	   0,0125134	83,1	   0,0126466	86,5
     41,8891	   0,0125097	84,7	   0,0126533	85,4
      41,891	   0,0125403	84,4	   0,0126441	84,3
      41,893	   0,0125345	83,5	   0,0126294	84,7
     41,8949	   0,0125518	85,6	   0,0126783	82,7
     41,8969	   0,0125586	84,2	   0,0127579	82,5
     41,8988	   0,0126663	83,4	   0,0129318	84,4
     41,9008	   0,0127187	83,5	   0,0128973	86,0
     41,9027	   0,0127158	83,6	   0,0129175	85,1
     41,9047	   0,0128084	84,1	   0,0129485	85,2
     41,9066	   0,0127288	83,3	    0,012948	83,8
     41,9086	   0,0127018	84,3	   0,0129619	85,1
     41,9106	   0,0128389	87,2	    0,013023	83,3
     41,9125	   0,0129214	86,2	    0,013048	84,2
     41,9145	   0,0129133	85,0	   0,0130846	85,6
     41,9164	   0,0129361	86,8	   0,0129098	87,3
     41,9184	   0,0129484	85,8	   0,0130247	83,9
     41,9203	   0,0129328	83,8	     0,01315	85,8
     41,9223	   0,0130008	85,4	   0,0131836	84,6
     41,9242	   0,0129533	84,3	   0,0131942	85,1
     41,9262	   0,0129913	82,9	   0,0132209	85,9
     41,9282	     0,01307	88,1	    0,013213	84,9
     41,9301	   0,0130282	85,6	   0,0132099	85,9
     41,9321	    0,013197	87,4	     0,01326	86,6
      41,934	   0,0133287	88,0	   0,0133359	82,7
      41,936	   0,0133467	85,7	   0,0134303	86,5
     41,9379	   0,0133293	86,5	   0,0135644	86,2
     41,9399	   0,0133324	83,2	   0,0135115	86,0
     41,9418	   0,0133668	82,3	   0,0135659	86,3
     41,9438	   0,0133937	86,8	   0,0136208	84,8
     41,9457	   0,0133658	85,4	    0,013704	86,9
     41,9477	   0,0135106	83,4	   0,0137036	88,2
     41,9497	   0,0135489	86,8	   0,0136977	84,5
     41,9516	   0,0136074	86,6	   0,0137202	85,4
     41,9536	   0,0137059	87,9	   0,0137549	87,2
     41,9555	   0,0136718	89,0	   0,0138304	86,4
     41,9575	   0,0137396	84,4	   0,0138915	87,1
     41,9594	    0,013651	85,5	   0,0139269	87,5
     41,9614	   0,0136036	87,8	   0,0138795	86,6
     41,9633	   0,0137115	86,5	    0,013892	88,2
     41,9653	   0,0137445	86,4	   0,0138783	89,3
     41,9673	   0,0137406	86,3	   0,0138701	84,7
     41,9692	   0,0137636	85,3	   0,0139231	86,6
     41,9712	   0,0137795	87,3	   0,0140515	87,0
     41,9731	   0,0138475	87,3	   0,0140301	86,7
     41,9751	   0,0138784	84,6	   0,0140589	87,9
      41,977	   0,0139957	86,8	   0,0140845	86,5
      41,979	   0,0139823	86,7	   0,0141576	86,1
     41,9809	   0,0140034	86,7	   0,0143398	88,0
     41,9829	   0,0140196	86,9	   0,0142661	87,7
     41,9848	    0,014075	87,6	   0,0142842	86,0
     41,9868	   0,0141674	87,1	   0,0144611	89,1
     41,9888	   0,0142236	90,1	   0,0144442	85,3
     41,9907	   0,0142638	87,0	   0,0145622	89,4
     41,9927	   0,0143408	87,0	   0,0146064	89,6
     41,9946	   0,0143512	87,6	   0,0145943	85,4
     41,9966	   0,0143409	87,7	   0,0146234	86,3
     41,9985	    0,014307	87,1	   0,0146209	88,0
     42,0005	   0,0143993	88,7	   0,0145994	86,1
     42,0024	   0,0144999	86,9	   0,0146586	89,9
     42,0044	   0,0145067	87,8	   0,0147082	89,2
     42,0064	    0,014525	89,0	   0,0148137	87,8
     42,0083	   0,0145296	87,9	   0,0149259	89,0
     42,0103	   0,0145646	88,4	   0,0149363	88,5
     42,0122	   0,0146562	89,9	   0,0150006	87,4
     42,0142	   0,0147584	86,5	   0,0150243	87,6
     42,0161	   0,0148137	87,6	   0,0150616	88,4
     42,0181	   0,0149311	89,4	   0,0150261	88,6
       42,02	   0,0149318	88,5	   0,0151443	90,6
      42,022	   0,0148736	90,1	   0,0151604	89,0
     42,0239	   0,0148792	90,8	    0,015238	88,6
     42,0259	   0,0148461	89,4	   0,0152162	90,2
     42,0279	     0,01495	89,3	   0,0153608	87,5
     42,0298	   0,0150671	90,4	   0,0153799	87,8
     42,0318	   0,0151037	87,7	   0,0154244	90,2
     42,0337	   0,0151111	89,2	   0,0154919	89,7
     42,0357	   0,0151533	90,1	   0,0154966	89,7
     42,0376	   0,0151947	87,9	   0,0155849	89,8
     42,0396	    0,015232	90,0	   0,0156068	90,5
     42,0415	   0,0153027	89,7	   0,0157162	88,8
     42,0435	   0,0153555	89,1	   0,0158274	91,7
     42,0455	   0,0153606	91,2	    0,015899	88,6
     42,0474	   0,0154164	91,6	   0,0159322	90,1
     42,0494	   0,0154674	88,3	   0,0159005	86,6
     42,0513	   0,0155657	90,6	   0,0158824	90,2
     42,0533	   0,0157475	88,7	   0,0159505	88,1
     42,0552	   0,0158034	87,9	   0,0159289	91,2
     42,0572	   0,0157352	88,8	   0,0159669	89,7
     42,0591	   0,0157733	90,6	   0,0160076	89,4
     42,0611	    0,015812	89,4	   0,0161297	92,8
      42,063	   0,0158022	92,7	   0,0161866	90,4
      42,065	   0,0158022	93,2	   0,0163028	90,5
      42,067	   0,0158437	90,1	    0,016301	93,3
     42,0689	   0,0159834	92,2	   0,0163932	92,5
     42,0709	   0,0160115	91,6	   0,0165437	89,4
     42,0728	   0,0161058	88,9	   0,0165683	91,6
     42,0748	   0,0161415	90,1	   0,0166372	89,9
     42,0767	   0,0162036	91,7	   0,0165987	92,4
     42,0787	   0,0162444	90,2	   0,0165509	93,3
     42,0806	    0,016216	92,9	    0,016611	91,0
     42,0826	   0,0162477	91,7	   0,0166712	90,2
     42,0846	   0,0163403	91,1	   0,0167111	92,4
     42,0865	   0,0163948	90,8	   0,0168437	91,1
     42,0885	   0,0164357	91,8	   0,0169421	91,7
     42,0904	   0,0164544	90,2	   0,0169952	93,9
     42,0924	   0,0164711	92,2	   0,0170857	94,0
     42,0943	   0,0164887	92,3	   0,0171507	90,9
     42,0963	   0,0165069	91,5	   0,0171202	92,2
     42,0982	   0,0165739	93,1	   0,0171997	92,5
     42,1002	   0,0166813	92,5	   0,0171891	91,0
     42,1021	   0,0168139	92,0	   0,0172474	93,6
     42,1041	   0,0168357	93,3	   0,0173359	94,5
     42,1061	   0,0168668	95,5	   0,0173556	92,1
      42,108	   0,0170163	95,4	   0,0173971	92,6
       42,11	    0,017122	94,5	   0,0174373	92,9
     42,1119	   0,0171373	94,8	   0,0174582	91,4
     42,1139	   0,0172522	91,0	   0,0174966	94,7
     42,1158	   0,0171816	91,6	   0,0176207	93,8
     42,1178	   0,0172814	93,0	   0,0178407	90,8
     42,1197	   0,0172659	93,6	   0,0179532	92,5
     42,1217	   0,0174281	96,0	    0,017939	93,9
     42,1237	   0,0175777	95,9	   0,0179921	92,7
     42,1256	   0,0175441	91,9	   0,0180217	99,3
     42,1276	   0,0175873	94,7	   0,0180517	97,6
     42,1295	    0,017637	93,5	   0,0180858	94,3
     42,1315	   0,0176892	92,4	   0,0182023	94,9
     42,1334	   0,0177878	94,6	   0,0182149	97,5
     42,1354	    0,017851	96,1	   0,0183273	90,5
     42,1373	   0,0178954	93,1	    0,018453	93,2
     42,1393	   0,0179843	92,6	    0,018465	96,8
     42,1413	   0,0179929	96,7	   0,0185507	94,9
     42,1432	   0,0180973	94,3	   0,0186237	93,8
     42,1452	   0,0181417	97,7	   0,0186451	97,0
     42,1471	    0,018122	98,1	   0,0186468	96,4
     42,1491	   0,0182119	95,3	   0,0187346	96,0
      42,151	   0,0183159	95,2	    0,018774	98,1
      42,153	   0,0184689	95,0	   0,0188844	93,8
     42,1549	   0,0185675	94,7	    0,018965	94,2
     42,1569	    0,018512	94,0	   0,0189975	95,6
     42,1588	     0,01861	93,5	   0,0190416	95,8
     42,1608	   0,0187409	95,5	    0,019079	94,8
     42,1628	   0,0187641	94,8	   0,0191181	98,5
     42,1647	   0,0188367	100,7	   0,0191955	99,8
     42,1667	   0,0189317	97,6	   0,0193971	91,8
     42,1686	   0,0189308	95,1	   0,0195612	95,0
     42,1706	   0,0189234	98,1	   0,0196032	98,6
     42,1725	    0,019028	99,8	   0,0197243	98,1
     42,1745	   0,0191833	96,3	   0,0198945	99,5
     42,1764	   0,0192835	97,0	   0,0198634	101,2
     42,1784	   0,0193259	98,5	    0,019895	97,4
     42,1804	   0,0193488	95,8	    0,019899	97,8
     42,1823	   0,0194443	96,2	   0,0200264	98,8
     42,1843	   0,0195077	98,8	   0,0200791	98,0
     42,1862	   0,0195388	97,9	   0,0201251	97,4
     42,1882	   0,0196265	98,8	   0,0201533	99,7
     42,1901	   0,0197075	99,2	   0,0202866	97,0
     42,1921	    0,019767	99,0	   0,0204131	95,7
      42,194	   0,0198008	98,6	    0,020532	101,8
      42,196	   0,0199124	101,5	   0,0206092	99,8
     42,1979	   0,0199976	101,3	    0,020742	99,4
     42,1999	   0,0201766	99,1	   0,0208655	106,0
     42,2019	   0,0202672	100,4	   0,0209022	98,7
     42,2038	   0,0204278	97,7	   0,0209651	100,3
     42,2058	   0,0203767	97,8	   0,0211257	101,0
     42,2077	   0,0204802	101,7	   0,0211377	102,0
     42,2097	   0,0205141	99,2	   0,0211543	99,2
     42,2116	   0,0205791	99,9	   0,0212417	99,8
     42,2136	   0,0206667	99,1	   0,0212669	101,9
     42,2155	   0,0206764	102,2	   0,0213973	100,7
     42,2175	     0,02073	100,6	   0,0215237	99,9
     42,2195	   0,0208764	100,2	   0,0214917	103,8
     42,2214	   0,0209324	104,6	   0,0216253	102,7
     42,2234	   0,0210222	101,3	   0,0218625	99,4
     42,2253	   0,0210872	101,1	   0,0219523	103,3
     42,2273	   0,0211968	104,8	   0,0220834	103,7
     42,2292	   0,0213178	102,4	   0,0222323	101,2
     42,2312	   0,0213833	101,6	   0,0223405	104,8
     42,2331	    0,021371	102,7	   0,0223383	105,4
     42,2351	   0,0214789	103,3	   0,0224854	102,5
      42,237	   0,0215924	100,7	   0,0225392	102,1
      42,239	   0,0217093	104,6	   0,0226599	104,1
      42,241	   0,0218841	104,3	   0,0227482	102,5
     42,2429	   0,0219517	104,3	   0,0228573	103,3
     42,2449	   0,0220841	102,9	   0,0229173	104,3
     42,2468	   0,0220942	105,8	   0,0229963	105,2
     42,2488	   0,0221241	107,2	   0,0231094	103,3
     42,2507	   0,0222399	104,6	    0,023186	102,4
     42,2527	   0,0223161	106,5	   0,0232555	108,2
     42,2546	   0,0223458	102,7	   0,0234002	106,3
     42,2566	   0,0224148	103,6	   0,0234713	105,9
     42,2586	   0,0225576	107,8	   0,0235915	107,7
     42,2605	   0,0226191	107,2	   0,0236937	105,3
     42,2625	   0,0227201	103,4	   0,0237348	104,7
     42,2644	   0,0228851	104,7	   0,0238842	109,2
     42,2664	   0,0229036	109,0	   0,0240267	108,0
     42,2683	   0,0229992	105,6	   0,0240787	104,8
     42,2703	   0,0231645	105,7	   0,0241576	105,8
     42,2722	   0,0232937	107,1	   0,0243522	109,4
     42,2742	   0,0233213	108,4	    0,024418	106,5
     42,2761	   0,0234289	107,2	   0,0245639	108,6
     42,2781	   0,0235185	109,5	   0,0246871	110,4
     42,2801	   0,0236278	109,2	   0,0247241	109,9
      42,282	   0,0237283	109,2	   0,0248803	107,8
      42,284	    0,023821	109,6	    0,024924	107,5
     42,2859	   0,0238662	109,9	    0,025089	111,9
     42,2879	   0,0239585	108,2	   0,0252183	107,9
     42,2898	    0,024076	107,3	   0,0252534	111,0
     42,2918	   0,0242014	110,2	   0,0253739	113,0
     42,2937	   0,0242236	110,5	   0,0255021	111,3
     42,2957	   0,0243977	108,6	    0,025572	110,0
     42,2977	   0,0244506	110,6	   0,0256939	111,8
     42,2996	   0,0245725	110,9	   0,0258124	111,0
     42,3016	    0,024689	111,2	   0,0259756	109,8
     42,3035	   0,0247932	109,8	   0,0260743	110,7
     42,3055	   0,0248659	112,2	   0,0261727	114,9
     42,3074	   0,0249825	112,8	   0,0262154	114,4
     42,3094	   0,0250904	112,8	   0,0263049	112,3
     42,3113	   0,0251267	113,9	   0,0264196	111,8
     42,3133	   0,0252155	115,5	   0,0264926	114,5
     42,3153	   0,0253021	111,6	   0,0267079	114,1
     42,3172	   0,0253477	113,3	   0,0267298	114,7
     42,3192	   0,0255303	115,7	   0,0268778	115,5
     42,3211	   0,0256947	113,7	   0,0269203	116,6
     42,3231	   0,0258318	112,3	   0,0270927	116,4
      42,325	   0,0259098	115,3	   0,0271833	116,9
      42,327	   0,0259768	115,1	   0,0271994	118,8
     42,3289	   0,0260526	112,8	    0,027359	115,0
     42,3309	   0,0261846	115,1	   0,0274371	116,2
     42,3328	   0,0262174	116,0	    0,027653	118,7
     42,3348	   0,0263834	114,6	    0,027737	118,7
     42,3368	   0,0264542	114,1	   0,0278295	116,8
     42,3387	   0,0265095	115,6	   0,0279244	117,8
     42,3407	     0,02666	117,7	   0,0280376	118,0
     42,3426	   0,0267547	117,0	   0,0281748	117,1
     42,3446	   0,0267954	117,9	   0,0282721	119,4
     42,3465	   0,0269312	118,8	   0,0283477	120,4
     42,3485	   0,0270243	116,9	   0,0284583	118,7
     42,3504	   0,0271076	117,5	   0,0284359	118,2
     42,3524	   0,0271615	122,4	   0,0285886	123,0
     42,3544	   0,0273235	122,0	   0,0286904	122,8
     42,3563	   0,0274744	118,1	   0,0289247	120,1
     42,3583	    0,027529	119,0	   0,0289356	121,1
     42,3602	   0,0275953	121,3	   0,0290735	123,8
     42,3622	   0,0277157	120,8	   0,0291183	123,9
     42,3641	   0,0278032	119,0	   0,0292878	123,6
     42,3661	   0,0279404	121,6	   0,0293812	124,3
      42,368	   0,0280727	120,0	   0,0295242	122,6
       42,37	    0,028197	120,7	    0,029612	121,3
     42,3719	   0,0282766	124,7	   0,0297128	123,0
     42,3739	   0,0283698	123,6	   0,0298186	126,6
     42,3759	   0,0284094	123,7	   0,0299356	126,4
     42,3778	   0,0285091	123,8	   0,0300035	123,3
     42,3798	    0,028588	123,4	   0,0301111	126,0
     42,3817	   0,0286798	126,5	   0,0302851	126,7
     42,3837	   0,0287821	124,6	   0,0303477	124,9
     42,3856	   0,0288738	125,4	   0,0302812	128,6
     42,3876	   0,0290265	126,5	   0,0303973	130,0
     42,3895	    0,029072	126,8	   0,0304596	127,5
     42,3915	   0,0292254	125,1	   0,0305999	126,2
     42,3935	   0,0293042	127,1	   0,0307155	132,2
     42,3954	   0,0293414	129,8	   0,0307024	131,1
     42,3974	   0,0294791	125,9	   0,0307406	128,1
     42,3993	    0,029607	128,4	   0,0307659	130,0
     42,4013	   0,0297548	128,7	   0,0308191	131,1
     42,4032	    0,029802	131,2	   0,0309459	132,2
     42,4052	   0,0299369	127,2	    0,031011	131,1
     42,4071	   0,0300598	127,4	   0,0311119	135,3
     42,4091	   0,0301529	130,7	   0,0311706	135,3
      42,411	   0,0301925	131,7	   0,0313224	131,7
      42,413	   0,0303198	129,5	   0,0314283	131,7
      42,415	    0,030328	130,7	   0,0314361	134,8
     42,4169	   0,0305254	131,7	   0,0314877	136,1
     42,4189	   0,0305815	132,0	   0,0315648	135,7
     42,4208	   0,0307195	131,0	   0,0316226	134,5
     42,4228	    0,030752	131,1	   0,0316852	137,1
     42,4247	   0,0307845	133,5	   0,0317038	134,3
     42,4267	    0,030865	134,2	   0,0317103	134,7
     42,4286	   0,0309366	133,8	   0,0317741	137,3
     42,4306	   0,0310401	133,4	   0,0318459	138,2
     42,4326	   0,0310594	135,0	   0,0318805	135,2
     42,4345	    0,031081	134,7	   0,0319716	136,4
     42,4365	   0,0311477	136,8	   0,0320203	140,6
     42,4384	   0,0312144	137,6	   0,0320939	139,7
     42,4404	   0,0312987	134,9	   0,0320967	137,4
     42,4423	   0,0313263	136,5	   0,0321237	137,9
     42,4443	    0,031426	139,5	    0,032164	141,2
     42,4462	   0,0314543	139,9	   0,0321553	140,5
     42,4482	   0,0314763	140,0	     0,03227	141,7
     42,4501	   0,0315191	137,3	   0,0322373	139,3
     42,4521	   0,0316471	140,3	   0,0322061	144,0
     42,4541	   0,0317401	140,7	   0,0322117	142,3
      42,456	    0,031859	139,8	   0,0322771	141,8
      42,458	   0,0318516	140,7	   0,0323004	143,1
     42,4599	   0,0318635	141,6	   0,0324529	145,2
     42,4619	   0,0319158	142,1	   0,0324336	144,8
     42,4638	   0,0319495	142,0	   0,0325312	143,0
     42,4658	   0,0319982	142,1	   0,0324914	145,4
     42,4677	   0,0320541	144,5	   0,0325045	145,0
     42,4697	   0,0320766	141,8	    0,032642	145,8
     42,4717	   0,0321233	142,9	   0,0326072	146,1
     42,4736	   0,0321703	143,9	    0,032688	148,1
     42,4756	   0,0322405	146,6	   0,0327333	144,7
     42,4775	   0,0322735	144,1	   0,0327208	145,9
     42,4795	   0,0322693	142,3	   0,0326958	147,6
     42,4814	   0,0323298	147,0	   0,0326673	149,0
     42,4834	   0,0324263	147,7	   0,0325692	150,1
     42,4853	   0,0323874	146,1	   0,0326553	143,8
     42,4873	   0,0323562	145,9	   0,0326588	149,0
     42,4892	   0,0323722	147,5	    0,032602	151,6
     42,4912	   0,0323841	148,5	   0,0326558	149,9
     42,4932	   0,0324297	147,2	   0,0326661	148,5
     42,4951	   0,0324599	150,6	   0,0326418	149,7
     42,4971	   0,0324437	149,0	   0,0326143	152,6
      42,499	   0,0325181	150,5	   0,0326056	150,5
      42,501	    0,032536	149,0	   0,0325419	151,9
     42,5029	   0,0325699	148,9	   0,0325493	152,5
     42,5049	   0,0325779	154,5	   0,0324915	151,9
     42,5068	   0,0326364	153,2	   0,0324831	152,0
     42,5088	   0,0325733	151,7	   0,0324711	152,2
     42,5108	   0,0325746	152,0	   0,0324494	154,9
     42,5127	   0,0326115	154,9	   0,0324468	153,6
     42,5147	    0,032561	155,4	   0,0324058	152,7
     42,5166	   0,0326067	152,7	    0,032342	155,7
     42,5186	   0,0324952	155,6	   0,0323455	156,6
     42,5205	   0,0324406	155,9	   0,0322736	156,6
     42,5225	   0,0324373	155,3	   0,0322552	156,6
     42,5244	   0,0324747	156,8	   0,0321337	158,2
     42,5264	   0,0324387	157,8	   0,0321211	159,6
     42,5283	    0,032457	156,9	   0,0321148	158,9
     42,5303	   0,0324577	158,1	   0,0320417	157,5
     42,5323	   0,0324299	156,9	   0,0320079	155,8
     42,5342	   0,0323918	158,7	   0,0320349	161,5
     42,5362	   0,0324139	160,0	   0,0320007	160,7
     42,5381	   0,0323636	158,5	   0,0320136	158,8
     42,5401	   0,0323137	157,7	   0,0319999	159,7
      42,542	    0,032212	159,8	   0,0320074	162,9
      42,544	   0,0322081	161,6	   0,0319427	162,9
     42,5459	   0,0321639	162,4	   0,0318821	159,2
     42,5479	   0,0321273	160,6	    0,031865	160,3
     42,5499	   0,0321849	160,3	   0,0318614	163,8
     42,5518	   0,0321179	162,6	   0,0317582	165,9
     42,5538	    0,032099	161,8	   0,0317524	160,0
     42,5557	   0,0320471	161,8	   0,0316824	162,3
     42,5577	   0,0321005	162,1	   0,0316658	165,1
     42,5596	   0,0319793	163,7	   0,0315778	165,3
     42,5616	   0,0320102	163,2	   0,0315945	160,9
     42,5635	   0,0319214	160,9	   0,0314935	164,0
     42,5655	   0,0318803	162,7	   0,0314976	166,6
     42,5674	   0,0317771	166,1	   0,0314163	165,0
     42,5694	   0,0318031	163,0	   0,0313317	163,4
     42,5714	   0,0317238	163,5	   0,0313656	164,6
     42,5733	   0,0316263	164,9	   0,0312754	166,1
     42,5753	    0,031592	165,7	   0,0311287	167,2
     42,5772	   0,0316264	164,5	   0,0310907	166,0
     42,5792	   0,0316424	165,7	   0,0309963	166,2
     42,5811	    0,031506	165,9	   0,0308935	168,0
     42,5831	   0,0314614	168,2	   0,0309196	166,6
      42,585	   0,0314377	167,2	   0,0309043	167,0
      42,587	   0,0314176	166,2	   0,0307754	168,9
      42,589	   0,0313334	168,0	   0,0306733	169,0
     42,5909	   0,0312861	169,0	   0,0305872	167,4
     42,5929	   0,0312326	165,5	   0,0304451	167,0
     42,5948	   0,0311484	167,6	   0,0304059	169,3
     42,5968	   0,0310706	169,8	   0,0303268	170,6
     42,5987	   0,0309799	170,7	   0,0302716	169,1
     42,6007	   0,0309097	170,1	   0,0302168	168,6
     42,6026	    0,030887	168,7	   0,0301673	170,4
     42,6046	   0,0308119	169,6	   0,0301445	170,9
     42,6065	   0,0308148	171,4	   0,0301013	169,7
     42,6085	   0,0307639	171,3	   0,0300027	170,8
     42,6105	   0,0306701	168,9	   0,0300501	169,1
     42,6124	   0,0305956	172,7	   0,0299435	173,5
     42,6144	   0,0304769	172,5	   0,0298656	174,0
     42,6163	   0,0304919	173,5	   0,0298692	171,8
     42,6183	   0,0304647	171,1	   0,0298081	172,0
     42,6202	   0,0303955	173,0	   0,0296792	174,5
     42,6222	   0,0302829	174,7	    0,029629	173,4
     42,6241	   0,0301088	175,9	   0,0294984	174,3
     42,6261	   0,0300086	171,9	    0,029407	173,7
     42,6281	   0,0300374	172,6	   0,0294111	174,8
       42,63	   0,0299864	175,8	   0,0293202	173,6
      42,632	   0,0299924	175,4	   0,0292872	173,7
     42,6339	   0,0299025	174,2	   0,0292147	174,1
     42,6359	   0,0298397	174,7	   0,0291787	175,8
     42,6378	   0,0297618	176,6	   0,0290526	177,3
     42,6398	   0,0296688	175,2	    0,028976	175,7
     42,6417	   0,0295996	176,0	   0,0289487	175,9
     42,6437	   0,0295401	176,0	   0,0289446	175,9
     42,6456	   0,0294708	177,6	   0,0288522	178,2
     42,6476	   0,0293922	176,4	   0,0288102	177,5
     42,6496	   0,0292281	179,1	   0,0286315	176,9
     42,6515	   0,0292112	176,8	   0,0284994	179,0
     42,6535	   0,0291642	177,4	   0,0284304	177,3
     42,6554	   0,0289962	178,5	   0,0283313	181,2
     42,6574	   0,0289411	179,4	   0,0283059	177,1
     42,6593	   0,0288575	178,5	   0,0282543	177,8
     42,6613	   0,0287486	178,0	   0,0282102	179,5
     42,6632	   0,0286858	179,5	   0,0281159	179,9
     42,6652	   0,0286223	181,5	   0,0280789	179,5
     42,6672	   0,0285736	180,2	   0,0279695	176,6
     42,6691	    0,028501	179,0	   0,0279981	179,4
     42,6711	   0,0284445	180,5	   0,0278203	180,5
      42,673	   0,0283839	183,2	   0,0276522	180,7
      42,675	   0,0282651	181,2	   0,0275896	179,8
     42,6769	   0,0281319	180,1	   0,0275065	182,0
     42,6789	   0,0280582	184,4	   0,0273918	178,2
     42,6808	   0,0280466	183,4	   0,0274271	182,7
     42,6828	    0,027849	183,1	   0,0273142	182,0
     42,6847	   0,0277701	181,4	   0,0272153	178,6
     42,6867	   0,0276948	182,7	   0,0271259	183,9
     42,6887	   0,0276923	184,1	   0,0270473	183,0
     42,6906	   0,0275506	184,1	    0,027018	182,4
     42,6926	   0,0273639	182,9	   0,0269619	180,8
     42,6945	   0,0273805	183,5	   0,0269105	183,8
     42,6965	   0,0272591	184,1	   0,0268233	185,2
     42,6984	   0,0271448	183,0	   0,0267519	185,0
     42,7004	   0,0270711	184,5	   0,0266454	182,0
     42,7023	   0,0269834	185,0	   0,0265851	183,0
     42,7043	   0,0268645	184,0	   0,0264441	185,7
     42,7063	   0,0267981	183,0	   0,0262847	187,0
     42,7082	   0,0267934	187,4	   0,0262221	184,1
     42,7102	   0,0267998	186,3	   0,0261142	184,4
     42,7121	   0,0266562	185,6	   0,0260907	187,7
     42,7141	   0,0266203	186,2	   0,0259726	188,4
      42,716	   0,0264863	188,1	   0,0258895	189,4
      42,718	   0,0264212	187,0	   0,0258376	185,5
     42,7199	   0,0263394	187,4	   0,0257236	188,1
     42,7219	   0,0262693	187,8	   0,0257518	189,1
     42,7239	   0,0261148	187,8	   0,0257022	191,0
     42,7258	   0,0259649	187,4	   0,0256421	185,3
     42,7278	   0,0259242	189,0	   0,0255411	186,4
     42,7297	   0,0257896	187,9	   0,0253602	189,4
     42,7317	   0,0257641	188,1	   0,0253481	191,1
     42,7336	   0,0257237	189,9	   0,0252947	189,6
     42,7356	   0,0255628	191,1	   0,0252384	187,2
     42,7375	   0,0255741	189,1	   0,0252006	187,3
     42,7395	   0,0255044	188,9	    0,025111	192,6
     42,7414	   0,0254008	188,7	   0,0250024	191,3
     42,7434	   0,0253264	192,9	   0,0249587	188,0
     42,7454	   0,0251662	192,6	   0,0247792	189,4
     42,7473	   0,0250735	189,3	   0,0246636	191,0
     42,7493	   0,0250044	190,4	   0,0246434	191,2
     42,7512	   0,0248402	193,3	   0,0245807	189,5
     42,7532	   0,0248952	194,6	    0,024437	190,9
     42,7551	    0,024816	191,3	    0,024354	194,0
     42,7571	   0,0247576	192,2	   0,0243669	194,1
      42,759	    0,024732	195,9	   0,0242926	194,6
      42,761	   0,0246405	195,3	    0,024309	195,2
      42,763	   0,0245404	191,3	   0,0240737	194,3
     42,7649	    0,024489	192,6	   0,0241317	192,5
     42,7669	   0,0244003	195,3	   0,0240161	195,4
     42,7688	   0,0242955	196,2	   0,0239471	194,0
     42,7708	    0,024215	196,5	    0,023853	192,9
     42,7727	   0,0242305	193,2	    0,023735	193,9
     42,7747	   0,0241576	192,0	    0,023759	193,1
     42,7766	   0,0240835	197,2	   0,0237145	195,9
     42,7786	   0,0239785	195,5	   0,0235889	193,2
     42,7805	   0,0238536	196,2	   0,0235163	193,4
     42,7825	   0,0237509	193,0	    0,023355	191,5
     42,7845	   0,0235694	196,1	   0,0231376	196,5
     42,7864	   0,0236577	195,0	   0,0230764	194,3
     42,7884	   0,0235353	197,1	   0,0230664	193,9
     42,7903	   0,0234676	194,1	   0,0230514	189,7
     42,7923	   0,0234086	194,9	   0,0228299	196,0
     42,7942	   0,0233817	196,0	   0,0227633	194,7
     42,7962	   0,0233661	194,5	   0,0224286	195,7
     42,7981	   0,0232219	196,6	    0,022604	196,2
     42,8001	   0,0231636	195,1	   0,0225012	191,8
     42,8021	    0,023016	194,5	   0,0225532	196,9
      42,804	   0,0229145	194,8	   0,0224657	199,1
      42,806	   0,0228146	196,4	   0,0224257	195,4
     42,8079	    0,022771	198,3	   0,0221868	197,5
     42,8099	   0,0226256	196,2	   0,0223708	196,8
     42,8118	   0,0225369	195,1	   0,0223513	-160,0
     42,8138	   0,0225286	199,1	   0,0221705	-161,2
     42,8157	   0,0225089	196,7	   0,0221825	-163,8
     42,8177	   0,0223916	196,2	    0,022062	-163,1
     42,8196	   0,0223947	196,9	   0,0220101	-163,5
     42,8216	   0,0222499	199,5	     0,02198	-160,6
     42,8236	   0,0221379	200,0	   0,0218793	-161,5
     42,8255	   0,0220174	198,7	   0,0217828	-160,5
     42,8275	   0,0219728	-159,8	   0,0216925	-164,1
     42,8294	   0,0219076	-162,9	   0,0215874	-162,3
     42,8314	   0,0218614	-160,7	   0,0214181	-159,1
     42,8333	   0,0217327	-158,6	   0,0214743	-158,0
     42,8353	   0,0216104	-160,3	   0,0213609	-161,1
     42,8372	   0,0216242	-159,4	   0,0213067	-160,8
     42,8392	   0,0214755	-159,7	   0,0211974	-160,5
     42,8412	   0,0214068	-159,4	   0,0211933	-160,6
     42,8431	   0,0214096	-157,4	   0,0211609	-159,5
     42,8451	   0,0213281	-158,1	   0,0210235	-159,7
      42,847	   0,0213489	-158,5	   0,0209601	-162,3
      42,849	   0,0212654	-159,4	   0,0210218	-162,7
     42,8509	   0,0211422	-158,4	   0,0209825	-157,0
     42,8529	   0,0210962	-159,4	   0,0208882	-157,1
     42,8548	   0,0209788	-157,3	   0,0208894	-161,1
     42,8568	   0,0209338	-157,3	   0,0208107	-161,7
     42,8587	     0,02087	-160,2	   0,0207117	-160,2
     42,8607	   0,0208235	-160,1	   0,0205985	-157,6
     42,8627	   0,0206714	-156,6	   0,0205081	-158,5
     42,8646	   0,0206518	-155,7	   0,0204314	-159,9
     42,8666	   0,0205694	-159,5	   0,0203526	-159,3
     42,8685	   0,0205228	-160,3	    0,020431	-160,0
     42,8705	   0,0204534	-157,7	    0,020332	-158,4
     42,8724	   0,0203959	-155,9	    0,020155	-158,3
     42,8744	   0,0202778	-158,4	   0,0200703	-161,2
     42,8763	   0,0202619	-159,0	   0,0201211	-159,4
     42,8783	    0,020139	-158,9	   0,0200994	-156,9
     42,8803	   0,0200442	-157,9	   0,0199539	-156,6
     42,8822	   0,0199741	-157,5	   0,0198995	-157,2
     42,8842	   0,0199164	-155,9	   0,0198117	-157,7
     42,8861	    0,019854	-156,3	   0,0197344	-157,7
     42,8881	   0,0198808	-157,5	   0,0197071	-158,8
       42,89	   0,0197955	-156,4	   0,0196185	-154,6
      42,892	   0,0197997	-153,7	   0,0195269	-154,2
     42,8939	   0,0196688	-152,3	   0,0193825	-156,9
     42,8959	   0,0195526	-156,2	   0,0193058	-156,8
     42,8979	   0,0194204	-155,9	   0,0192752	-157,3
     42,8998	   0,0193488	-153,9	   0,0191881	-153,6
     42,9018	   0,0193049	-154,3	   0,0191958	-153,8
     42,9037	   0,0192065	-154,2	   0,0191784	-155,6
     42,9057	    0,019225	-154,6	   0,0191512	-155,9
     42,9076	   0,0191278	-154,1	   0,0190533	-156,8
     42,9096	   0,0190092	-156,3	    0,019029	-156,5
     42,9115	   0,0189851	-151,6	   0,0190215	-154,6
     42,9135	    0,018859	-154,6	   0,0189954	-154,6
     42,9154	   0,0187802	-156,0	    0,018917	-158,6
     42,9174	   0,0188129	-156,8	   0,0187814	-156,9
     42,9194	   0,0187069	-155,1	   0,0186807	-154,8
     42,9213	   0,0187585	-153,5	   0,0186333	-153,8
     42,9233	   0,0187007	-153,4	    0,018595	-156,3
     42,9252	   0,0186439	-154,6	    0,018413	-153,7
     42,9272	   0,0185338	-155,7	   0,0183882	-154,8
     42,9291	   0,0185128	-156,3	   0,0183977	-154,8
     42,9311	     0,01846	-152,2	   0,0183276	-152,2
      42,933	   0,0184081	-151,7	   0,0182913	-151,6
      42,935	   0,0183222	-154,3	   0,0182725	-153,4
      42,937	   0,0182784	-153,2	   0,0182134	-154,6
     42,9389	   0,0182244	-154,9	   0,0181155	-153,0
     42,9409	    0,018253	-153,0	   0,0179757	-151,4
     42,9428	   0,0180859	-149,6	   0,0178617	-150,1
     42,9448	   0,0179965	-150,6	   0,0178103	-151,0
     42,9467	   0,0178926	-149,5	   0,0178398	-151,9
     42,9487	   0,0177882	-152,5	   0,0178402	-154,1
     42,9506	   0,0178106	-153,2	   0,0177449	-151,7
     42,9526	   0,0178006	-149,1	   0,0177012	-152,9
     42,9545	   0,0178186	-150,9	   0,0176993	-153,1
     42,9565	   0,0177011	-151,9	    0,017655	-151,8
     42,9585	   0,0175903	-152,4	   0,0175509	-154,8
     42,9604	   0,0175527	-154,8	   0,0174616	-153,9
     42,9624	   0,0174636	-150,1	    0,017381	-152,8
     42,9643	   0,0173978	-150,5	   0,0173071	-151,7
     42,9663	   0,0173302	-150,9	   0,0172794	-154,8
     42,9682	   0,0173227	-153,5	   0,0172614	-152,0
     42,9702	   0,0172772	-153,5	   0,0171458	-152,3
     42,9721	    0,017223	-151,2	     0,01708	-150,3
     42,9741	   0,0171254	-149,6	   0,0169826	-149,9
     42,9761	   0,0170721	-150,1	   0,0169324	-149,6
      42,978	   0,0169916	-148,4	   0,0169746	-151,2
       42,98	   0,0170128	-151,4	   0,0169219	-150,2
     42,9819	   0,0169022	-148,8	    0,016882	-152,0
     42,9839	   0,0168286	-147,9	   0,0168356	-147,7
     42,9858	    0,016751	-147,7	   0,0168042	-148,5
     42,9878	   0,0166984	-148,7	   0,0166881	-151,5
     42,9897	   0,0166776	-148,6	   0,0166377	-151,8
     42,9917	   0,0165908	-151,1	   0,0165562	-152,1
     42,9936	   0,0165783	-152,7	   0,0165574	-151,6
     42,9956	   0,0165363	-147,7	   0,0165194	-148,4
     42,9976	   0,0165145	-150,1	   0,0164863	-148,6
     42,9995	   0,0164732	-150,2	   0,0163921	-152,2
     43,0015	   0,0164178	-150,8	   0,0163609	-151,8
     43,0034	   0,0163224	-150,9	   0,0163344	-149,7
     43,0054	   0,0163183	-149,5	   0,0163192	-146,9
     43,0073	    0,016224	-148,6	   0,0161737	-148,9
     43,0093	   0,0162096	-147,1	   0,0160931	-149,6
     43,0112	   0,0161891	-150,4	   0,0161215	-150,8
     43,0132	   0,0161288	-149,3	   0,0160652	-153,1
     43,0152	   0,0160892	-149,2	   0,0160044	-146,5
     43,0171	   0,0160494	-147,5	   0,0160326	-149,0
     43,0191	   0,0159417	-145,7	   0,0160341	-148,5
      43,021	   0,0159076	-146,0	   0,0159008	-150,6
      43,023	   0,0158413	-147,9	   0,0157808	-149,3
     43,0249	   0,0157419	-149,1	    0,015732	-151,3
     43,0269	   0,0156772	-145,6	    0,015683	-151,3
     43,0288	   0,0156521	-147,4	   0,0156048	-147,2
     43,0308	   0,0156612	-147,6	   0,0155682	-147,1
     43,0327	   0,0157495	-147,9	   0,0155467	-149,0
     43,0347	   0,0156419	-149,7	   0,0155072	-149,8
     43,0367	   0,0155256	-149,8	   0,0155243	-148,5
     43,0386	   0,0154052	-149,3	   0,0154928	-148,4
     43,0406	   0,0154242	-146,1	   0,0154104	-145,3
     43,0425	   0,0153375	-146,1	   0,0153124	-146,4
     43,0445	   0,0153215	-148,3	   0,0151772	-149,2
     43,0464	   0,0152948	-146,5	   0,0151519	-149,0
     43,0484	   0,0152536	-145,6	   0,0151147	-146,6
     43,0503	   0,0151519	-147,6	   0,0151193	-148,8
     43,0523	   0,0151686	-145,8	   0,0150707	-146,5
     43,0543	   0,0149934	-144,1	   0,0149933	-145,6
     43,0562	   0,0149568	-145,9	   0,0150595	-147,8
     43,0582	   0,0149424	-148,3	   0,0149337	-149,0
     43,0601	   0,0150059	-148,9	   0,0149885	-148,0
     43,0621	   0,0148127	-144,8	   0,0147881	-146,9
      43,064	   0,0148484	-147,8	     0,01488	-144,8
      43,066	   0,0148687	-147,4	   0,0148875	-142,6
     43,0679	   0,0148733	-148,1	   0,0147945	-146,9
     43,0699	   0,0147408	-148,6	   0,0147255	-146,7
     43,0718	   0,0147007	-146,1	    0,014663	-145,1
     43,0738	   0,0145646	-144,6	    0,014736	-146,7
     43,0758	   0,0145321	-144,2	   0,0146762	-143,8
     43,0777	   0,0144725	-144,1	   0,0145466	-145,7
     43,0797	   0,0144243	-145,1	   0,0145616	-147,3
     43,0816	   0,0144608	-145,3	   0,0145125	-149,2
     43,0836	   0,0144185	-146,4	   0,0144981	-147,3
     43,0855	   0,0142702	-143,9	   0,0144372	-146,8
     43,0875	    0,014274	-147,0	   0,0143022	-144,9
     43,0894	   0,0142891	-144,7	   0,0141549	-144,3
     43,0914	   0,0142496	-146,7	   0,0141203	-142,4
     43,0934	   0,0141146	-146,8	    0,014139	-145,0
     43,0953	   0,0140753	-148,0	   0,0141474	-144,7
     43,0973	   0,0140852	-145,0	   0,0141677	-144,8
     43,0992	   0,0141009	-142,9	   0,0141937	-146,1
     43,1012	    0,014022	-145,0	   0,0140826	-143,3
     43,1031	   0,0139351	-144,6	   0,0139792	-144,2
     43,1051	    0,013936	-146,1	   0,0140456	-148,4
      43,107	   0,0138948	-147,3	   0,0140778	-147,7
      43,109	   0,0139125	-143,4	   0,0139763	-146,5
     43,1109	   0,0139276	-144,7	   0,0138139	-146,4
     43,1129	   0,0138081	-142,5	   0,0137418	-142,6
     43,1149	   0,0137316	-143,4	   0,0135944	-142,4
     43,1168	   0,0137218	-145,6	   0,0135339	-144,1
     43,1188	   0,0136285	-146,6	   0,0135398	-144,6
     43,1207	   0,0135833	-144,3	    0,013486	-144,3
     43,1227	   0,0135787	-144,1	      0,0135	-143,6
     43,1246	   0,0135084	-143,7	   0,0135035	-141,9
     43,1266	   0,0135308	-141,0	   0,0135403	-143,1
     43,1285	    0,013509	-146,9	    0,013472	-143,7
     43,1305	   0,0134258	-145,0	   0,0134307	-146,2
     43,1325	   0,0133834	-142,3	   0,0133472	-146,2
     43,1344	   0,0133291	-142,6	   0,0133008	-145,8
     43,1364	   0,0133754	-140,4	   0,0133372	-142,8
     43,1383	    0,013334	-141,8	   0,0132852	-140,8
     43,1403	   0,0132812	-144,3	   0,0131661	-145,9
     43,1422	   0,0132179	-145,0	   0,0131213	-141,7
     43,1442	   0,0131173	-145,2	      0,0132	-141,0
     43,1461	   0,0131063	-144,4	   0,0132225	-142,3
     43,1481	   0,0130645	-142,4	   0,0131868	-146,2
       43,15	   0,0130618	-142,0	   0,0131096	-143,0
      43,152	   0,0130723	-140,9	   0,0130894	-144,5
      43,154	   0,0129996	-144,3	   0,0129347	-145,3
     43,1559	   0,0129598	-143,4	   0,0128675	-143,5
     43,1579	   0,0129516	-143,6	   0,0128628	-146,2
     43,1598	   0,0129788	-143,4	   0,0127907	-144,2
     43,1618	   0,0129019	-141,1	   0,0127624	-141,2
     43,1637	   0,0127844	-140,2	   0,0127586	-141,5
     43,1657	   0,0127091	-144,6	   0,0126989	-142,6
     43,1676	   0,0127178	-144,1	   0,0127696	-139,8
     43,1696	   0,0126194	-142,5	   0,0127329	-142,5
     43,1716	    0,012539	-144,4	   0,0128064	-143,1
     43,1735	   0,0125834	-140,7	   0,0126317	-142,1
     43,1755	    0,012573	-139,5	   0,0126087	-145,0
     43,1774	   0,0125649	-142,3	   0,0125418	-143,1
     43,1794	   0,0124986	-141,6	   0,0124677	-141,8
     43,1813	   0,0124649	-140,7	   0,0124255	-141,8
     43,1833	   0,0123905	-141,1	   0,0124144	-144,9
     43,1852	    0,012393	-142,9	   0,0123087	-142,8
     43,1872	   0,0123731	-139,3	   0,0124258	-142,9
     43,1891	   0,0123613	-141,3	   0,0124099	-140,8
     43,1911	   0,0123422	-142,8	    0,012307	-139,1
     43,1931	   0,0122924	-142,5	   0,0122978	-142,0
      43,195	   0,0121922	-144,1	   0,0122378	-143,0
      43,197	   0,0121305	-143,3	   0,0122004	-143,4
     43,1989	   0,0121263	-141,1	   0,0121665	-143,4
     43,2009	   0,0121107	-140,0	   0,0122182	-142,7
     43,2028	   0,0121039	-137,6	   0,0121453	-143,5
     43,2048	   0,0120748	-139,5	   0,0120563	-141,5
     43,2067	   0,0120485	-142,0	   0,0119814	-138,4
     43,2087	   0,0120083	-142,2	   0,0119733	-141,5
     43,2107	   0,0118982	-141,3	   0,0120413	-139,6
     43,2126	   0,0117939	-142,2	   0,0120625	-143,0
     43,2146	   0,0118304	-140,7	   0,0119845	-142,0
     43,2165	    0,011889	-139,4	   0,0119091	-140,9
     43,2185	    0,011852	-142,7	    0,011827	-140,9
     43,2204	   0,0118237	-138,8	   0,0117469	-142,7
     43,2224	   0,0116971	-142,2	   0,0116635	-141,0
     43,2243	   0,0117156	-140,5	   0,0116688	-143,2
     43,2263	   0,0117317	-139,7	   0,0117071	-140,8
     43,2282	   0,0117481	-138,8	    0,011663	-140,2
     43,2302	   0,0115728	-138,3	   0,0115899	-139,6
     43,2322	   0,0114952	-138,6	   0,0116522	-137,1
     43,2341	   0,0115042	-141,2	   0,0117274	-138,9
     43,2361	   0,0115334	-143,8	   0,0115343	-141,6
      43,238	   0,0115036	-141,6	    0,011561	-140,8
       43,24	   0,0114998	-139,6	   0,0115407	-145,2
     43,2419	   0,0114856	-139,5	   0,0114677	-142,5
     43,2439	   0,0115387	-136,7	   0,0114584	-140,3
     43,2458	   0,0113253	-139,5	   0,0114303	-139,0
     43,2478	   0,0112813	-139,0	   0,0114529	-138,1
     43,2498	    0,011276	-139,0	   0,0114454	-137,1
     43,2517	   0,0113486	-142,7	    0,011289	-139,1
     43,2537	   0,0113454	-142,2	   0,0112793	-140,9
     43,2556	   0,0112122	-139,2	    0,011291	-138,8
     43,2576	   0,0111362	-139,1	    0,011308	-140,7
     43,2595	   0,0111473	-137,6	   0,0112555	-138,4
     43,2615	   0,0111203	-137,5	   0,0111888	-138,6
     43,2634	   0,0111446	-141,0	   0,0111686	-137,1
     43,2654	   0,0111075	-138,6	   0,0111455	-139,2
     43,2673	   0,0110084	-137,4	   0,0110879	-139,3
     43,2693	   0,0109922	-139,6	   0,0110542	-140,1
     43,2713	   0,0109883	-139,6	   0,0110071	-142,0
     43,2732	   0,0109734	-138,9	   0,0110424	-138,6
     43,2752	   0,0110163	-142,7	   0,0109959	-140,4
     43,2771	   0,0111069	-140,6	   0,0109768	-140,2
     43,2791	   0,0110057	-140,9	   0,0109262	-139,5
      43,281	   0,0109656	-140,2	   0,0108777	-141,5
      43,283	   0,0109398	-135,5	   0,0108592	-140,3
     43,2849	   0,0108262	-137,1	   0,0107468	-140,1
     43,2869	   0,0107914	-137,8	   0,0109021	-138,2
     43,2889	   0,0108113	-137,0	   0,0108244	-137,7
     43,2908	   0,0107321	-140,6	   0,0107265	-138,7
     43,2928	   0,0108024	-140,4	   0,0106978	-138,1
     43,2947	    0,010688	-141,2	   0,0106484	-138,6
     43,2967	   0,0106899	-140,2	   0,0106059	-140,7
     43,2986	   0,0106909	-139,2	   0,0105957	-139,9
     43,3006	   0,0106131	-137,5	   0,0106212	-141,0
     43,3025	   0,0106086	-136,0	   0,0105402	-139,4
     43,3045	   0,0105038	-136,7	   0,0104713	-137,5
     43,3064	   0,0105144	-137,4	   0,0105506	-135,0
     43,3084	   0,0105007	-138,7	   0,0105505	-136,8
     43,3104	   0,0105402	-140,9	   0,0104548	-138,2
     43,3123	   0,0104587	-139,0	   0,0105197	-138,3
     43,3143	    0,010424	-138,0	   0,0104422	-142,0
     43,3162	    0,010494	-137,3	   0,0103178	-141,5
     43,3182	   0,0104236	-135,8	   0,0103048	-140,5
     43,3201	   0,0103747	-135,8	   0,0102644	-138,9
     43,3221	   0,0102487	-137,9	   0,0102725	-135,8
      43,324	   0,0102427	-138,2	   0,0104637	-135,0
      43,326	   0,0102282	-139,1	   0,0103604	-136,1
      43,328	   0,0101992	-140,7	   0,0102674	-138,9
     43,3299	   0,0102287	-137,5	   0,0102104	-139,9
     43,3319	   0,0101389	-135,9	   0,0101418	-141,1
     43,3338	     0,01014	-137,2	   0,0101595	-140,4
     43,3358	   0,0101077	-135,5	    0,010199	-137,7
     43,3377	   0,0101293	-138,9	   0,0102094	-136,0
     43,3397	   0,0100522	-136,8	   0,0101306	-134,5
     43,3416	  0,00999897	-139,4	    0,010189	-135,4
     43,3436	  0,00997367	-137,8	   0,0100349	-137,8
     43,3456	   0,0099775	-141,0	   0,0100246	-138,9
     43,3475	  0,00998083	-138,5	  0,00995494	-138,0
     43,3495	   0,0100357	-136,8	   0,0100915	-139,6
     43,3514	   0,0100227	-137,0	   0,0100138	-137,0
     43,3534	   0,0099835	-135,0	  0,00991798	-137,5
     43,3553	  0,00989791	-138,8	  0,00986583	-136,3
     43,3573	   0,0098419	-139,6	  0,00988522	-135,1
     43,3592	   0,0097358	-135,4	  0,00989193	-135,7
     43,3612	  0,00975051	-139,3	   0,0097904	-137,9
     43,3631	  0,00973829	-137,7	  0,00976705	-138,1
     43,3651	  0,00974472	-137,0	  0,00974562	-138,0
     43,3671	  0,00983207	-137,2	  0,00974063	-137,9
      43,369	  0,00980079	-135,2	  0,00971407	-138,6
      43,371	  0,00968124	-134,0	  0,00963562	-135,3
     43,3729	   0,0096746	-137,7	  0,00967964	-135,7
     43,3749	  0,00973534	-139,9	   0,0096654	-134,6
     43,3768	  0,00975076	-136,5	  0,00968393	-136,5
     43,3788	  0,00974031	-138,4	  0,00977027	-137,5
     43,3807	  0,00963819	-136,9	  0,00970504	-141,3
     43,3827	  0,00954154	-133,6	   0,0096297	-141,1
     43,3847	  0,00946221	-137,3	  0,00959163	-136,9
     43,3866	  0,00955418	-134,6	  0,00961073	-136,5
     43,3886	  0,00957632	-136,6	  0,00953596	-135,7
     43,3905	  0,00957574	-137,0	  0,00942344	-133,9
     43,3925	   0,0094966	-136,2	  0,00938839	-134,7
     43,3944	  0,00950885	-137,2	  0,00947712	-136,3
     43,3964	   0,0093808	-138,8	  0,00946398	-139,9
     43,3983	  0,00933405	-136,8	  0,00937078	-138,3
     43,4003	  0,00935893	-135,9	  0,00939495	-139,0
     43,4022	  0,00938547	-134,6	  0,00934508	-136,8
     43,4042	  0,00932742	-134,0	  0,00932013	-132,9
     43,4062	   0,0093103	-136,0	   0,0093245	-134,4
     43,4081	  0,00932652	-139,0	   0,0092737	-135,2
     43,4101	  0,00935148	-137,3	  0,00924277	-135,7
      43,412	  0,00926767	-137,1	  0,00930268	-137,3
      43,414	  0,00909206	-136,1	  0,00921233	-139,5
     43,4159	  0,00910733	-134,6	  0,00920978	-137,4
     43,4179	  0,00915678	-133,3	  0,00914512	-136,9
     43,4198	  0,00910044	-132,4	  0,00915415	-133,2
     43,4218	  0,00911349	-136,5	  0,00907465	-135,3
     43,4238	  0,00913991	-137,2	   0,0091452	-133,9
     43,4257	  0,00910969	-138,2	  0,00909899	-134,7
     43,4277	  0,00908107	-138,8	  0,00914596	-135,5
     43,4296	  0,00905321	-137,5	  0,00903806	-135,8
     43,4316	  0,00909575	-136,0	  0,00911726	-134,4
     43,4335	  0,00906242	-133,8	  0,00908319	-138,1
     43,4355	   0,0089829	-130,6	  0,00901886	-137,0
     43,4374	  0,00891806	-134,2	  0,00897377	-137,1
     43,4394	  0,00884366	-134,9	   0,0090095	-138,5
     43,4413	  0,00888611	-136,5	  0,00897382	-135,9
     43,4433	  0,00895221	-138,6	   0,0089346	-133,7
     43,4453	  0,00889272	-136,8	  0,00900378	-133,8
     43,4472	   0,0089205	-136,0	  0,00902989	-134,9
     43,4492	  0,00880938	-135,3	  0,00887854	-135,2
     43,4511	  0,00872588	-134,0	  0,00885892	-135,1
     43,4531	  0,00875426	-136,9	  0,00878477	-136,3
      43,455	  0,00877276	-133,0	  0,00881143	-137,4
      43,457	  0,00876757	-136,3	  0,00882039	-136,5
     43,4589	  0,00879557	-138,4	  0,00879413	-139,3
     43,4609	  0,00871945	-134,1	   0,0086711	-133,5
     43,4629	  0,00870608	-134,9	  0,00865071	-131,1
     43,4648	  0,00861238	-135,5	  0,00868691	-131,6
     43,4668	  0,00857154	-135,9	  0,00865187	-134,0
     43,4687	  0,00869446	-137,4	   0,0085952	-135,1
     43,4707	  0,00858112	-135,8	   0,0086489	-135,7
     43,4726	  0,00866124	-135,9	  0,00867739	-139,2
     43,4746	   0,0086364	-134,4	  0,00868328	-137,3
     43,4765	  0,00858636	-132,9	  0,00844455	-137,3
     43,4785	  0,00858198	-132,8	  0,00851539	-134,7
     43,4804	  0,00852906	-133,2	  0,00847952	-133,5
     43,4824	  0,00846421	-136,3	  0,00850857	-133,7
     43,4844	    0,008495	-138,2	   0,0086111	-131,3
     43,4863	  0,00848744	-138,1	  0,00858542	-133,0
     43,4883	  0,00851802	-137,9	  0,00846274	-137,2
     43,4902	  0,00847013	-134,4	  0,00847326	-134,1
     43,4922	  0,00840998	-134,3	   0,0083881	-135,1
     43,4941	  0,00843691	-131,3	  0,00840604	-136,8
     43,4961	  0,00837617	-134,2	  0,00844598	-136,3
      43,498	  0,00835028	-135,9	  0,00833118	-136,8
        43,5	  0,00828643	-135,0	  0,00834319	-134,7

