X-Data [Hz]	Laser (M - Filtered) [m/s]	Phase [Deg]	Laser (M - Filtered) [m/s]	Phase [Deg]	
	002: [07-09-24 09:10]		003: [07-09-24 09:14]	
        40,5	    0,036462	71,5	   0,0397536	71,1
     40,5029	   0,0378106	71,0	   0,0398056	70,8
     40,5059	   0,0388477	70,9	   0,0399434	70,7
     40,5088	   0,0393415	70,9	   0,0398689	71,1
     40,5117	   0,0395226	70,8	   0,0400056	70,9
     40,5147	   0,0397006	71,1	   0,0399871	71,1
     40,5176	   0,0398053	71,1	   0,0400033	71,1
     40,5205	   0,0399316	71,1	   0,0401359	70,8
     40,5235	   0,0398931	70,9	   0,0400802	70,9
     40,5264	   0,0400282	70,8	   0,0401707	70,8
     40,5293	   0,0399753	71,0	   0,0402433	71,5
     40,5323	   0,0401401	71,3	   0,0402581	71,1
     40,5352	   0,0400612	71,0	   0,0403336	71,0
     40,5381	   0,0401914	71,1	   0,0403278	71,1
     40,5411	    0,040154	70,9	    0,040308	71,1
      40,544	   0,0403828	70,8	   0,0405218	71,1
     40,5469	   0,0402378	71,1	   0,0404343	71,6
     40,5499	   0,0403726	70,4	   0,0405843	70,6
     40,5528	   0,0403837	70,9	   0,0404998	71,3
     40,5557	   0,0404082	71,2	   0,0406233	71,2
     40,5587	   0,0404981	70,6	    0,040684	71,0
     40,5616	   0,0404939	70,8	   0,0407114	71,0
     40,5645	   0,0404579	71,1	   0,0407079	70,8
     40,5674	    0,040645	71,0	   0,0408187	70,9
     40,5704	   0,0405888	71,1	   0,0407221	71,4
     40,5733	    0,040646	71,1	   0,0409074	70,8
     40,5762	   0,0406626	70,8	   0,0409117	71,1
     40,5792	   0,0406981	71,0	   0,0409387	71,4
     40,5821	   0,0408335	70,9	   0,0410453	71,0
      40,585	   0,0407527	71,1	    0,041017	71,4
      40,588	   0,0409098	71,3	   0,0410345	70,9
     40,5909	   0,0408875	70,8	   0,0411928	70,8
     40,5938	   0,0409467	70,9	   0,0412282	71,2
     40,5968	   0,0409138	71,2	   0,0411037	71,2
     40,5997	   0,0410464	71,1	   0,0413376	71,4
     40,6026	   0,0411697	71,1	   0,0413476	71,6
     40,6056	   0,0411606	71,5	   0,0414068	71,3
     40,6085	   0,0411647	71,1	   0,0413918	71,8
     40,6114	   0,0413813	71,3	   0,0414535	71,2
     40,6144	   0,0412151	71,3	   0,0416319	71,0
     40,6173	   0,0414764	70,8	   0,0415396	71,6
     40,6202	   0,0413569	71,1	   0,0416779	71,0
     40,6232	   0,0414661	71,5	   0,0416432	71,3
     40,6261	   0,0414553	71,1	   0,0417437	71,4
      40,629	   0,0416099	71,3	   0,0418419	71,3
      40,632	   0,0415857	71,4	   0,0418798	71,3
     40,6349	   0,0417215	71,1	   0,0418018	71,1
     40,6378	   0,0416101	71,5	   0,0419356	71,2
     40,6408	   0,0417954	71,3	   0,0419492	71,7
     40,6437	   0,0417402	71,0	   0,0420195	71,6
     40,6466	   0,0418223	71,1	   0,0420851	71,2
     40,6496	   0,0418426	71,0	   0,0421494	71,7
     40,6525	   0,0419911	71,0	   0,0421709	71,0
     40,6554	   0,0419769	71,4	   0,0422918	71,3
     40,6584	   0,0420657	71,4	   0,0422926	71,6
     40,6613	   0,0420335	71,2	   0,0422105	71,2
     40,6642	   0,0419926	71,3	    0,042481	71,3
     40,6672	   0,0422982	71,3	   0,0423409	71,6
     40,6701	   0,0420722	71,1	   0,0425329	71,6
      40,673	   0,0422954	71,3	    0,042403	71,3
      40,676	   0,0422732	71,1	   0,0426161	71,8
     40,6789	   0,0422603	71,3	   0,0425208	71,2
     40,6818	   0,0423874	71,5	   0,0426904	71,6
     40,6847	   0,0425132	71,5	   0,0427133	71,6
     40,6877	   0,0425716	71,3	   0,0428428	71,4
     40,6906	   0,0424194	71,6	   0,0427998	71,4
     40,6936	   0,0426707	71,4	   0,0427711	71,3
     40,6965	   0,0427065	71,3	   0,0429281	71,0
     40,6994	   0,0426637	71,5	   0,0430399	71,5
     40,7023	   0,0427477	71,2	   0,0430114	71,1
     40,7053	   0,0427494	71,6	   0,0431128	71,3
     40,7082	   0,0428736	71,2	   0,0431085	71,6
     40,7111	   0,0428767	71,7	   0,0432025	71,7
     40,7141	   0,0430415	71,0	   0,0431457	71,3
      40,717	   0,0430109	71,6	   0,0433274	71,9
     40,7199	   0,0430703	71,8	   0,0433412	71,5
     40,7229	   0,0431067	71,5	   0,0433731	71,3
     40,7258	   0,0431802	71,3	   0,0434703	71,5
     40,7287	   0,0432963	71,4	   0,0435051	71,9
     40,7317	   0,0432215	71,6	   0,0434909	71,4
     40,7346	   0,0433917	71,6	   0,0436767	71,7
     40,7375	    0,043397	71,6	   0,0436918	71,8
     40,7405	   0,0435139	71,5	   0,0437718	71,6
     40,7434	   0,0434445	71,5	   0,0437556	71,8
     40,7463	   0,0435956	71,8	   0,0438228	71,7
     40,7493	    0,043581	71,7	   0,0439982	71,6
     40,7522	   0,0436819	71,5	   0,0438897	71,6
     40,7551	   0,0436286	71,9	   0,0440667	71,9
     40,7581	   0,0438397	71,8	   0,0440573	71,5
      40,761	   0,0437918	71,4	    0,044101	71,9
     40,7639	   0,0438605	71,5	   0,0442074	71,9
     40,7669	   0,0439745	71,6	   0,0442108	71,6
     40,7698	   0,0439271	71,5	   0,0443532	71,9
     40,7727	   0,0441151	71,5	   0,0443123	72,2
     40,7757	   0,0439833	71,9	   0,0443612	71,8
     40,7786	   0,0442453	71,6	   0,0445604	71,6
     40,7815	   0,0441624	71,6	   0,0443761	72,1
     40,7845	   0,0442623	71,8	   0,0447634	71,6
     40,7874	    0,044249	71,8	   0,0445823	71,8
     40,7903	   0,0444386	71,4	   0,0446393	71,7
     40,7933	   0,0442912	71,5	   0,0448278	71,9
     40,7962	   0,0445826	71,6	   0,0446741	71,7
     40,7991	   0,0444439	71,7	   0,0449485	71,8
     40,8021	   0,0447492	71,7	   0,0449273	71,9
      40,805	    0,044545	71,8	   0,0450676	71,7
     40,8079	   0,0447534	71,6	   0,0449914	71,9
     40,8109	    0,044711	71,7	   0,0451257	72,0
     40,8138	   0,0448756	71,8	   0,0451389	71,8
     40,8167	   0,0448124	71,8	   0,0452213	71,9
     40,8196	   0,0449559	71,6	   0,0453256	72,1
     40,8226	   0,0449775	71,8	   0,0452061	71,9
     40,8255	   0,0450322	71,7	   0,0455238	71,9
     40,8284	   0,0451167	71,5	   0,0454161	72,0
     40,8314	   0,0452409	71,8	   0,0454456	71,8
     40,8343	   0,0452469	72,1	   0,0456663	71,6
     40,8372	   0,0452556	71,6	   0,0456138	71,8
     40,8402	   0,0454454	71,8	   0,0457269	71,7
     40,8431	   0,0454215	72,2	   0,0456957	71,7
      40,846	   0,0455266	72,2	   0,0459318	71,7
      40,849	   0,0455845	71,9	   0,0458531	72,0
     40,8519	   0,0456042	72,2	   0,0460007	72,0
     40,8548	   0,0457923	72,0	   0,0460017	71,9
     40,8578	   0,0456055	72,1	   0,0461084	72,3
     40,8607	   0,0458321	71,9	   0,0461807	72,3
     40,8636	   0,0457432	72,1	   0,0461882	72,1
     40,8666	   0,0459592	72,1	   0,0463684	72,4
     40,8695	   0,0459814	71,8	    0,046339	72,5
     40,8724	   0,0460227	71,8	   0,0464256	72,1
     40,8754	   0,0461208	71,7	   0,0464936	72,4
     40,8783	   0,0462172	71,8	   0,0466011	72,3
     40,8812	   0,0463181	71,6	    0,046642	72,2
     40,8842	   0,0462451	71,9	   0,0466813	72,0
     40,8871	   0,0463979	72,1	    0,046717	72,1
       40,89	   0,0463692	71,9	   0,0467881	71,9
      40,893	   0,0465468	71,7	   0,0469859	72,1
     40,8959	   0,0464518	72,3	   0,0468543	72,3
     40,8988	   0,0467434	72,5	   0,0471467	72,3
     40,9018	   0,0466649	71,9	   0,0469785	72,3
     40,9047	   0,0468003	72,1	   0,0470687	72,0
     40,9076	   0,0468632	72,3	   0,0471909	72,3
     40,9106	   0,0468153	72,6	   0,0472416	72,1
     40,9135	   0,0470057	72,0	   0,0473706	72,0
     40,9164	   0,0469334	72,4	   0,0473618	72,2
     40,9194	   0,0470517	72,5	   0,0474761	72,0
     40,9223	   0,0472082	72,1	   0,0476222	72,3
     40,9252	   0,0471024	72,3	   0,0476208	72,3
     40,9282	   0,0472821	72,5	   0,0477148	72,4
     40,9311	   0,0473343	72,2	    0,047772	72,2
      40,934	   0,0474338	72,1	   0,0478883	72,3
      40,937	   0,0475362	71,9	   0,0479379	72,3
     40,9399	     0,04745	72,6	   0,0479906	72,5
     40,9428	   0,0476909	72,2	   0,0480152	72,4
     40,9457	   0,0476811	71,8	    0,048129	72,2
     40,9487	   0,0477402	72,3	    0,048257	72,5
     40,9516	   0,0479264	72,6	   0,0481965	72,7
     40,9545	   0,0479575	72,5	   0,0482641	72,4
     40,9575	   0,0479109	72,4	     0,04843	72,3
     40,9604	   0,0480313	72,4	   0,0483912	72,6
     40,9633	   0,0481377	72,4	   0,0485564	72,0
     40,9663	   0,0480636	72,3	   0,0485907	72,2
     40,9692	   0,0483444	72,4	    0,048813	72,5
     40,9721	   0,0482305	72,4	   0,0486409	73,0
     40,9751	   0,0483145	72,5	   0,0489296	72,3
      40,978	   0,0485264	72,6	   0,0489598	72,7
     40,9809	   0,0484529	72,3	   0,0489998	72,9
     40,9839	   0,0487681	72,5	   0,0490297	72,9
     40,9868	   0,0486119	72,6	   0,0491799	72,6
     40,9897	   0,0486178	73,0	     0,04929	72,8
     40,9927	   0,0488578	72,5	    0,049165	73,0
     40,9956	   0,0488849	72,6	   0,0493285	72,5
     40,9985	   0,0489486	72,6	   0,0494346	72,5
     41,0015	   0,0491452	72,5	   0,0495174	72,7
     41,0044	   0,0491304	72,3	   0,0495418	72,8
     41,0073	   0,0491563	72,6	   0,0495989	72,7
     41,0103	   0,0493562	72,7	   0,0497536	72,7
     41,0132	   0,0492873	72,1	   0,0498877	73,0
     41,0161	   0,0494112	72,5	   0,0498601	73,1
     41,0191	   0,0494861	72,3	   0,0500709	72,8
      41,022	   0,0495357	72,7	   0,0500559	72,7
     41,0249	   0,0497695	72,7	   0,0501586	72,9
     41,0279	    0,049724	72,6	   0,0503225	72,9
     41,0308	   0,0498399	72,6	   0,0503456	72,4
     41,0337	   0,0498984	72,6	   0,0504073	72,6
     41,0367	   0,0499702	72,7	    0,050435	73,0
     41,0396	   0,0501003	72,4	   0,0506697	72,8
     41,0425	   0,0500761	72,4	   0,0505699	72,8
     41,0455	   0,0502014	72,7	   0,0506845	72,8
     41,0484	   0,0502773	72,6	   0,0508119	73,1
     41,0513	   0,0502688	72,4	   0,0509414	73,1
     41,0543	   0,0504622	72,8	   0,0509399	72,9
     41,0572	   0,0505609	72,7	   0,0510674	72,9
     41,0601	   0,0505315	72,7	   0,0511228	73,5
      41,063	   0,0507291	72,6	   0,0512755	73,3
      41,066	   0,0508433	72,5	   0,0511812	72,9
     41,0689	    0,050865	73,0	   0,0513955	72,7
     41,0718	   0,0509802	72,8	   0,0514434	73,1
     41,0748	   0,0509799	72,6	   0,0515515	73,0
     41,0777	   0,0511849	72,6	   0,0516492	73,1
     41,0806	   0,0511308	72,7	   0,0517056	72,9
     41,0836	   0,0512795	73,1	   0,0517829	73,2
     41,0865	   0,0513179	73,4	    0,052001	73,1
     41,0894	   0,0514172	72,9	   0,0519677	73,2
     41,0924	   0,0516433	73,0	   0,0521037	72,9
     41,0953	   0,0517091	72,9	   0,0522257	73,0
     41,0982	   0,0516242	73,4	    0,052217	73,2
     41,1012	   0,0518838	73,1	   0,0524786	73,0
     41,1041	   0,0518388	73,0	   0,0523591	73,0
      41,107	   0,0519494	73,2	     0,05249	73,2
       41,11	   0,0520897	73,0	   0,0526051	73,4
     41,1129	   0,0520798	73,3	   0,0527581	73,2
     41,1158	   0,0521969	73,3	   0,0527515	73,5
     41,1188	   0,0523958	73,1	    0,052859	73,1
     41,1217	    0,052434	73,4	   0,0529572	73,7
     41,1246	   0,0525331	73,4	   0,0532206	73,2
     41,1276	   0,0526067	73,2	   0,0532442	73,2
     41,1305	    0,052725	72,9	   0,0532535	73,0
     41,1334	   0,0526952	73,6	    0,053393	73,3
     41,1364	   0,0528051	73,4	   0,0534964	73,5
     41,1393	   0,0530628	73,2	   0,0535227	73,6
     41,1422	   0,0530349	73,3	   0,0536906	73,6
     41,1452	   0,0531413	73,6	   0,0537004	73,5
     41,1481	   0,0532905	73,7	   0,0538545	73,7
      41,151	   0,0532385	73,5	   0,0540242	73,4
      41,154	   0,0534125	73,5	   0,0540056	73,3
     41,1569	    0,053623	73,1	   0,0540903	73,3
     41,1598	   0,0536452	73,5	   0,0542551	73,8
     41,1628	   0,0537219	73,6	   0,0542819	73,7
     41,1657	   0,0538905	73,7	   0,0544891	73,3
     41,1686	    0,053874	73,7	   0,0544764	73,8
     41,1716	   0,0540167	73,4	   0,0546776	73,9
     41,1745	   0,0540664	73,7	   0,0548089	74,0
     41,1774	   0,0541766	73,8	   0,0547987	73,7
     41,1804	   0,0542945	73,8	   0,0549816	73,4
     41,1833	   0,0544089	73,5	    0,054995	73,6
     41,1862	   0,0544075	73,4	    0,055177	73,9
     41,1891	   0,0546339	73,8	   0,0553351	74,3
     41,1921	   0,0547273	73,9	   0,0552803	73,7
      41,195	   0,0547297	74,0	   0,0555411	73,9
     41,1979	   0,0548874	73,8	   0,0555998	74,0
     41,2009	   0,0550728	73,8	   0,0556359	74,3
     41,2038	   0,0550775	73,4	   0,0557166	74,1
     41,2067	   0,0551389	74,0	   0,0558753	73,8
     41,2097	   0,0552772	74,2	   0,0559587	73,6
     41,2126	   0,0554108	73,7	   0,0560753	74,0
     41,2155	   0,0555404	73,7	   0,0562172	74,1
     41,2185	   0,0556398	73,7	   0,0563615	74,1
     41,2214	   0,0557228	73,8	   0,0565233	74,1
     41,2243	   0,0557471	73,9	   0,0565093	74,2
     41,2273	   0,0558712	73,6	   0,0565661	74,1
     41,2302	   0,0560281	73,7	    0,056715	74,2
     41,2331	   0,0561119	73,9	   0,0569262	74,6
     41,2361	   0,0563348	74,0	   0,0569614	74,0
      41,239	   0,0564457	74,1	   0,0570931	74,3
     41,2419	    0,056513	74,0	   0,0572466	74,6
     41,2449	   0,0565294	73,8	   0,0573208	74,3
     41,2478	   0,0567474	73,7	   0,0574444	74,4
     41,2507	   0,0566948	74,2	    0,057556	74,2
     41,2537	   0,0569049	74,4	   0,0576613	74,4
     41,2566	   0,0569655	74,3	   0,0577516	74,6
     41,2595	   0,0571658	74,4	   0,0578168	74,5
     41,2625	   0,0572953	74,1	   0,0579501	74,8
     41,2654	   0,0572958	74,5	   0,0580876	74,2
     41,2683	   0,0574586	73,6	   0,0582105	74,2
     41,2713	   0,0576428	74,3	   0,0583934	74,2
     41,2742	   0,0576529	74,6	   0,0584094	74,6
     41,2771	   0,0577997	74,5	   0,0585537	74,7
     41,2801	   0,0579811	74,6	    0,058759	74,5
      41,283	   0,0580153	74,4	   0,0587894	74,9
     41,2859	   0,0580508	74,0	   0,0589243	74,5
     41,2889	   0,0582099	73,5	   0,0590859	75,1
     41,2918	   0,0583269	74,6	   0,0591476	74,8
     41,2947	   0,0584745	74,4	   0,0592942	75,1
     41,2977	    0,058702	74,8	    0,059412	75,0
     41,3006	   0,0588071	74,6	   0,0595274	73,3
     41,3035	   0,0587616	74,8	   0,0596507	75,3
     41,3064	   0,0589811	74,5	   0,0597187	74,9
     41,3094	   0,0592233	74,7	   0,0597976	74,9
     41,3123	   0,0591555	74,4	   0,0599999	75,5
     41,3153	   0,0593587	74,9	   0,0601808	75,4
     41,3182	   0,0596279	74,8	   0,0602633	76,0
     41,3211	    0,059516	74,3	   0,0602896	75,7
      41,324	   0,0597232	74,5	   0,0606155	75,2
      41,327	   0,0598064	74,1	   0,0606127	75,1
     41,3299	   0,0599577	74,7	   0,0606689	75,3
     41,3328	    0,060178	74,7	   0,0608375	75,3
     41,3358	   0,0602797	74,8	   0,0611376	74,5
     41,3387	   0,0602299	74,2	   0,0612402	75,4
     41,3416	   0,0603914	74,1	   0,0611617	75,3
     41,3446	   0,0605491	74,8	   0,0614113	75,2
     41,3475	   0,0607458	75,0	    0,061456	75,4
     41,3504	   0,0610053	75,0	   0,0618097	75,9
     41,3534	   0,0609314	75,3	   0,0620123	75,7
     41,3563	    0,061174	75,0	   0,0620613	76,2
     41,3592	   0,0612269	74,7	   0,0619757	76,0
     41,3622	   0,0614276	75,2	   0,0622147	75,2
     41,3651	   0,0616316	74,9	   0,0623901	75,6
      41,368	   0,0616441	75,3	   0,0623665	76,5
      41,371	   0,0618141	75,2	   0,0626587	76,5
     41,3739	   0,0621294	75,2	   0,0629561	76,3
     41,3768	   0,0621622	75,6	   0,0629644	76,7
     41,3798	   0,0622939	74,9	   0,0630577	76,0
     41,3827	   0,0623133	75,0	   0,0630239	76,3
     41,3856	   0,0626209	75,3	    0,063391	75,8
     41,3886	   0,0627565	75,0	   0,0635541	76,0
     41,3915	   0,0626431	75,6	   0,0639634	75,9
     41,3944	   0,0630208	75,7	   0,0638189	75,1
     41,3974	   0,0631722	75,8	   0,0635754	75,7
     41,4003	   0,0632393	75,7	   0,0640607	75,6
     41,4032	   0,0634801	75,5	   0,0642369	76,8
     41,4062	   0,0636296	75,5	   0,0643903	75,9
     41,4091	   0,0638402	75,5	   0,0648868	75,6
      41,412	   0,0637994	75,8	   0,0647016	75,6
      41,415	   0,0641089	75,7	   0,0647402	76,2
     41,4179	   0,0643651	75,7	   0,0651143	76,6
     41,4208	   0,0642666	75,4	    0,065352	76,4
     41,4238	    0,064344	75,3	   0,0654956	76,0
     41,4267	   0,0647835	75,6	   0,0652979	75,8
     41,4296	   0,0649197	75,8	   0,0658905	75,6
     41,4326	   0,0650448	76,2	   0,0658042	76,8
     41,4355	   0,0651579	76,4	   0,0659449	76,1
     41,4384	   0,0649191	76,0	   0,0663948	75,9
     41,4413	   0,0654711	75,8	   0,0663724	75,3
     41,4443	   0,0656382	75,8	   0,0667801	76,0
     41,4472	   0,0658472	76,0	   0,0667254	76,4
     41,4501	   0,0659399	76,3	   0,0670737	76,4
     41,4531	   0,0661176	76,1	   0,0673726	76,6
      41,456	   0,0663586	76,2	   0,0673347	76,3
     41,4589	   0,0664925	76,0	   0,0675401	75,9
     41,4619	   0,0666117	76,2	   0,0672134	75,7
     41,4648	    0,066874	76,3	   0,0680117	76,8
     41,4677	   0,0669447	76,6	   0,0680814	76,6
     41,4707	   0,0671541	76,7	   0,0682688	76,2
     41,4736	   0,0673521	76,7	   0,0685388	76,2
     41,4765	   0,0675323	76,6	   0,0683835	76,6
     41,4795	   0,0676703	76,5	   0,0688509	76,7
     41,4824	   0,0680044	76,6	   0,0690051	76,7
     41,4853	   0,0680859	76,4	   0,0692573	76,6
     41,4883	   0,0681536	76,3	   0,0690579	76,5
     41,4912	   0,0683079	76,7	   0,0697084	76,7
     41,4941	   0,0686804	77,0	   0,0697716	77,0
     41,4971	   0,0688244	77,3	   0,0700378	76,6
        41,5	   0,0690231	77,0	   0,0704955	77,3
     41,5029	    0,069066	76,8	   0,0703795	76,9
     41,5059	   0,0694191	76,7	   0,0701569	76,7
     41,5088	    0,069671	77,0	   0,0706826	77,6
     41,5117	   0,0697833	76,9	   0,0711363	77,5
     41,5147	   0,0699202	76,6	   0,0713181	76,8
     41,5176	    0,070187	77,3	   0,0711445	76,8
     41,5205	    0,070398	77,4	   0,0713768	76,9
     41,5235	   0,0705671	77,4	    0,071719	77,4
     41,5264	   0,0707027	77,3	   0,0720648	77,8
     41,5293	   0,0710862	77,2	   0,0720629	77,3
     41,5323	   0,0713064	76,9	   0,0721821	77,4
     41,5352	   0,0714846	77,4	   0,0726823	77,8
     41,5381	   0,0715888	77,7	   0,0730773	77,9
     41,5411	   0,0718391	77,3	   0,0734759	77,8
      41,544	   0,0720465	77,9	   0,0732624	77,6
     41,5469	   0,0723017	77,7	   0,0737514	77,7
     41,5499	   0,0724897	77,9	   0,0737408	78,0
     41,5528	   0,0726906	77,9	   0,0742452	78,1
     41,5557	   0,0729283	77,9	   0,0743724	77,9
     41,5587	   0,0731832	77,8	   0,0743671	78,0
     41,5616	   0,0734614	77,8	    0,074664	77,8
     41,5645	   0,0737307	78,2	   0,0751998	78,5
     41,5674	   0,0737059	78,0	   0,0753101	78,0
     41,5704	   0,0740764	78,2	   0,0753541	78,2
     41,5733	   0,0743839	78,0	   0,0759194	78,8
     41,5762	   0,0745883	78,2	   0,0758295	78,3
     41,5792	   0,0748092	78,3	   0,0760373	78,3
     41,5821	   0,0750553	78,2	   0,0764578	78,4
      41,585	   0,0752566	78,1	   0,0770192	78,7
      41,588	   0,0755588	78,5	   0,0769353	78,6
     41,5909	   0,0757695	78,7	    0,077394	78,4
     41,5938	   0,0760367	79,0	   0,0774087	78,4
     41,5968	   0,0763428	78,8	   0,0777607	79,1
     41,5997	   0,0766251	78,9	   0,0780668	78,7
     41,6026	   0,0768076	79,1	   0,0785564	79,0
     41,6056	   0,0769027	79,0	   0,0785397	79,7
     41,6085	   0,0773695	78,9	   0,0789717	79,4
     41,6114	   0,0776536	78,6	     0,07949	79,5
     41,6144	   0,0779162	78,9	   0,0798218	79,2
     41,6173	    0,078041	78,8	   0,0794815	79,1
     41,6202	   0,0783506	79,5	    0,079783	79,1
     41,6232	   0,0786697	79,4	   0,0804378	80,1
     41,6261	   0,0788541	79,7	   0,0807185	79,3
      41,629	   0,0791872	79,8	   0,0806969	79,3
      41,632	   0,0794179	79,6	   0,0813423	79,9
     41,6349	   0,0799005	79,3	   0,0818535	80,4
     41,6378	   0,0801317	79,3	   0,0821336	80,1
     41,6408	   0,0803752	79,8	   0,0822752	80,1
     41,6437	   0,0806307	79,5	   0,0825298	80,5
     41,6466	   0,0808543	79,5	    0,083147	80,4
     41,6496	   0,0812381	79,9	   0,0836027	80,4
     41,6525	   0,0816479	80,2	   0,0838544	80,0
     41,6554	   0,0819773	80,3	   0,0837817	80,2
     41,6584	   0,0821209	80,2	   0,0844075	80,9
     41,6613	   0,0825274	80,2	     0,08488	81,7
     41,6642	   0,0827482	80,2	   0,0851489	80,6
     41,6672	   0,0831144	80,6	   0,0853141	81,3
     41,6701	   0,0834062	80,3	   0,0859484	81,8
      41,673	   0,0838131	80,6	   0,0864235	81,6
      41,676	    0,084053	80,4	   0,0870219	81,3
     41,6789	   0,0843247	80,7	   0,0869426	81,0
     41,6818	   0,0846441	80,7	   0,0874103	81,8
     41,6847	   0,0850741	80,7	   0,0880739	82,2
     41,6877	      0,0855	81,1	    0,088641	82,1
     41,6906	   0,0857924	81,5	   0,0884484	81,4
     41,6936	   0,0860708	81,4	   0,0893383	82,3
     41,6965	    0,086613	81,6	   0,0899604	82,4
     41,6994	   0,0868163	81,9	   0,0899007	82,1
     41,7023	    0,087299	81,9	   0,0901649	82,2
     41,7053	   0,0876546	81,5	   0,0908998	83,0
     41,7082	   0,0880003	81,4	   0,0918004	82,9
     41,7111	    0,088094	81,7	   0,0924016	82,9
     41,7141	   0,0887125	81,8	   0,0925324	82,7
      41,717	   0,0891799	81,5	   0,0928694	83,4
     41,7199	   0,0896149	82,0	   0,0936264	83,3
     41,7229	   0,0900335	82,6	   0,0936561	82,9
     41,7258	    0,090544	83,1	   0,0945297	83,7
     41,7287	   0,0905277	82,9	   0,0952138	84,5
     41,7317	   0,0914141	82,8	   0,0959099	84,1
     41,7346	   0,0916058	83,2	   0,0965196	84,3
     41,7375	   0,0917423	83,1	   0,0965871	84,3
     41,7405	   0,0926988	83,1	   0,0970656	85,1
     41,7434	   0,0932497	82,9	   0,0981228	85,0
     41,7463	   0,0936362	83,4	   0,0988039	85,1
     41,7493	   0,0942025	83,3	   0,0993575	85,8
     41,7522	   0,0945844	83,5	    0,100342	85,9
     41,7551	   0,0951165	83,5	    0,101545	85,3
     41,7581	   0,0955276	83,9	    0,102671	85,7
      41,761	   0,0960172	83,7	    0,104822	86,1
     41,7639	   0,0965986	83,9	     0,10807	86,8
     41,7669	   0,0971542	84,4	    0,112276	86,8
     41,7698	   0,0975101	84,7	    0,117417	88,5
     41,7727	   0,0982164	84,9	    0,122722	90,1
     41,7757	   0,0989084	84,9	    0,130533	93,0
     41,7786	   0,0993829	85,1	    0,138286	95,1
     41,7815	   0,0999804	85,3	    0,143498	98,5
     41,7845	    0,100797	85,3	    0,149834	101,5
     41,7874	    0,101208	85,6	    0,156235	104,6
     41,7903	    0,101076	85,9	    0,160569	107,5
     41,7933	    0,102418	86,0	    0,166342	110,2
     41,7962	    0,103237	85,8	    0,170703	112,8
     41,7991	    0,103579	86,4	    0,173367	115,3
     41,8021	    0,104414	86,4	    0,177608	117,9
      41,805	    0,104809	87,1	    0,180299	120,0
     41,8079	     0,10606	86,9	    0,181253	122,3
     41,8109	    0,106064	87,4	    0,184391	123,5
     41,8138	    0,106929	87,6	    0,186146	125,2
     41,8167	    0,108241	87,5	    0,188121	127,7
     41,8196	    0,109013	88,3	    0,188643	128,7
     41,8226	    0,109069	88,9	    0,190876	129,9
     41,8255	    0,110271	89,0	    0,192607	131,6
     41,8284	     0,11124	89,0	    0,193117	133,1
     41,8314	    0,112424	89,4	    0,192582	134,1
     41,8343	    0,112625	90,0	    0,194629	135,3
     41,8372	    0,114029	90,1	    0,194479	136,2
     41,8402	    0,114894	90,5	    0,194939	137,3
     41,8431	    0,115448	90,9	    0,196154	138,0
      41,846	    0,116905	91,2	    0,196558	138,9
      41,849	    0,118762	91,5	     0,19566	139,9
     41,8519	    0,119221	92,1	    0,195634	140,7
     41,8548	    0,120795	92,7	    0,197752	141,3
     41,8578	    0,122061	92,7	     0,19778	142,4
     41,8607	    0,123373	93,3	    0,197734	143,0
     41,8636	    0,123946	94,1	    0,198256	143,7
     41,8666	    0,125979	94,1	    0,198585	144,6
     41,8695	    0,127565	95,0	    0,197567	145,4
     41,8724	    0,129269	95,7	    0,198685	146,0
     41,8754	    0,130755	96,4	    0,198609	146,5
     41,8783	    0,131829	96,8	    0,198197	147,3
     41,8812	    0,133663	97,8	    0,197967	148,3
     41,8842	    0,135957	99,2	    0,198194	148,6
     41,8871	    0,138344	99,8	    0,198005	149,1
       41,89	    0,140188	100,7	    0,198303	149,6
      41,893	    0,142062	102,3	    0,197357	150,1
     41,8959	    0,145045	103,8	    0,197472	150,9
     41,8988	    0,147683	104,6	    0,197809	151,6
     41,9018	    0,150152	106,4	    0,198106	151,8
     41,9047	    0,153068	108,1	    0,198223	152,6
     41,9076	    0,156414	109,1	    0,198395	153,0
     41,9106	    0,160443	111,7	    0,197854	153,4
     41,9135	    0,163596	114,7	    0,197398	153,8
     41,9164	    0,167473	116,7	    0,198419	154,4
     41,9194	    0,172443	119,4	    0,197986	154,6
     41,9223	    0,175131	122,7	    0,197416	154,9
     41,9252	    0,180447	126,0	    0,196754	155,5
     41,9282	    0,184193	129,3	    0,196889	155,9
     41,9311	    0,188831	132,9	    0,196638	155,8
      41,934	    0,191859	136,5	    0,196819	156,5
      41,937	    0,196849	140,7	    0,196871	156,8
     41,9399	    0,199336	144,7	    0,196136	157,4
     41,9428	    0,200805	148,0	     0,19648	157,7
     41,9457	    0,203222	151,0	    0,196633	158,0
     41,9487	    0,204162	153,3	    0,195642	158,7
     41,9516	    0,205153	155,6	    0,195674	158,9
     41,9545	    0,203545	157,3	    0,195687	159,6
     41,9575	    0,203848	158,4	    0,196261	159,8
     41,9604	    0,204793	158,5	    0,195329	159,9
     41,9633	    0,202403	159,6	    0,195469	160,6
     41,9663	    0,203311	160,1	     0,19505	161,0
     41,9692	    0,203516	160,5	    0,194647	160,8
     41,9721	     0,20251	160,8	    0,194702	161,6
     41,9751	    0,202022	161,3	    0,196703	162,1
      41,978	    0,202746	161,5	    0,193612	162,5
     41,9809	    0,200378	162,2	    0,194195	162,6
     41,9839	    0,201348	162,2	    0,193978	163,0
     41,9868	    0,200784	162,5	    0,193722	163,1
     41,9897	    0,201032	162,6	    0,194207	163,7
     41,9927	    0,200289	163,4	    0,192672	164,2
     41,9956	    0,199705	163,9	    0,193098	164,2
     41,9985	    0,201022	163,6	    0,192375	164,6
     42,0015	    0,200009	164,2	    0,192886	165,4
     42,0044	     0,20002	164,7	    0,192031	165,3
     42,0073	    0,199557	164,3	    0,192682	165,4
     42,0103	    0,199342	165,0	     0,19201	165,9
     42,0132	    0,199974	165,1	    0,191908	166,6
     42,0161	    0,199137	165,7	    0,191202	166,6
     42,0191	    0,197949	166,5	    0,190341	166,7
      42,022	     0,19815	166,7	    0,191277	166,8
     42,0249	    0,196945	167,0	    0,189895	167,3
     42,0279	      0,1963	167,2	    0,190221	167,7
     42,0308	    0,198501	167,2	    0,189533	167,5
     42,0337	    0,197061	167,5	     0,19023	167,9
     42,0367	     0,19601	168,0	    0,190149	167,7
     42,0396	    0,195369	168,4	    0,188927	168,9
     42,0425	    0,195173	169,0	    0,189145	168,9
     42,0455	    0,194034	169,4	    0,188822	169,2
     42,0484	     0,19401	169,0	    0,187796	169,2
     42,0513	    0,194667	169,6	    0,187759	169,8
     42,0543	    0,193293	169,7	    0,188057	170,2
     42,0572	    0,193242	169,7	     0,18898	169,9
     42,0601	    0,193344	170,3	    0,187084	170,3
      42,063	    0,194266	170,8	    0,187378	170,9
      42,066	    0,193423	171,0	    0,185334	170,9
     42,0689	    0,191691	171,4	    0,186637	171,4
     42,0718	      0,1923	171,6	    0,186294	171,3
     42,0748	     0,19243	172,0	    0,187103	171,6
     42,0777	    0,190704	172,3	    0,186221	172,1
     42,0806	    0,191717	172,4	    0,185932	172,4
     42,0836	    0,191827	173,1	    0,185187	172,3
     42,0865	    0,190906	172,9	    0,186087	172,7
     42,0894	     0,19053	173,5	     0,18534	172,6
     42,0924	    0,190884	173,3	    0,182999	172,9
     42,0953	    0,190449	173,9	    0,183908	173,4
     42,0982	    0,189418	173,9	    0,183359	173,6
     42,1012	    0,188389	173,9	    0,184273	174,1
     42,1041	    0,188019	174,0	    0,184455	174,2
      42,107	    0,188932	174,4	    0,182284	174,4
       42,11	    0,187332	174,9	    0,183003	174,5
     42,1129	     0,18536	174,6	    0,182269	174,9
     42,1158	    0,186796	175,6	    0,182293	174,9
     42,1188	    0,186789	175,8	    0,180397	175,4
     42,1217	     0,18665	175,8	    0,181293	175,5
     42,1246	    0,187176	176,2	    0,181715	175,7
     42,1276	     0,18564	175,9	    0,181832	176,4
     42,1305	    0,185737	176,5	    0,179777	176,0
     42,1334	    0,185366	176,8	    0,180261	176,8
     42,1364	    0,184031	176,9	    0,180264	176,9
     42,1393	    0,185416	176,7	    0,179651	176,9
     42,1422	    0,182763	177,4	    0,180891	177,4
     42,1452	    0,183172	177,7	    0,179225	177,4
     42,1481	    0,184578	177,7	     0,17974	177,4
      42,151	    0,183512	178,0	    0,178607	178,2
      42,154	    0,184019	178,1	    0,179094	178,4
     42,1569	    0,182078	178,7	    0,178669	178,7
     42,1598	    0,181321	178,5	    0,178813	178,8
     42,1628	    0,182169	178,5	     0,17702	178,4
     42,1657	    0,182275	179,2	    0,179025	179,3
     42,1686	    0,179781	179,6	    0,179326	179,4
     42,1716	    0,182599	180,0	    0,176087	179,1
     42,1745	    0,180444	180,0	    0,178251	179,4
     42,1774	    0,179109	180,4	    0,176379	179,8
     42,1804	    0,180698	180,5	    0,173522	180,2
     42,1833	    0,178402	180,8	    0,175005	180,1
     42,1862	    0,179114	180,6	    0,174147	179,9
     42,1891	    0,178162	181,1	    0,175692	180,3
     42,1921	    0,177409	181,2	    0,176104	180,7
      42,195	    0,180083	180,9	    0,174283	180,3
     42,1979	    0,176773	181,7	    0,175324	181,3
     42,2009	    0,177322	181,7	     0,17283	181,4
     42,2038	     0,17765	181,8	    0,173011	181,7
     42,2067	    0,175478	182,2	    0,172552	181,8
     42,2097	    0,175931	181,8	    0,172128	181,8
     42,2126	     0,17601	182,6	    0,172355	182,6
     42,2155	      0,1757	182,5	    0,171395	182,7
     42,2185	    0,175817	182,7	    0,170314	182,1
     42,2214	       0,175	183,0	     0,17156	183,2
     42,2243	    0,174566	182,9	    0,170054	183,3
     42,2273	    0,175096	183,8	    0,170158	183,4
     42,2302	    0,173851	183,6	    0,169574	183,5
     42,2331	    0,173965	184,0	    0,167702	183,4
     42,2361	    0,173928	184,3	    0,168901	183,9
      42,239	    0,171637	184,5	    0,168035	183,6
     42,2419	    0,173745	184,3	    0,169001	184,0
     42,2449	    0,172491	185,0	    0,168272	184,2
     42,2478	    0,172051	184,9	    0,171015	184,1
     42,2507	    0,170937	185,0	    0,169644	184,9
     42,2537	    0,171603	184,9	    0,168561	184,4
     42,2566	    0,171912	184,4	    0,168856	184,6
     42,2595	    0,170444	185,6	    0,168583	185,4
     42,2625	    0,169253	185,6	    0,166409	185,1
     42,2654	    0,170377	185,7	    0,166916	185,5
     42,2683	    0,167687	186,1	    0,166733	185,7
     42,2713	    0,169464	185,4	    0,166394	185,6
     42,2742	    0,167739	186,8	    0,164686	186,6
     42,2771	    0,168021	186,9	    0,163716	186,2
     42,2801	    0,168332	186,9	    0,164279	187,0
      42,283	    0,166329	187,5	    0,164269	187,5
     42,2859	    0,166849	186,6	    0,164138	187,0
     42,2889	    0,165097	187,7	    0,164667	187,8
     42,2918	    0,166451	186,7	    0,163508	187,5
     42,2947	    0,166037	187,8	    0,164425	187,4
     42,2977	    0,165522	188,1	    0,164486	187,3
     42,3006	    0,165891	186,9	     0,16409	188,1
     42,3035	    0,164829	188,4	     0,16565	188,1
     42,3064	    0,164796	187,1	    0,162686	187,9
     42,3094	    0,165128	188,2	    0,163705	188,8
     42,3123	    0,162935	188,6	    0,160726	188,8
     42,3153	    0,164367	187,9	    0,159993	188,7
     42,3182	    0,162273	189,5	    0,161056	189,7
     42,3211	    0,163802	188,2	    0,158469	189,3
      42,324	    0,162607	189,3	    0,159452	190,0
      42,327	    0,163911	189,0	    0,159542	188,9
     42,3299	    0,162689	188,7	    0,159072	189,8
     42,3328	     0,16193	190,1	    0,159093	190,0
     42,3358	    0,162556	189,1	     0,15895	189,5
     42,3387	    0,162195	190,4	    0,159782	190,2
     42,3416	    0,160121	190,4	    0,158174	190,3
     42,3446	    0,161725	189,7	    0,156863	190,5
     42,3475	    0,158738	191,0	     0,15711	191,0
     42,3504	    0,160043	189,9	    0,156085	191,2
     42,3534	    0,158808	191,7	    0,157475	191,3
     42,3563	    0,158705	191,3	    0,155948	191,5
     42,3592	    0,160195	191,2	    0,156805	192,0
     42,3622	    0,158267	191,0	    0,155836	191,3
     42,3651	    0,158818	191,5	    0,154966	191,5
      42,368	    0,157731	191,4	    0,154602	192,1
      42,371	    0,158251	191,4	    0,154391	191,3
     42,3739	    0,156715	192,3	    0,153949	192,4
     42,3768	    0,155668	191,6	    0,153653	192,5
     42,3798	     0,15659	192,3	     0,15468	192,3
     42,3827	    0,157014	192,1	    0,153768	193,1
     42,3856	    0,155929	193,5	    0,151589	193,1
     42,3886	    0,154204	193,3	    0,153224	193,7
     42,3915	    0,155072	192,0	    0,151684	193,1
     42,3944	    0,153726	193,3	    0,152176	193,8
     42,3974	    0,152878	193,6	    0,150015	193,6
     42,4003	    0,153795	193,7	    0,151333	193,6
     42,4032	    0,153103	192,9	    0,150654	193,7
     42,4062	    0,153351	192,2	    0,148779	194,1
     42,4091	    0,153117	193,8	    0,150714	194,1
      42,412	    0,153539	194,0	    0,149453	193,9
      42,415	    0,153048	194,3	    0,150218	194,9
     42,4179	    0,151279	193,2	    0,148479	194,3
     42,4208	    0,151693	195,3	    0,148369	195,0
     42,4238	    0,150226	194,3	     0,14809	195,5
     42,4267	    0,150014	195,1	    0,148302	195,3
     42,4296	    0,150455	194,0	    0,148726	195,2
     42,4326	    0,150009	194,1	    0,147994	194,9
     42,4355	    0,147923	195,7	    0,149388	195,4
     42,4384	    0,149359	194,3	      0,1465	195,0
     42,4413	    0,147513	196,2	    0,148328	196,1
     42,4443	    0,148861	194,6	    0,146499	196,1
     42,4472	    0,148691	196,3	     0,14757	196,1
     42,4501	    0,148315	195,5	     0,14598	196,7
     42,4531	    0,147032	196,6	    0,145675	196,4
      42,456	    0,146425	195,8	    0,144734	197,1
     42,4589	    0,147672	195,4	      0,1449	196,8
     42,4619	    0,144681	197,0	    0,144621	196,9
     42,4648	    0,146107	195,6	     0,14384	196,4
     42,4677	    0,144722	197,6	    0,143243	197,0
     42,4707	    0,143268	196,8	    0,143393	197,2
     42,4736	      0,1446	197,7	    0,142931	197,8
     42,4765	    0,145195	195,9	    0,142195	198,0
     42,4795	    0,144721	197,9	    0,142084	197,2
     42,4824	    0,143384	197,3	    0,143277	198,4
     42,4853	    0,143943	196,2	    0,140892	197,6
     42,4883	    0,143218	198,4	    0,142965	198,2
     42,4912	    0,143418	197,4	    0,140578	197,7
     42,4941	    0,141249	198,3	    0,142205	198,3
     42,4971	     0,14242	197,8	    0,140231	199,0
        42,5	    0,140768	199,3	    0,140614	199,1
     42,5029	    0,140599	197,2	    0,140318	199,2
     42,5059	     0,14004	199,2	    0,139208	199,0
     42,5088	     0,14095	197,5	    0,140578	199,8
     42,5117	    0,140327	199,1	    0,139685	198,4
     42,5147	    0,139208	198,8	    0,138867	199,6
     42,5176	    0,140388	-159,9	    0,138181	198,9
     42,5205	    0,139526	-161,5	    0,139011	199,7
     42,5235	    0,139473	-161,4	    0,137763	199,5
     42,5264	    0,138742	-160,2	    0,138224	-159,5
     42,5293	     0,13941	-161,4	    0,137344	-160,3
     42,5323	    0,136545	-159,6	    0,138812	-159,6
     42,5352	    0,137621	-161,3	    0,137949	-159,0
     42,5381	    0,135614	-158,2	    0,136399	-160,0
     42,5411	    0,136932	-161,1	    0,135766	-159,3
      42,544	    0,136755	-159,3	    0,135979	-159,3
     42,5469	    0,136881	-160,7	    0,136021	-158,7
     42,5499	    0,136828	-159,2	    0,134528	-159,8
     42,5528	    0,135958	-159,5	    0,135707	-158,4
     42,5557	    0,134507	-157,8	    0,134642	-159,5
     42,5587	    0,135343	-159,7	    0,134013	-158,4
     42,5616	    0,134816	-159,0	    0,134171	-158,8
     42,5645	    0,134509	-159,0	    0,133953	-158,0
     42,5674	    0,133938	-158,1	    0,133987	-158,6
     42,5704	     0,13241	-159,1	     0,13469	-157,8
     42,5733	    0,133473	-157,3	    0,134013	-157,9
     42,5762	    0,131572	-157,9	    0,133445	-157,3
     42,5792	    0,131843	-158,1	    0,132137	-158,1
     42,5821	    0,131665	-157,6	    0,132864	-157,6
      42,585	    0,131369	-157,7	    0,130763	-157,9
      42,588	    0,130936	-156,7	    0,131042	-157,7
     42,5909	    0,132535	-158,7	     0,13183	-156,9
     42,5938	    0,129214	-156,7	    0,131361	-157,1
     42,5968	    0,130341	-158,4	     0,13084	-156,4
     42,5997	     0,12969	-156,8	    0,130349	-157,1
     42,6026	    0,129863	-157,4	    0,129647	-156,6
     42,6056	    0,129379	-156,0	    0,128602	-157,4
     42,6085	    0,129847	-157,2	    0,128848	-155,8
     42,6114	    0,128713	-155,9	     0,12812	-157,6
     42,6144	    0,128521	-157,0	    0,128741	-154,9
     42,6173	    0,129512	-155,6	    0,127767	-155,9
     42,6202	    0,128658	-157,1	    0,127296	-155,1
     42,6232	    0,126101	-155,5	    0,126251	-157,3
     42,6261	    0,127479	-156,2	    0,127626	-155,6
      42,629	    0,126891	-155,4	    0,126212	-156,0
      42,632	    0,127085	-156,4	    0,126759	-154,8
     42,6349	    0,125925	-154,3	    0,126195	-156,3
     42,6378	    0,126251	-156,2	    0,127043	-154,7
     42,6408	    0,124845	-154,8	    0,124206	-156,0
     42,6437	    0,125461	-155,1	    0,126004	-154,7
     42,6466	    0,124514	-155,3	     0,12497	-155,3
     42,6496	     0,12483	-156,3	    0,124548	-155,0
     42,6525	    0,124102	-156,3	    0,124082	-154,8
     42,6554	    0,124437	-154,6	    0,124041	-154,0
     42,6584	    0,122948	-154,4	    0,123982	-156,0
     42,6613	    0,123365	-154,5	    0,124377	-154,5
     42,6642	    0,123615	-154,2	    0,122988	-155,0
     42,6672	     0,12276	-154,0	    0,122877	-153,7
     42,6701	    0,121841	-154,0	    0,122302	-154,8
      42,673	    0,122242	-154,5	     0,12167	-153,7
      42,676	    0,122253	-153,0	    0,121967	-153,2
     42,6789	    0,123003	-154,3	    0,121581	-153,1
     42,6818	    0,120836	-154,1	    0,120075	-154,0
     42,6847	    0,120166	-153,7	    0,122428	-152,9
     42,6877	    0,120706	-152,4	     0,12026	-153,4
     42,6906	    0,119943	-153,7	    0,121313	-152,4
     42,6936	    0,120039	-153,7	    0,119034	-153,2
     42,6965	    0,119892	-153,2	    0,121477	-152,7
     42,6994	    0,119081	-152,8	     0,12002	-153,5
     42,7023	    0,119593	-153,3	    0,120037	-152,4
     42,7053	    0,118677	-153,4	    0,118967	-153,1
     42,7082	    0,118137	-152,8	    0,118606	-151,5
     42,7111	    0,117966	-152,4	    0,118185	-152,4
     42,7141	    0,118387	-153,5	    0,118662	-152,5
      42,717	    0,117659	-151,6	     0,11768	-152,6
     42,7199	    0,117938	-152,7	    0,118706	-151,4
     42,7229	    0,117077	-151,3	    0,117128	-151,9
     42,7258	    0,117117	-152,9	    0,117458	-151,5
     42,7287	     0,11699	-151,4	    0,116315	-152,1
     42,7317	    0,116647	-152,1	    0,117095	-151,1
     42,7346	    0,116413	-151,6	    0,115577	-152,1
     42,7375	    0,117253	-151,9	     0,11632	-150,7
     42,7405	     0,11596	-150,6	    0,116783	-151,6
     42,7434	    0,114918	-152,2	    0,115172	-150,5
     42,7463	    0,115578	-151,2	    0,114583	-152,0
     42,7493	    0,114155	-151,8	    0,114539	-150,6
     42,7522	    0,113829	-150,2	    0,115357	-150,9
     42,7551	    0,113735	-150,6	    0,113729	-151,5
     42,7581	    0,113518	-150,0	    0,113889	-151,4
      42,761	    0,113536	-151,5	    0,114431	-150,3
     42,7639	    0,113266	-150,1	      0,1141	-150,8
     42,7669	    0,113285	-151,6	    0,112707	-150,7
     42,7698	     0,11325	-149,9	    0,112828	-150,8
     42,7727	    0,112172	-150,6	    0,112337	-149,5
     42,7757	    0,110859	-149,5	    0,112354	-149,7
     42,7786	    0,111519	-150,2	    0,111239	-150,2
     42,7815	    0,111012	-150,0	    0,111844	-149,0
     42,7845	    0,110291	-148,5	    0,110592	-149,5
     42,7874	     0,11115	-148,9	     0,11147	-148,8
     42,7903	    0,110242	-149,4	    0,110746	-149,8
     42,7933	    0,109778	-150,1	    0,111956	-149,0
     42,7962	     0,10869	-149,0	    0,110736	-150,0
     42,7991	    0,109638	-149,9	    0,110727	-148,6
     42,8021	    0,108461	-148,5	    0,109181	-149,2
      42,805	    0,108718	-150,0	    0,109053	-148,4
     42,8079	    0,108909	-148,4	    0,109164	-149,0
     42,8109	    0,108885	-149,8	    0,108985	-148,4
     42,8138	    0,107251	-148,3	    0,108552	-149,5
     42,8167	      0,1075	-149,3	    0,107924	-147,8
     42,8196	    0,107095	-148,3	    0,108112	-148,2
     42,8226	    0,107048	-149,1	    0,107266	-149,2
     42,8255	    0,107486	-149,0	    0,108007	-148,3
     42,8284	    0,106042	-148,4	    0,106517	-148,3
     42,8314	    0,106394	-148,1	    0,107008	-147,3
     42,8343	    0,106458	-147,5	    0,106375	-148,2
     42,8372	    0,105983	-148,7	    0,106419	-146,8
     42,8402	    0,105863	-147,1	    0,105602	-148,1
     42,8431	    0,105464	-148,3	    0,105708	-146,8
      42,846	    0,104952	-146,6	    0,105062	-147,9
      42,849	    0,104632	-148,5	    0,105233	-146,9
     42,8519	     0,10426	-146,8	     0,10421	-147,9
     42,8548	    0,104468	-148,2	    0,104681	-146,9
     42,8578	    0,104173	-146,6	    0,104427	-147,5
     42,8607	    0,103344	-147,1	    0,103776	-147,4
     42,8636	    0,103493	-147,5	    0,104209	-146,4
     42,8666	    0,102956	-147,4	    0,103681	-147,3
     42,8695	     0,10313	-147,3	    0,103851	-146,5
     42,8724	     0,10253	-146,1	    0,103037	-147,4
     42,8754	    0,103045	-146,7	    0,102675	-145,8
     42,8783	    0,102672	-146,2	    0,102039	-146,7
     42,8812	    0,102635	-147,3	    0,102466	-145,9
     42,8842	    0,101126	-146,1	    0,101595	-146,8
     42,8871	    0,101444	-146,9	    0,102304	-144,1
       42,89	    0,101049	-146,8	   0,0997127	-145,8
      42,893	    0,100283	-146,6	    0,100958	-146,2
     42,8959	    0,101293	-146,2	    0,100991	-145,6
     42,8988	   0,0993588	-144,6	    0,100261	-146,3
     42,9018	   0,0997551	-146,4	     0,10027	-144,8
     42,9047	    0,100308	-144,8	   0,0995851	-145,4
     42,9076	    0,099062	-146,8	   0,0997378	-144,3
     42,9106	   0,0992496	-145,0	   0,0993447	-145,3
     42,9135	   0,0986576	-146,3	   0,0989372	-144,5
     42,9164	   0,0982132	-144,8	   0,0991542	-144,3
     42,9194	   0,0980952	-145,2	   0,0985923	-143,6
     42,9223	   0,0983913	-145,6	   0,0980243	-144,7
     42,9252	   0,0981941	-145,1	   0,0979076	-145,2
     42,9282	    0,098067	-145,4	   0,0979201	-143,6
     42,9311	   0,0977472	-143,5	   0,0974557	-144,8
      42,934	    0,097111	-145,2	   0,0970407	-143,2
      42,937	    0,096685	-144,5	   0,0965989	-145,1
     42,9399	   0,0966939	-145,4	   0,0970497	-143,1
     42,9428	   0,0966005	-144,8	   0,0975172	-143,5
     42,9457	   0,0959623	-143,6	   0,0966526	-142,3
     42,9487	    0,095914	-144,2	   0,0959851	-143,0
     42,9516	   0,0961816	-142,7	   0,0957926	-143,8
     42,9545	   0,0951951	-144,6	   0,0955448	-141,8
     42,9575	   0,0953159	-143,0	   0,0953705	-143,7
     42,9604	   0,0951457	-143,2	    0,095211	-142,0
     42,9633	   0,0941147	-142,2	   0,0948811	-143,8
     42,9663	   0,0943094	-143,3	    0,094557	-143,0
     42,9692	   0,0942057	-144,4	   0,0945897	-141,7
     42,9721	   0,0943417	-142,7	   0,0942792	-143,0
     42,9751	   0,0939486	-143,6	    0,094562	-142,4
      42,978	   0,0932471	-142,6	   0,0940542	-142,6
     42,9809	   0,0931385	-143,1	   0,0939301	-142,7
     42,9839	   0,0929484	-142,5	   0,0942624	-142,5
     42,9868	   0,0928347	-142,1	   0,0934423	-142,8
     42,9897	   0,0929315	-143,2	   0,0928702	-141,7
     42,9927	   0,0927977	-141,8	   0,0924775	-142,3
     42,9956	    0,092371	-142,8	   0,0925802	-141,4
     42,9985	   0,0923135	-141,4	   0,0916997	-142,1
     43,0015	   0,0917678	-142,1	   0,0918326	-141,3
     43,0044	   0,0915466	-142,4	   0,0918302	-141,6
     43,0073	   0,0914751	-142,0	   0,0914263	-142,0
     43,0103	   0,0913312	-141,9	   0,0915827	-141,4
     43,0132	   0,0906621	-141,3	   0,0911516	-142,1
     43,0161	    0,090435	-142,2	   0,0910784	-140,6
     43,0191	   0,0897557	-141,6	   0,0904428	-141,9
      43,022	   0,0900823	-140,7	   0,0910609	-142,0
     43,0249	   0,0897166	-142,0	   0,0907149	-140,7
     43,0279	   0,0900706	-141,7	   0,0898177	-141,4
     43,0308	   0,0899038	-142,0	   0,0900509	-140,6
     43,0337	   0,0887159	-140,9	   0,0890516	-141,9
     43,0367	   0,0890759	-141,2	   0,0896005	-141,1
     43,0396	   0,0884441	-140,6	   0,0896195	-140,6
     43,0425	   0,0885793	-141,3	   0,0888584	-140,5
     43,0455	   0,0879987	-141,5	   0,0892856	-140,8
     43,0484	   0,0884816	-140,5	   0,0884449	-141,5
     43,0513	    0,087894	-141,1	   0,0883193	-140,4
     43,0543	   0,0869863	-140,6	   0,0873126	-141,3
     43,0572	   0,0872296	-141,1	   0,0882163	-141,3
     43,0601	   0,0864166	-141,1	   0,0875547	-139,7
      43,063	   0,0862801	-141,0	   0,0873175	-140,5
      43,066	   0,0861728	-141,8	   0,0868706	-140,1
     43,0689	    0,086718	-140,6	   0,0862372	-141,3
     43,0718	    0,086447	-140,6	   0,0865484	-140,8
     43,0748	   0,0856957	-141,3	   0,0865947	-140,2
     43,0777	   0,0865887	-140,4	   0,0855273	-141,1
     43,0806	   0,0856668	-140,3	   0,0855694	-139,7
     43,0836	   0,0855882	-140,5	   0,0848619	-140,9
     43,0865	   0,0848133	-141,0	   0,0858237	-140,0
     43,0894	   0,0851543	-140,3	   0,0855557	-140,2
     43,0924	   0,0846767	-139,9	   0,0845081	-140,7
     43,0953	   0,0836159	-140,4	   0,0845307	-139,8
     43,0982	   0,0836427	-140,5	   0,0838115	-140,2
     43,1012	   0,0840926	-139,8	   0,0842051	-140,4
     43,1041	   0,0831382	-139,9	   0,0838549	-139,8
      43,107	   0,0831318	-140,0	   0,0831761	-140,1
       43,11	   0,0831036	-140,1	   0,0840589	-139,5
     43,1129	   0,0826205	-139,7	   0,0830545	-140,3
     43,1158	   0,0829828	-139,5	    0,083057	-139,7
     43,1188	   0,0821952	-140,3	   0,0827657	-139,3
     43,1217	   0,0817547	-139,4	   0,0817677	-140,4
     43,1246	   0,0823417	-139,4	   0,0826114	-139,5
     43,1276	   0,0809266	-139,4	   0,0815531	-139,4
     43,1305	   0,0818269	-139,4	   0,0819016	-139,8
     43,1334	   0,0809489	-139,4	   0,0819593	-139,3
     43,1364	   0,0806282	-138,8	   0,0807929	-138,9
     43,1393	    0,080287	-139,8	   0,0815211	-139,1
     43,1422	   0,0803172	-139,0	   0,0807927	-139,3
     43,1452	   0,0801919	-138,7	   0,0808673	-139,2
     43,1481	   0,0806351	-139,4	   0,0807976	-139,1
      43,151	   0,0797408	-138,7	   0,0808302	-139,0
      43,154	   0,0798815	-138,9	   0,0800989	-139,6
     43,1569	   0,0789593	-138,8	   0,0795912	-139,2
     43,1598	   0,0790629	-138,8	    0,079491	-138,7
     43,1628	   0,0788203	-138,9	   0,0794085	-139,4
     43,1657	   0,0784194	-138,6	   0,0788339	-139,1
     43,1686	   0,0786861	-138,6	   0,0789152	-139,1
     43,1716	   0,0776957	-139,2	   0,0788446	-138,7
     43,1745	    0,077636	-138,3	   0,0780698	-138,7
     43,1774	   0,0775365	-138,3	     0,07842	-138,2
     43,1804	   0,0772843	-137,9	   0,0778523	-138,0
     43,1833	   0,0778318	-138,4	    0,077991	-138,2
     43,1862	   0,0767938	-138,6	   0,0775979	-139,1
     43,1891	   0,0764239	-138,5	   0,0772385	-137,8
     43,1921	   0,0769397	-138,0	   0,0768073	-138,3
      43,195	   0,0760495	-138,3	   0,0768334	-137,6
     43,1979	   0,0760697	-137,6	   0,0762161	-137,8
     43,2009	   0,0760134	-138,1	      0,0765	-138,3
     43,2038	   0,0758966	-137,8	   0,0759968	-137,7
     43,2067	   0,0758614	-137,3	   0,0751286	-138,5
     43,2097	   0,0752322	-137,6	   0,0757257	-137,5
     43,2126	   0,0753951	-138,0	   0,0758949	-137,5
     43,2155	   0,0753379	-137,4	   0,0751455	-138,5
     43,2185	   0,0740235	-138,3	   0,0749063	-137,7
     43,2214	    0,074324	-137,3	   0,0747548	-137,7
     43,2243	   0,0747306	-138,1	   0,0740831	-138,5
     43,2273	   0,0736884	-137,5	   0,0744977	-137,1
     43,2302	   0,0746075	-137,3	   0,0734795	-137,7
     43,2331	   0,0737837	-137,3	   0,0737208	-138,0
     43,2361	   0,0733218	-137,0	   0,0736806	-137,0
      43,239	   0,0730208	-136,7	    0,073447	-136,8
     43,2419	   0,0720802	-137,8	   0,0731658	-136,7
     43,2449	   0,0725456	-137,1	   0,0729263	-137,5
     43,2478	   0,0724116	-137,0	   0,0720297	-137,5
     43,2507	   0,0725329	-137,4	   0,0723424	-137,0
     43,2537	   0,0726147	-136,7	   0,0727733	-136,9
     43,2566	   0,0720391	-135,7	   0,0717435	-137,5
     43,2595	   0,0712555	-136,5	   0,0722737	-136,3
     43,2625	   0,0711971	-136,8	   0,0712811	-137,2
     43,2654	   0,0714646	-136,8	   0,0715056	-137,1
     43,2683	   0,0717921	-136,9	   0,0717413	-136,3
     43,2713	   0,0709319	-136,6	   0,0702409	-137,2
     43,2742	   0,0707359	-136,6	   0,0702892	-136,8
     43,2771	   0,0708167	-136,4	   0,0709063	-135,4
     43,2801	   0,0705059	-136,0	   0,0694901	-136,7
      43,283	   0,0698687	-137,0	    0,070101	-136,6
     43,2859	   0,0703208	-135,7	   0,0702841	-135,6
     43,2889	   0,0693499	-136,1	   0,0695116	-136,4
     43,2918	   0,0688192	-136,6	    0,070265	-136,1
     43,2947	   0,0689464	-136,4	    0,069191	-136,6
     43,2977	   0,0687675	-136,5	   0,0688391	-136,4
     43,3006	   0,0683341	-136,3	   0,0690758	-136,3
     43,3035	   0,0689181	-135,5	   0,0695024	-135,4
     43,3064	   0,0684027	-135,7	   0,0693898	-136,0
     43,3094	   0,0680804	-136,1	   0,0685518	-135,7
     43,3123	   0,0681756	-135,9	   0,0680512	-135,9
     43,3153	   0,0677755	-136,0	   0,0673606	-136,0
     43,3182	   0,0673093	-135,9	   0,0677841	-136,0
     43,3211	   0,0677654	-135,3	   0,0674082	-135,4
      43,324	   0,0670059	-136,0	   0,0672926	-136,0
      43,327	   0,0669808	-136,0	    0,067525	-135,9
     43,3299	   0,0671719	-134,3	   0,0667759	-135,7
     43,3328	   0,0663664	-135,7	   0,0665597	-135,9
     43,3358	   0,0657176	-135,9	   0,0672481	-135,7
     43,3387	   0,0663482	-135,0	   0,0665824	-135,8
     43,3416	    0,065923	-135,5	   0,0660092	-135,8
     43,3446	   0,0652795	-135,6	   0,0667732	-134,9
     43,3475	   0,0665333	-134,2	   0,0654971	-135,7
     43,3504	   0,0653733	-135,6	   0,0654692	-135,4
     43,3534	   0,0659153	-135,1	   0,0658622	-135,4
     43,3563	   0,0651638	-133,8	   0,0651771	-135,4
     43,3592	   0,0648252	-135,6	   0,0646864	-135,4
     43,3622	   0,0641724	-135,4	    0,065301	-134,8
     43,3651	   0,0649382	-134,1	   0,0655767	-134,5
      43,368	   0,0644767	-134,8	    0,064176	-135,1
      43,371	   0,0641651	-135,1	   0,0649502	-134,1
     43,3739	   0,0644781	-134,2	   0,0645346	-135,1
     43,3768	   0,0637499	-135,5	   0,0632269	-135,2
     43,3798	   0,0638798	-135,2	   0,0635732	-135,2
     43,3827	   0,0641491	-133,5	   0,0638726	-133,9
     43,3856	   0,0631293	-134,9	   0,0632045	-134,2
     43,3886	   0,0628707	-134,7	   0,0633887	-134,8
     43,3915	   0,0630162	-134,0	   0,0632872	-133,6
     43,3944	   0,0625295	-135,3	   0,0628316	-135,1
     43,3974	    0,062089	-134,7	   0,0625192	-135,2
     43,4003	   0,0632371	-133,8	    0,062674	-133,8
     43,4032	   0,0626043	-134,1	   0,0621695	-134,8
     43,4062	   0,0614093	-134,6	   0,0619146	-135,3
     43,4091	   0,0623655	-133,3	   0,0620764	-133,8
      43,412	   0,0620763	-135,2	   0,0614738	-134,6
      43,415	    0,061269	-134,9	   0,0616458	-135,3
     43,4179	   0,0616277	-133,8	   0,0615012	-133,2
     43,4208	   0,0612043	-134,5	   0,0617083	-134,7
     43,4238	   0,0609634	-134,7	   0,0606181	-133,8
     43,4267	   0,0612041	-133,7	   0,0611472	-133,0
     43,4296	   0,0610666	-133,8	   0,0606284	-134,3
     43,4326	   0,0601833	-134,0	   0,0605479	-134,5
     43,4355	   0,0604385	-134,0	   0,0604314	-134,7
     43,4384	   0,0605593	-132,9	    0,060888	-133,4
     43,4413	   0,0604941	-133,8	   0,0600137	-133,9
     43,4443	   0,0603664	-133,2	   0,0599507	-133,5
     43,4472	   0,0606322	-134,0	   0,0603732	-133,6
     43,4501	   0,0606034	-133,5	   0,0599605	-133,3
     43,4531	   0,0604165	-132,9	   0,0592539	-134,3
      43,456	   0,0609817	-133,6	   0,0597219	-134,1
     43,4589	   0,0609044	-133,5	   0,0587345	-134,4
     43,4619	   0,0605866	-133,6	   0,0591921	-133,9
     43,4648	   0,0593132	-133,0	   0,0592675	-134,3
     43,4677	    0,058778	-132,9	     0,05887	-133,3
     43,4707	    0,058225	-133,5	   0,0584864	-133,7
     43,4736	   0,0585125	-132,8	   0,0587032	-133,4
     43,4765	   0,0584397	-133,7	   0,0589438	-133,3
     43,4795	   0,0578411	-133,6	   0,0579612	-133,9
     43,4824	   0,0571503	-132,8	   0,0579375	-132,6
     43,4853	   0,0569392	-132,7	   0,0579542	-133,3
     43,4883	   0,0572219	-133,2	   0,0577834	-133,5
     43,4912	   0,0578015	-133,6	   0,0572065	-133,0
     43,4941	   0,0571134	-132,8	   0,0574958	-133,7
     43,4971	    0,057574	-133,5	   0,0567741	-133,2
        43,5	   0,0572941	-132,6	   0,0576179	-132,8

