X-Data [Hz]	Laser (M - Filtered) [m/s]	Phase [Deg]	Laser (M - Filtered) [m/s]	Phase [Deg]	
	002: [07-09-24 15:39]		003: [07-09-24 15:42]	
        41,5	   0,0123854	79,8	   0,0128049	75,5
      41,502	   0,0124406	75,9	   0,0128889	77,8
     41,5039	   0,0124927	77,7	   0,0129669	77,3
     41,5059	   0,0127052	77,3	   0,0129891	78,4
     41,5078	   0,0128403	78,2	   0,0129665	77,0
     41,5098	   0,0128723	75,8	   0,0130437	77,8
     41,5117	   0,0128892	76,3	   0,0130866	77,3
     41,5137	   0,0129018	78,2	   0,0130943	76,4
     41,5156	   0,0130285	77,8	   0,0130467	78,3
     41,5176	   0,0130554	78,7	    0,013117	77,7
     41,5196	   0,0130115	75,5	   0,0131708	78,4
     41,5215	   0,0129773	75,6	   0,0131727	76,2
     41,5235	   0,0131111	77,1	   0,0131822	75,7
     41,5254	   0,0131067	76,7	   0,0131666	76,1
     41,5274	    0,013251	79,5	   0,0132528	76,0
     41,5293	   0,0132473	77,2	   0,0132564	78,6
     41,5313	   0,0130591	77,9	   0,0133104	77,4
     41,5332	   0,0130457	77,0	   0,0132765	78,0
     41,5352	   0,0131214	78,2	   0,0131846	78,2
     41,5371	   0,0131529	79,2	   0,0132648	77,6
     41,5391	   0,0132603	77,1	   0,0133992	78,4
     41,5411	    0,013272	78,4	   0,0133934	77,4
      41,543	   0,0132182	76,8	   0,0133239	79,7
      41,545	   0,0132367	76,6	   0,0132412	75,0
     41,5469	   0,0133569	77,8	   0,0132787	75,1
     41,5489	   0,0133575	76,9	   0,0134338	78,5
     41,5508	   0,0133938	78,0	   0,0134331	78,0
     41,5528	   0,0132891	77,3	   0,0135352	80,0
     41,5547	   0,0133042	76,6	   0,0134266	78,9
     41,5567	   0,0134054	76,9	     0,01346	77,9
     41,5587	   0,0134334	76,1	    0,013554	77,4
     41,5606	   0,0135594	78,7	   0,0136818	78,5
     41,5626	   0,0135186	77,9	   0,0136254	80,4
     41,5645	   0,0134741	78,5	    0,013482	77,4
     41,5665	   0,0134318	77,0	    0,013529	77,3
     41,5684	   0,0134578	76,3	   0,0135774	78,7
     41,5704	   0,0135226	78,9	   0,0135731	76,6
     41,5723	   0,0135225	78,2	   0,0136362	77,8
     41,5743	   0,0135345	79,9	   0,0137491	77,1
     41,5762	   0,0135473	79,9	   0,0137778	78,3
     41,5782	   0,0136176	76,0	   0,0138045	77,8
     41,5802	   0,0136723	78,4	   0,0137906	77,1
     41,5821	   0,0137012	78,3	   0,0137927	79,3
     41,5841	   0,0136997	76,0	   0,0137652	78,4
      41,586	   0,0136647	77,6	   0,0137964	79,0
      41,588	   0,0137695	76,8	   0,0138774	79,7
     41,5899	    0,013753	78,6	   0,0139424	76,8
     41,5919	   0,0137615	77,3	   0,0139734	78,4
     41,5938	   0,0137523	79,2	    0,013902	78,1
     41,5958	   0,0137504	79,8	   0,0139717	78,5
     41,5978	   0,0138339	77,9	   0,0140066	78,1
     41,5997	   0,0138678	79,8	   0,0139993	78,0
     41,6017	   0,0139141	77,0	   0,0139677	78,8
     41,6036	   0,0139434	77,7	   0,0140146	76,4
     41,6056	   0,0139967	78,2	    0,014086	76,4
     41,6075	   0,0138907	79,8	   0,0141271	78,4
     41,6095	   0,0139609	79,6	   0,0141039	78,3
     41,6114	   0,0140259	78,6	   0,0141605	80,0
     41,6134	   0,0139768	79,5	   0,0142141	79,1
     41,6153	   0,0139583	80,2	   0,0140884	79,4
     41,6173	    0,014085	80,0	    0,014161	78,6
     41,6193	   0,0141436	79,4	   0,0142603	78,8
     41,6212	    0,014148	77,9	   0,0143207	80,5
     41,6232	   0,0141321	77,7	   0,0143514	78,0
     41,6251	   0,0141174	78,1	   0,0143134	78,5
     41,6271	   0,0141815	77,3	   0,0142974	77,2
      41,629	   0,0141918	80,1	   0,0143689	77,1
      41,631	   0,0142502	79,2	    0,014405	80,5
     41,6329	    0,014214	79,4	   0,0143596	79,7
     41,6349	   0,0142437	78,5	   0,0143184	78,7
     41,6369	   0,0142601	77,6	   0,0144287	79,5
     41,6388	   0,0142691	79,5	   0,0144755	78,5
     41,6408	   0,0143889	78,6	   0,0145455	79,3
     41,6427	   0,0144013	78,0	    0,014511	79,6
     41,6447	   0,0144071	78,4	   0,0145312	79,5
     41,6466	   0,0143773	78,0	   0,0146262	80,5
     41,6486	   0,0143776	78,9	   0,0146132	78,1
     41,6505	   0,0144748	78,9	   0,0146125	78,7
     41,6525	   0,0145995	80,9	   0,0146251	77,8
     41,6544	   0,0146316	80,3	   0,0146046	77,6
     41,6564	   0,0144961	77,7	   0,0146876	79,7
     41,6584	   0,0144588	80,6	    0,014803	79,6
     41,6603	   0,0145567	81,3	   0,0147498	80,4
     41,6623	   0,0146408	78,5	   0,0147327	80,2
     41,6642	   0,0146878	79,7	   0,0147762	78,1
     41,6662	   0,0146879	79,7	   0,0148134	80,2
     41,6681	   0,0146397	79,0	   0,0148482	77,7
     41,6701	   0,0146864	79,8	   0,0148563	79,3
      41,672	   0,0148124	79,5	   0,0149797	78,3
      41,674	   0,0149132	79,8	   0,0149812	78,1
      41,676	   0,0148414	78,2	   0,0149766	79,7
     41,6779	   0,0147952	80,0	   0,0150068	79,2
     41,6799	   0,0148629	80,4	   0,0150031	78,1
     41,6818	   0,0147989	79,5	   0,0150564	81,2
     41,6838	    0,014872	80,4	   0,0150845	79,5
     41,6857	    0,014972	78,4	   0,0151513	80,6
     41,6877	   0,0149718	78,6	   0,0151508	80,6
     41,6896	   0,0150671	80,3	   0,0151766	78,4
     41,6916	   0,0150486	78,8	   0,0151933	80,4
     41,6936	   0,0149504	80,5	   0,0152796	79,7
     41,6955	   0,0149431	81,3	    0,015238	80,1
     41,6975	   0,0151035	79,3	   0,0152176	80,6
     41,6994	   0,0152615	80,7	   0,0152778	79,6
     41,7014	   0,0152078	77,6	   0,0153351	81,2
     41,7033	   0,0151968	78,8	   0,0152672	80,1
     41,7053	    0,015277	79,9	   0,0153859	80,6
     41,7072	   0,0152593	80,0	   0,0154068	80,9
     41,7092	    0,015235	80,9	   0,0154041	80,1
     41,7111	   0,0152692	79,9	   0,0154618	80,9
     41,7131	   0,0153792	79,7	   0,0156277	81,2
     41,7151	   0,0154174	80,4	   0,0156356	79,5
      41,717	   0,0153965	80,0	   0,0155629	79,5
      41,719	    0,015428	79,3	   0,0155791	79,5
     41,7209	   0,0154715	80,3	   0,0155798	78,1
     41,7229	   0,0154597	80,9	   0,0157403	80,2
     41,7248	   0,0155256	81,6	   0,0157958	81,1
     41,7268	   0,0155356	80,6	   0,0157744	80,4
     41,7287	   0,0155676	79,7	   0,0157522	80,7
     41,7307	    0,015593	80,3	   0,0156486	79,1
     41,7327	   0,0157242	80,2	   0,0157172	81,3
     41,7346	   0,0157427	80,5	   0,0157654	79,9
     41,7366	   0,0156249	79,9	    0,015852	79,6
     41,7385	   0,0157169	78,8	   0,0159068	80,6
     41,7405	   0,0158568	80,7	   0,0159481	80,0
     41,7424	   0,0158203	80,5	   0,0159526	80,6
     41,7444	   0,0157936	81,2	   0,0159485	80,4
     41,7463	   0,0157577	81,9	   0,0159471	81,2
     41,7483	   0,0158555	80,1	   0,0160801	81,5
     41,7502	    0,015923	80,7	   0,0161578	81,9
     41,7522	    0,016013	79,7	   0,0162132	81,4
     41,7542	   0,0159593	78,4	   0,0161083	82,4
     41,7561	   0,0160374	81,7	   0,0161331	79,6
     41,7581	   0,0160095	81,1	   0,0162263	80,8
       41,76	   0,0159922	81,8	   0,0163522	79,9
      41,762	   0,0160514	82,8	   0,0163346	78,5
     41,7639	   0,0162283	79,9	     0,01627	84,0
     41,7659	   0,0163108	80,1	    0,016258	82,5
     41,7678	   0,0162707	81,1	   0,0163628	81,1
     41,7698	   0,0162601	80,0	   0,0163876	82,2
     41,7718	   0,0162008	81,3	   0,0164727	79,3
     41,7737	   0,0162429	81,6	    0,016445	80,6
     41,7757	   0,0163331	80,6	   0,0164631	81,4
     41,7776	   0,0163072	81,1	   0,0165176	80,5
     41,7796	   0,0163982	81,1	   0,0165275	83,1
     41,7815	   0,0164975	81,9	   0,0166096	81,8
     41,7835	   0,0165035	81,3	   0,0166241	79,9
     41,7854	   0,0164886	80,9	    0,016691	81,7
     41,7874	   0,0164853	82,9	   0,0167263	79,9
     41,7893	   0,0164909	81,0	   0,0168267	79,2
     41,7913	    0,016626	80,3	   0,0168283	82,3
     41,7933	   0,0166274	81,8	   0,0168217	81,7
     41,7952	   0,0166079	79,7	   0,0168722	82,5
     41,7972	   0,0166166	79,8	   0,0168738	81,9
     41,7991	   0,0166113	82,9	   0,0169282	80,3
     41,8011	   0,0167587	82,2	   0,0169653	81,7
      41,803	   0,0167818	82,8	   0,0170883	80,4
      41,805	   0,0169561	81,4	   0,0171196	81,0
     41,8069	   0,0168511	80,1	   0,0170764	82,9
     41,8089	   0,0168195	82,7	   0,0171489	80,4
     41,8109	   0,0168702	81,1	   0,0172097	82,3
     41,8128	   0,0168426	81,4	     0,01717	82,3
     41,8148	   0,0169653	83,2	   0,0172137	81,4
     41,8167	   0,0170558	82,3	    0,017252	83,4
     41,8187	   0,0170621	82,3	    0,017305	81,9
     41,8206	   0,0170859	82,2	   0,0173983	81,5
     41,8226	   0,0171845	81,3	    0,017475	83,4
     41,8245	   0,0172891	82,6	   0,0175012	81,2
     41,8265	   0,0172104	81,7	   0,0175354	81,3
     41,8284	   0,0173089	83,2	   0,0175581	82,0
     41,8304	   0,0173271	83,6	   0,0175341	81,4
     41,8324	   0,0172946	81,0	   0,0175464	82,2
     41,8343	   0,0172686	81,0	   0,0176422	82,8
     41,8363	   0,0173343	82,2	   0,0177811	83,4
     41,8382	   0,0174702	81,8	   0,0178152	84,0
     41,8402	   0,0176076	83,2	   0,0177504	82,5
     41,8421	   0,0176312	83,3	   0,0177261	82,4
     41,8441	   0,0175913	81,0	    0,017753	82,5
      41,846	   0,0175288	83,7	   0,0179094	81,0
      41,848	   0,0175256	84,1	   0,0180247	82,1
       41,85	   0,0176351	82,1	   0,0180761	83,9
     41,8519	   0,0177965	83,2	   0,0181425	82,6
     41,8539	   0,0178678	81,9	   0,0181302	83,0
     41,8558	   0,0179042	83,1	   0,0180695	84,1
     41,8578	   0,0178904	84,1	   0,0180939	82,0
     41,8597	   0,0178874	82,6	   0,0181452	83,1
     41,8617	   0,0179673	82,9	   0,0182128	82,1
     41,8636	   0,0179813	83,5	    0,018212	82,4
     41,8656	   0,0180414	82,8	   0,0182746	84,6
     41,8675	   0,0180436	82,9	   0,0183162	83,8
     41,8695	   0,0180822	83,6	    0,018367	82,6
     41,8715	   0,0181877	82,8	    0,018392	84,7
     41,8734	      0,0182	83,1	   0,0184999	82,2
     41,8754	   0,0182476	82,0	    0,018578	82,6
     41,8773	   0,0182629	82,3	   0,0185637	83,8
     41,8793	   0,0182276	84,0	   0,0185675	82,9
     41,8812	   0,0183067	83,3	   0,0186067	85,0
     41,8832	   0,0184548	82,6	   0,0187219	84,1
     41,8851	   0,0184279	83,3	   0,0187959	83,4
     41,8871	   0,0184575	82,8	   0,0187443	84,4
     41,8891	   0,0184618	82,8	   0,0187588	83,6
      41,891	   0,0185869	84,2	   0,0188209	83,2
      41,893	   0,0186554	85,6	   0,0189395	84,0
     41,8949	   0,0187268	85,5	   0,0189407	84,3
     41,8969	     0,01881	86,1	   0,0189745	83,9
     41,8988	   0,0188071	81,5	   0,0189738	84,8
     41,9008	   0,0188486	83,0	   0,0191112	84,1
     41,9027	   0,0189093	83,2	   0,0191819	84,7
     41,9047	    0,018908	82,1	   0,0192022	84,7
     41,9066	   0,0189494	85,7	   0,0192197	84,2
     41,9086	   0,0189684	85,0	   0,0192395	83,8
     41,9106	   0,0189405	84,2	   0,0193006	84,1
     41,9125	   0,0190429	85,7	   0,0193905	83,4
     41,9145	   0,0191197	82,9	   0,0194829	82,6
     41,9164	   0,0191648	82,6	   0,0196872	85,5
     41,9184	   0,0192321	84,2	   0,0196549	85,7
     41,9203	   0,0192481	84,4	   0,0196511	86,4
     41,9223	    0,019259	85,1	   0,0196842	86,0
     41,9242	   0,0193424	86,8	   0,0197407	84,6
     41,9262	    0,019389	84,0	   0,0197878	85,0
     41,9282	    0,019432	86,0	   0,0197993	85,3
     41,9301	   0,0194978	83,4	   0,0198098	84,0
     41,9321	    0,019524	83,5	   0,0198616	84,0
      41,934	   0,0195731	84,6	   0,0199086	85,5
      41,936	   0,0195744	85,6	   0,0200087	85,2
     41,9379	   0,0197596	85,5	   0,0201072	87,4
     41,9399	   0,0198117	85,3	   0,0201959	83,7
     41,9418	   0,0197983	84,2	   0,0202829	84,5
     41,9438	   0,0198463	84,7	   0,0202657	86,0
     41,9457	   0,0198187	85,7	   0,0203198	85,6
     41,9477	   0,0198839	84,9	   0,0203886	84,9
     41,9497	    0,019919	83,9	   0,0204682	85,2
     41,9516	   0,0201088	86,4	   0,0205563	85,3
     41,9536	   0,0201763	86,3	   0,0205862	85,1
     41,9555	   0,0202802	85,3	   0,0205746	87,8
     41,9575	   0,0202311	86,8	   0,0206532	86,7
     41,9594	   0,0202445	86,6	   0,0207014	85,0
     41,9614	     0,02025	86,2	   0,0207776	87,0
     41,9633	   0,0203121	88,1	   0,0208124	84,3
     41,9653	   0,0204183	85,3	   0,0208774	84,9
     41,9673	   0,0204716	84,7	   0,0209806	87,8
     41,9692	    0,020544	87,7	   0,0209651	87,4
     41,9712	   0,0205935	86,1	   0,0209797	86,7
     41,9731	   0,0206373	85,1	   0,0211098	87,3
     41,9751	   0,0207355	87,5	   0,0212555	86,5
      41,977	   0,0208918	87,9	   0,0213188	85,9
      41,979	    0,020994	87,1	     0,02138	87,4
     41,9809	   0,0209714	88,5	   0,0214917	87,2
     41,9829	   0,0210495	86,0	   0,0214584	86,4
     41,9848	   0,0211165	85,9	    0,021483	87,3
     41,9868	   0,0210897	87,0	    0,021544	86,3
     41,9888	     0,02119	86,3	   0,0215545	87,0
     41,9907	   0,0212457	84,5	     0,02163	88,4
     41,9927	   0,0213355	88,9	   0,0217523	87,9
     41,9946	   0,0214494	87,1	   0,0218076	87,8
     41,9966	    0,021407	88,1	   0,0219119	88,1
     41,9985	   0,0214345	89,4	   0,0219217	88,1
     42,0005	   0,0215048	86,5	   0,0220027	86,2
     42,0024	   0,0215652	86,3	   0,0220696	87,5
     42,0044	   0,0215866	88,0	   0,0221631	87,0
     42,0064	   0,0216231	86,0	   0,0222493	86,3
     42,0083	   0,0218414	88,9	   0,0222834	89,8
     42,0103	   0,0219225	88,8	   0,0222803	88,4
     42,0122	   0,0219746	87,8	   0,0223361	87,3
     42,0142	   0,0219478	88,5	   0,0223975	88,8
     42,0161	   0,0219817	88,6	   0,0224929	88,9
     42,0181	   0,0220823	87,6	   0,0225715	87,7
       42,02	   0,0221301	87,9	   0,0226697	89,1
      42,022	   0,0222122	88,0	    0,022768	88,9
     42,0239	   0,0222274	87,7	   0,0228347	86,6
     42,0259	   0,0222272	87,6	   0,0229198	88,4
     42,0279	   0,0222997	88,7	   0,0230066	88,3
     42,0298	   0,0223498	88,0	    0,023073	87,6
     42,0318	   0,0224713	87,7	   0,0232025	90,9
     42,0337	   0,0225752	90,8	   0,0232493	91,1
     42,0357	   0,0226838	91,0	    0,023343	89,3
     42,0376	     0,02277	88,5	   0,0233896	90,6
     42,0396	   0,0228221	89,6	   0,0234811	88,7
     42,0415	   0,0228291	88,6	   0,0234985	88,2
     42,0435	   0,0227869	88,5	   0,0236009	90,4
     42,0455	   0,0228495	89,7	   0,0236548	90,1
     42,0474	   0,0229691	89,6	   0,0237444	89,3
     42,0494	   0,0231007	89,7	    0,023795	91,1
     42,0513	   0,0231808	90,5	    0,023818	89,5
     42,0533	   0,0233595	90,0	   0,0240283	89,1
     42,0552	    0,023449	88,6	   0,0241362	89,8
     42,0572	   0,0235159	91,5	   0,0243343	91,3
     42,0591	    0,023581	92,3	   0,0242736	91,0
     42,0611	     0,02369	90,4	   0,0244078	90,2
      42,063	   0,0237017	90,5	   0,0243978	91,5
      42,065	    0,023754	88,7	   0,0244193	89,4
      42,067	   0,0237771	88,8	   0,0245126	89,5
     42,0689	   0,0237545	90,2	   0,0246177	91,5
     42,0709	   0,0238493	90,3	   0,0246509	91,1
     42,0728	   0,0239687	89,3	   0,0247529	92,2
     42,0748	   0,0241112	92,8	   0,0249239	91,8
     42,0767	    0,024166	91,9	     0,02498	92,7
     42,0787	    0,024284	92,1	   0,0250591	92,4
     42,0806	   0,0243921	91,6	   0,0252029	91,6
     42,0826	   0,0244981	90,5	   0,0253414	90,7
     42,0846	   0,0245414	91,0	     0,02542	90,7
     42,0865	   0,0245422	93,1	   0,0254681	92,6
     42,0885	   0,0246973	90,9	   0,0255366	93,1
     42,0904	   0,0247316	90,2	   0,0256375	91,4
     42,0924	   0,0248262	92,8	   0,0256091	91,6
     42,0943	   0,0249893	92,6	   0,0257379	93,7
     42,0963	   0,0251182	91,7	   0,0258372	92,2
     42,0982	   0,0251967	92,4	   0,0259639	94,4
     42,1002	   0,0252368	93,8	   0,0261038	93,7
     42,1021	    0,025267	91,5	    0,026231	92,7
     42,1041	   0,0253598	93,2	   0,0262837	92,7
     42,1061	   0,0254197	93,4	   0,0264036	93,6
      42,108	   0,0255279	91,7	   0,0264638	92,6
       42,11	   0,0255971	91,4	    0,026541	92,9
     42,1119	   0,0256005	94,3	   0,0265723	94,2
     42,1139	   0,0257174	91,8	   0,0266519	92,1
     42,1158	   0,0257957	92,2	   0,0267114	91,9
     42,1178	   0,0258673	95,4	   0,0268912	95,1
     42,1197	   0,0259936	95,2	   0,0269907	93,4
     42,1217	    0,026149	94,1	   0,0271183	94,8
     42,1237	   0,0261989	95,4	   0,0272376	95,2
     42,1256	   0,0262952	94,4	   0,0273832	94,4
     42,1276	   0,0263984	94,9	   0,0275208	94,0
     42,1295	   0,0265043	94,7	   0,0276249	95,4
     42,1315	   0,0264785	94,6	   0,0276978	95,8
     42,1334	   0,0266159	93,2	   0,0278068	96,0
     42,1354	   0,0267341	93,4	   0,0278993	94,6
     42,1373	   0,0268458	95,5	    0,028062	94,6
     42,1393	   0,0269457	94,0	   0,0281721	93,5
     42,1413	   0,0271666	96,1	   0,0283055	94,6
     42,1432	   0,0272652	97,3	   0,0284345	97,3
     42,1452	   0,0273819	94,6	   0,0285287	95,9
     42,1471	   0,0273917	95,0	   0,0286472	96,6
     42,1491	   0,0274605	97,1	   0,0288098	98,0
      42,151	   0,0275045	96,2	    0,028934	96,5
      42,153	   0,0276264	95,7	   0,0290084	97,7
     42,1549	    0,027772	96,9	    0,029133	98,1
     42,1569	    0,027853	95,6	   0,0291679	98,3
     42,1588	   0,0279808	94,9	    0,029303	96,6
     42,1608	   0,0281635	97,7	   0,0293799	96,7
     42,1628	   0,0282332	97,4	   0,0295168	97,3
     42,1647	   0,0284643	96,7	   0,0296108	96,8
     42,1667	   0,0285037	96,2	   0,0296222	96,3
     42,1686	   0,0285976	98,5	   0,0298008	98,9
     42,1706	   0,0286338	98,2	   0,0299456	98,7
     42,1725	   0,0287076	98,3	   0,0300968	97,9
     42,1745	   0,0287625	99,0	   0,0302697	98,1
     42,1764	   0,0288691	96,0	   0,0304261	99,8
     42,1784	   0,0289995	97,4	   0,0306262	98,5
     42,1804	   0,0291096	98,7	   0,0306944	99,7
     42,1823	   0,0292428	98,1	   0,0308864	101,2
     42,1843	   0,0292964	98,4	   0,0310228	100,1
     42,1862	   0,0294724	99,0	   0,0311619	99,4
     42,1882	   0,0296666	99,3	   0,0312883	100,4
     42,1901	   0,0297303	98,2	   0,0313808	98,8
     42,1921	   0,0298526	101,6	   0,0314671	99,0
      42,194	    0,029967	100,9	    0,031622	101,4
      42,196	   0,0301707	98,8	    0,031716	100,9
     42,1979	   0,0302987	99,9	    0,031913	100,6
     42,1999	   0,0304397	100,4	   0,0320156	101,3
     42,2019	   0,0305465	100,2	   0,0321817	101,6
     42,2038	   0,0306504	100,0	   0,0323566	101,4
     42,2058	    0,030796	101,3	   0,0325552	103,6
     42,2077	   0,0308944	101,6	   0,0327337	103,8
     42,2097	   0,0309775	99,3	   0,0328965	103,9
     42,2116	   0,0310862	100,5	   0,0330501	102,1
     42,2136	   0,0312696	101,7	   0,0332271	103,3
     42,2155	   0,0314062	100,4	   0,0333321	103,0
     42,2175	   0,0315472	102,8	   0,0334438	102,8
     42,2195	   0,0317007	102,8	   0,0336268	104,3
     42,2214	   0,0317639	103,1	   0,0337486	104,4
     42,2234	   0,0318698	102,4	    0,033829	102,6
     42,2253	   0,0319563	103,4	   0,0340068	101,8
     42,2273	   0,0320948	104,2	    0,034237	104,5
     42,2292	   0,0321809	102,6	   0,0343504	104,1
     42,2312	   0,0323248	103,5	   0,0345716	103,8
     42,2331	   0,0325007	104,2	   0,0346649	104,7
     42,2351	    0,032692	103,4	   0,0348249	108,2
      42,237	   0,0328809	104,6	   0,0350054	106,6
      42,239	   0,0330531	104,5	    0,035137	106,4
      42,241	   0,0332496	103,6	   0,0352959	106,5
     42,2429	   0,0333262	103,0	   0,0355257	107,4
     42,2449	   0,0333814	104,6	   0,0356528	106,9
     42,2468	   0,0335184	106,3	    0,035875	107,6
     42,2488	   0,0336952	105,3	   0,0360566	107,9
     42,2507	   0,0338754	106,9	   0,0363307	106,6
     42,2527	   0,0340012	106,7	   0,0364802	106,7
     42,2546	   0,0341311	106,9	   0,0365976	109,0
     42,2566	   0,0342916	105,9	   0,0367705	109,3
     42,2586	   0,0343837	108,3	   0,0369369	108,8
     42,2605	   0,0345252	107,1	   0,0370429	109,8
     42,2625	   0,0346749	106,9	   0,0372651	110,9
     42,2644	   0,0348485	108,3	   0,0374129	109,8
     42,2664	   0,0350153	108,4	   0,0375254	108,8
     42,2683	   0,0351761	108,3	   0,0377804	112,2
     42,2703	   0,0353559	108,3	   0,0379531	112,4
     42,2722	   0,0354581	108,6	   0,0381493	111,2
     42,2742	   0,0355852	109,3	   0,0382734	110,7
     42,2761	   0,0357236	107,7	   0,0384586	114,1
     42,2781	   0,0358415	111,1	    0,038589	113,8
     42,2801	     0,03589	110,6	   0,0387767	112,4
      42,282	   0,0360582	109,6	    0,038858	114,0
      42,284	   0,0362666	110,7	    0,039063	113,6
     42,2859	    0,036406	113,3	   0,0392649	113,2
     42,2879	   0,0365244	112,0	     0,03942	114,3
     42,2898	   0,0367119	110,9	    0,039529	115,4
     42,2918	   0,0368222	112,5	   0,0397051	113,2
     42,2937	   0,0370166	113,4	   0,0398976	112,9
     42,2957	   0,0372165	113,2	   0,0401229	115,9
     42,2977	   0,0373445	112,2	   0,0403015	115,8
     42,2996	   0,0374469	113,7	   0,0404781	114,3
     42,3016	   0,0377046	113,3	   0,0406131	115,5
     42,3035	   0,0379195	112,8	   0,0408856	117,4
     42,3055	   0,0380964	114,2	   0,0409972	117,3
     42,3074	   0,0383121	114,9	   0,0411605	118,2
     42,3094	   0,0385024	112,9	   0,0412934	118,5
     42,3113	   0,0386924	116,1	    0,041503	118,8
     42,3133	   0,0388511	116,5	   0,0416289	118,1
     42,3153	   0,0390399	115,8	    0,041801	120,6
     42,3172	   0,0393109	115,2	   0,0418944	122,1
     42,3192	   0,0393909	116,2	    0,042132	120,3
     42,3211	   0,0396816	117,8	   0,0423399	119,9
     42,3231	   0,0397935	118,1	    0,042478	120,1
      42,325	   0,0399893	119,3	   0,0425499	123,2
      42,327	    0,040162	119,8	   0,0427146	122,8
     42,3289	   0,0403623	118,5	   0,0429157	121,0
     42,3309	   0,0405314	119,6	   0,0430065	122,9
     42,3328	   0,0407007	120,5	   0,0431704	123,0
     42,3348	   0,0408701	122,1	   0,0433316	124,0
     42,3368	   0,0410808	119,6	   0,0435132	122,6
     42,3387	   0,0411727	119,0	   0,0436298	124,6
     42,3407	   0,0412838	122,0	   0,0438366	123,5
     42,3426	   0,0414611	122,0	   0,0439793	123,6
     42,3446	   0,0416039	120,6	   0,0441353	126,5
     42,3465	   0,0417609	122,1	   0,0442811	126,5
     42,3485	   0,0420031	122,3	   0,0444221	125,4
     42,3504	   0,0421182	122,4	   0,0444963	126,3
     42,3524	   0,0422348	122,6	   0,0446778	129,6
     42,3544	   0,0424098	124,4	   0,0447816	128,3
     42,3563	   0,0426024	124,5	   0,0448568	128,3
     42,3583	   0,0427362	124,4	   0,0450484	129,4
     42,3602	    0,042893	124,8	   0,0451753	128,9
     42,3622	   0,0430193	127,4	   0,0452805	129,7
     42,3641	   0,0430766	127,0	   0,0453301	129,7
     42,3661	   0,0432672	127,2	   0,0455095	131,8
      42,368	   0,0434554	126,7	   0,0455701	132,4
       42,37	   0,0436001	128,5	   0,0457598	130,8
     42,3719	    0,043773	129,1	   0,0458767	131,1
     42,3739	   0,0438359	128,7	   0,0460303	133,4
     42,3759	   0,0438975	129,5	   0,0461616	133,7
     42,3778	   0,0440096	128,5	   0,0462887	132,0
     42,3798	    0,044159	129,2	   0,0463645	133,0
     42,3817	   0,0442994	130,3	   0,0464565	134,1
     42,3837	    0,044498	131,4	   0,0464735	135,2
     42,3856	   0,0446693	130,1	   0,0466238	135,4
     42,3876	   0,0447923	129,4	   0,0466986	134,0
     42,3895	   0,0449333	132,6	   0,0468493	135,9
     42,3915	   0,0450153	133,3	   0,0468921	135,9
     42,3935	   0,0450819	132,0	   0,0469517	136,4
     42,3954	   0,0452146	131,7	   0,0470465	136,3
     42,3974	   0,0453422	132,4	   0,0470652	137,5
     42,3993	   0,0454902	134,5	   0,0471104	135,9
     42,4013	   0,0456576	133,2	   0,0471689	136,5
     42,4032	   0,0457998	135,1	   0,0472216	139,1
     42,4052	   0,0458121	136,5	   0,0473082	138,0
     42,4071	   0,0458525	136,5	   0,0473144	138,2
     42,4091	   0,0460168	135,1	   0,0474133	138,5
      42,411	   0,0461038	135,6	   0,0474934	141,0
      42,413	   0,0462281	139,1	     0,04759	141,1
      42,415	   0,0463454	138,2	   0,0475732	141,0
     42,4169	   0,0463917	137,8	   0,0476282	140,7
     42,4189	   0,0464308	138,7	   0,0476052	145,0
     42,4208	   0,0465362	140,7	   0,0476768	143,6
     42,4228	   0,0466195	140,8	   0,0477007	142,4
     42,4247	   0,0468262	139,6	   0,0477558	142,7
     42,4267	   0,0468895	140,0	   0,0477587	145,9
     42,4286	       0,047	142,1	    0,047782	144,9
     42,4306	   0,0470459	140,7	   0,0478574	145,0
     42,4326	   0,0471037	141,3	   0,0478133	145,6
     42,4345	   0,0472459	143,8	   0,0477599	147,1
     42,4365	   0,0472396	143,5	   0,0477168	147,1
     42,4384	   0,0472479	142,3	   0,0478352	145,7
     42,4404	    0,047315	143,6	   0,0479627	146,3
     42,4423	    0,047403	144,1	   0,0479925	146,9
     42,4443	   0,0474501	144,9	    0,048015	148,9
     42,4462	   0,0474691	145,4	   0,0480466	147,3
     42,4482	    0,047536	144,9	   0,0479784	149,3
     42,4501	   0,0475604	146,1	   0,0478986	147,9
     42,4521	   0,0476045	146,7	   0,0478474	149,0
     42,4541	   0,0475869	146,0	   0,0478596	148,3
      42,456	   0,0476255	147,4	   0,0478804	150,2
      42,458	    0,047692	148,5	   0,0479162	148,7
     42,4599	   0,0476971	146,8	   0,0479044	150,3
     42,4619	   0,0477622	147,7	    0,047926	150,2
     42,4638	   0,0477123	148,6	   0,0479293	151,2
     42,4658	   0,0476633	149,2	   0,0479244	151,8
     42,4677	   0,0476276	149,5	   0,0478546	150,9
     42,4697	   0,0476635	148,7	   0,0478291	151,0
     42,4717	   0,0477399	151,6	   0,0477828	153,2
     42,4736	   0,0477712	151,9	   0,0477797	154,0
     42,4756	   0,0478704	151,5	   0,0478018	152,2
     42,4775	    0,047949	151,5	   0,0477063	152,8
     42,4795	   0,0478947	154,1	   0,0476019	153,3
     42,4814	   0,0478734	154,1	    0,047641	155,0
     42,4834	   0,0478737	153,6	   0,0476354	154,9
     42,4853	     0,04785	153,1	   0,0476026	155,3
     42,4873	   0,0477626	156,9	   0,0475429	155,2
     42,4892	   0,0478028	156,6	   0,0474926	156,5
     42,4912	   0,0478116	155,5	   0,0474348	157,6
     42,4932	   0,0478096	155,3	   0,0473772	157,7
     42,4951	   0,0478308	158,3	   0,0474548	157,4
     42,4971	   0,0477538	158,8	   0,0473899	158,0
      42,499	   0,0477097	157,0	   0,0473192	157,4
      42,501	   0,0476742	156,5	   0,0472932	160,5
     42,5029	   0,0475585	159,0	   0,0473232	159,9
     42,5049	   0,0475569	159,7	   0,0471901	160,2
     42,5068	   0,0475327	158,1	    0,047156	159,5
     42,5088	   0,0474814	158,5	   0,0470829	161,0
     42,5108	   0,0474199	160,4	   0,0470058	162,3
     42,5127	   0,0474124	162,4	   0,0469286	161,8
     42,5147	    0,047402	159,7	   0,0468765	161,5
     42,5166	   0,0474432	159,3	   0,0469017	162,9
     42,5186	   0,0473596	162,3	   0,0468274	163,2
     42,5205	   0,0473534	163,4	    0,046753	162,6
     42,5225	   0,0472823	160,1	   0,0466723	162,2
     42,5244	   0,0471551	161,1	   0,0465917	162,6
     42,5264	   0,0470956	162,5	   0,0465507	165,5
     42,5283	   0,0470905	164,8	   0,0464717	166,3
     42,5303	   0,0470449	161,7	   0,0463337	163,7
     42,5323	    0,046928	163,0	   0,0462362	163,4
     42,5342	   0,0469673	165,0	   0,0460811	166,2
     42,5362	   0,0468525	165,3	    0,046096	166,5
     42,5381	    0,046762	162,5	   0,0459696	165,4
     42,5401	   0,0467433	163,1	   0,0459427	165,5
      42,542	   0,0466764	163,8	   0,0458814	167,8
      42,544	   0,0466679	166,2	   0,0458681	168,4
     42,5459	   0,0465425	166,3	     0,04582	166,7
     42,5479	   0,0464905	164,3	   0,0457232	167,4
     42,5499	   0,0464535	167,6	   0,0456357	168,7
     42,5518	   0,0463688	167,4	   0,0456197	169,4
     42,5538	   0,0462669	165,7	   0,0455613	168,5
     42,5557	   0,0462433	166,1	   0,0454297	168,2
     42,5577	   0,0460492	167,2	   0,0453759	169,6
     42,5596	   0,0459421	168,3	   0,0453419	170,4
     42,5616	   0,0459254	167,8	   0,0452008	169,5
     42,5635	   0,0458065	168,0	   0,0449957	170,0
     42,5655	   0,0457481	167,7	    0,044874	170,8
     42,5674	   0,0456282	169,2	   0,0448126	172,3
     42,5694	   0,0455339	171,5	   0,0446178	170,7
     42,5714	   0,0455415	167,9	   0,0445532	170,8
     42,5733	   0,0454486	169,5	   0,0444882	171,4
     42,5753	   0,0453468	170,9	   0,0444767	173,1
     42,5772	   0,0453665	172,3	   0,0444381	171,8
     42,5792	   0,0452604	169,8	   0,0443369	172,6
     42,5811	   0,0451046	170,4	   0,0442323	172,0
     42,5831	   0,0450318	173,7	   0,0441565	174,3
      42,585	   0,0449451	172,4	   0,0441274	174,8
      42,587	   0,0448151	172,9	   0,0439217	172,9
      42,589	    0,044731	172,5	   0,0438775	173,0
     42,5909	   0,0446652	173,1	   0,0438525	173,3
     42,5929	   0,0445369	174,4	   0,0437172	175,5
     42,5948	   0,0444277	174,3	   0,0436191	174,9
     42,5968	    0,044273	173,2	   0,0435724	176,0
     42,5987	   0,0442658	174,0	   0,0434632	174,8
     42,6007	   0,0441348	174,8	   0,0433687	177,1
     42,6026	   0,0439796	175,3	   0,0432103	176,2
     42,6046	   0,0438638	174,1	    0,043169	176,6
     42,6065	   0,0437939	173,8	   0,0430643	176,9
     42,6085	   0,0437408	176,6	   0,0429948	177,5
     42,6105	   0,0437282	176,5	   0,0428725	176,3
     42,6124	   0,0436415	176,0	   0,0427505	177,6
     42,6144	   0,0434613	175,2	   0,0426419	176,5
     42,6163	   0,0434272	177,6	   0,0425552	177,5
     42,6183	   0,0432759	178,3	   0,0424656	178,3
     42,6202	   0,0431562	178,5	   0,0424002	178,5
     42,6222	   0,0430553	176,2	   0,0422212	177,1
     42,6241	   0,0429118	177,4	   0,0421658	177,3
     42,6261	   0,0427716	179,5	   0,0420226	179,6
     42,6281	   0,0427078	179,6	   0,0420324	180,4
       42,63	   0,0425842	177,7	   0,0419236	178,9
      42,632	   0,0425832	177,5	   0,0419154	179,2
     42,6339	   0,0424023	180,0	   0,0418112	179,5
     42,6359	    0,042266	180,0	   0,0417062	180,6
     42,6378	   0,0421006	179,4	     0,04163	182,0
     42,6398	   0,0420133	180,2	   0,0414644	180,1
     42,6417	   0,0419617	181,0	   0,0412779	180,4
     42,6437	   0,0418581	181,6	   0,0411259	182,4
     42,6456	   0,0416984	180,5	   0,0410392	182,7
     42,6476	   0,0416397	181,2	    0,040905	180,8
     42,6496	   0,0415605	181,0	   0,0408369	181,8
     42,6515	   0,0414136	182,9	   0,0407123	183,7
     42,6535	   0,0413374	182,3	   0,0406197	184,1
     42,6554	   0,0412003	182,1	   0,0405522	182,5
     42,6574	   0,0410899	182,4	   0,0404321	182,8
     42,6593	    0,040958	182,2	   0,0403244	184,1
     42,6613	   0,0409328	183,3	   0,0402246	184,1
     42,6632	   0,0407979	182,9	   0,0401441	184,3
     42,6652	   0,0407311	182,0	   0,0400137	183,9
     42,6672	   0,0406207	182,5	   0,0398494	184,2
     42,6691	   0,0404623	184,4	   0,0398203	184,1
     42,6711	   0,0403235	184,8	   0,0396593	186,0
      42,673	    0,040194	183,2	   0,0395685	185,2
      42,675	   0,0400634	183,8	   0,0394659	185,1
     42,6769	   0,0399592	185,5	    0,039327	183,7
     42,6789	    0,039911	186,7	   0,0391979	186,4
     42,6808	   0,0397649	184,7	   0,0391498	186,4
     42,6828	   0,0396437	185,6	   0,0390438	185,4
     42,6847	    0,039513	185,9	   0,0390073	184,8
     42,6867	    0,039411	187,6	   0,0388615	188,9
     42,6887	     0,03933	188,4	   0,0387939	187,9
     42,6906	     0,03923	186,8	   0,0386905	187,6
     42,6926	   0,0391714	187,3	   0,0386185	185,5
     42,6945	   0,0390376	188,1	   0,0384613	187,0
     42,6965	   0,0389181	187,6	   0,0383917	186,5
     42,6984	    0,038764	189,6	   0,0382262	189,2
     42,7004	    0,038657	188,3	   0,0381113	187,6
     42,7023	   0,0384991	188,5	   0,0379327	187,1
     42,7043	   0,0384439	190,1	   0,0378544	186,8
     42,7063	   0,0382346	189,9	   0,0377703	189,5
     42,7082	    0,038075	190,5	   0,0377417	189,6
     42,7102	   0,0379608	189,0	   0,0375989	187,9
     42,7121	   0,0379466	189,6	   0,0375158	188,1
     42,7141	   0,0378455	191,6	   0,0373757	190,4
      42,716	   0,0377448	191,9	   0,0373321	190,2
      42,718	   0,0376411	190,8	   0,0371287	189,0
     42,7199	   0,0374614	190,2	   0,0371028	187,9
     42,7219	   0,0374655	190,7	   0,0369233	190,7
     42,7239	   0,0373318	192,7	   0,0368183	189,8
     42,7258	   0,0372676	192,8	   0,0366977	190,4
     42,7278	   0,0370978	191,5	   0,0365605	189,7
     42,7297	   0,0370443	190,3	   0,0365726	190,5
     42,7317	   0,0368878	193,6	   0,0364718	189,9
     42,7336	   0,0367917	193,2	   0,0363907	191,1
     42,7356	    0,036745	193,6	   0,0363325	190,7
     42,7375	   0,0366373	192,8	   0,0361273	191,7
     42,7395	   0,0365692	191,0	   0,0359985	191,1
     42,7414	   0,0364055	194,2	   0,0358788	191,4
     42,7434	   0,0363237	194,0	    0,035777	192,7
     42,7454	   0,0361803	193,5	   0,0356701	192,2
     42,7473	   0,0360418	192,3	   0,0355415	191,9
     42,7493	   0,0358934	194,5	   0,0354273	191,5
     42,7512	   0,0357414	193,9	   0,0353731	194,1
     42,7532	   0,0356109	193,6	   0,0352145	195,4
     42,7551	   0,0355173	192,7	   0,0350695	194,1
     42,7571	    0,035381	193,0	   0,0349904	194,4
      42,759	   0,0352924	194,2	   0,0349029	194,4
      42,761	   0,0351887	194,1	   0,0348331	193,8
      42,763	    0,035075	194,1	   0,0347371	195,7
     42,7649	   0,0349848	194,5	   0,0346214	195,3
     42,7669	   0,0348241	194,2	   0,0344985	193,2
     42,7688	   0,0347333	195,2	    0,034341	193,3
     42,7708	   0,0345685	195,1	   0,0342331	197,3
     42,7727	   0,0345374	195,3	   0,0340805	197,1
     42,7747	   0,0344707	195,1	   0,0341082	195,9
     42,7766	   0,0343384	194,5	   0,0340824	195,3
     42,7786	   0,0342503	197,3	   0,0338938	196,7
     42,7805	   0,0341976	197,9	   0,0338291	196,5
     42,7825	   0,0340434	195,0	   0,0337017	197,3
     42,7845	   0,0339782	196,7	   0,0336184	195,5
     42,7864	   0,0338563	197,3	   0,0335351	194,7
     42,7884	   0,0337045	198,5	   0,0333337	194,9
     42,7903	   0,0335887	196,6	   0,0333441	196,0
     42,7923	   0,0334889	197,2	   0,0332361	196,7
     42,7942	   0,0333724	198,2	   0,0332106	197,2
     42,7962	   0,0332842	199,2	   0,0330215	195,9
     42,7981	   0,0331873	199,0	   0,0329207	196,6
     42,8001	   0,0331686	-159,9	   0,0328431	197,8
     42,8021	   0,0330865	-161,3	   0,0327663	197,9
      42,804	   0,0329759	-160,9	    0,032569	197,3
      42,806	   0,0328352	-160,8	   0,0324505	198,5
     42,8079	    0,032735	-161,2	   0,0324018	197,9
     42,8099	   0,0326028	-159,1	   0,0323165	199,2
     42,8118	   0,0324676	-159,9	   0,0322711	199,7
     42,8138	   0,0323786	-162,6	   0,0322178	199,9
     42,8157	   0,0323644	-158,3	   0,0320401	198,3
     42,8177	   0,0322404	-159,1	    0,031839	198,9
     42,8196	   0,0321914	-159,5	   0,0317165	-159,3
     42,8216	   0,0320609	-161,4	   0,0316083	-158,9
     42,8236	   0,0320419	-162,3	   0,0315476	-159,0
     42,8255	   0,0318913	-159,7	   0,0315195	-159,8
     42,8275	   0,0317835	-159,0	   0,0313888	-160,6
     42,8294	   0,0316149	-160,4	   0,0313118	-160,1
     42,8314	   0,0315427	-159,9	   0,0312165	-158,9
     42,8333	   0,0313923	-160,6	   0,0311644	-158,6
     42,8353	   0,0313359	-160,0	   0,0310953	-160,9
     42,8372	   0,0312221	-158,4	   0,0310102	-161,1
     42,8392	   0,0310775	-158,0	   0,0308132	-157,7
     42,8412	   0,0310206	-161,1	   0,0306961	-158,3
     42,8431	   0,0310009	-159,5	   0,0305903	-158,8
     42,8451	   0,0309389	-158,4	   0,0305537	-159,8
      42,847	   0,0307875	-157,2	   0,0304671	-159,9
      42,849	   0,0307276	-158,5	   0,0304113	-159,0
     42,8509	   0,0306366	-157,4	   0,0303301	-157,6
     42,8529	   0,0304966	-157,6	   0,0302388	-158,0
     42,8548	   0,0303609	-157,7	   0,0301385	-158,6
     42,8568	   0,0302442	-156,1	   0,0300179	-157,7
     42,8587	   0,0301135	-154,1	   0,0298647	-158,9
     42,8607	   0,0300257	-157,2	   0,0298474	-158,0
     42,8627	   0,0299058	-155,8	   0,0297364	-156,3
     42,8646	   0,0298397	-156,2	   0,0296661	-154,7
     42,8666	   0,0297864	-156,3	   0,0295888	-157,1
     42,8685	   0,0296601	-156,2	   0,0295029	-157,6
     42,8705	    0,029629	-156,1	   0,0293714	-155,6
     42,8724	   0,0295152	-156,2	    0,029312	-155,2
     42,8744	   0,0294556	-157,2	   0,0291855	-155,5
     42,8763	   0,0293826	-157,3	   0,0291209	-157,1
     42,8783	   0,0293295	-155,5	   0,0290332	-157,0
     42,8803	   0,0291782	-155,5	   0,0290245	-157,5
     42,8822	    0,029124	-156,9	   0,0288822	-156,2
     42,8842	   0,0290304	-157,1	   0,0287955	-155,8
     42,8861	   0,0289129	-155,6	    0,028723	-155,7
     42,8881	   0,0288332	-154,5	    0,028676	-157,4
       42,89	    0,028659	-154,6	   0,0286054	-157,1
      42,892	   0,0285255	-154,8	    0,028503	-156,4
     42,8939	   0,0284647	-155,7	   0,0283764	-155,2
     42,8959	   0,0284083	-154,7	   0,0282475	-155,8
     42,8979	   0,0283046	-153,0	   0,0281036	-153,9
     42,8998	    0,028232	-152,9	   0,0279955	-156,6
     42,9018	   0,0281154	-155,4	   0,0278556	-155,8
     42,9037	   0,0281113	-153,3	    0,027833	-153,2
     42,9057	   0,0279913	-152,9	   0,0277835	-152,2
     42,9076	   0,0279304	-153,2	   0,0277393	-154,0
     42,9096	   0,0278072	-152,1	   0,0277337	-153,9
     42,9115	   0,0277567	-152,2	   0,0276074	-154,1
     42,9135	   0,0276572	-152,8	    0,027596	-154,5
     42,9154	   0,0274937	-154,3	   0,0274781	-152,5
     42,9174	   0,0275014	-154,7	   0,0273325	-154,4
     42,9194	   0,0273756	-153,1	   0,0272571	-154,7
     42,9213	   0,0273031	-152,3	   0,0272087	-155,3
     42,9233	   0,0272403	-153,3	   0,0270232	-154,4
     42,9252	   0,0271063	-153,7	   0,0269893	-154,2
     42,9272	   0,0270002	-154,8	   0,0268484	-152,9
     42,9291	    0,026896	-152,6	   0,0268191	-153,7
     42,9311	   0,0268331	-151,5	   0,0267174	-152,3
      42,933	   0,0267475	-152,0	   0,0266337	-153,9
      42,935	   0,0266944	-153,5	    0,026657	-152,3
      42,937	   0,0266564	-152,7	   0,0265581	-151,9
     42,9389	   0,0265371	-151,8	   0,0264749	-153,8
     42,9409	   0,0264604	-150,7	    0,026343	-151,5
     42,9428	   0,0263158	-150,0	   0,0261912	-153,0
     42,9448	   0,0262071	-150,7	   0,0261073	-151,6
     42,9467	   0,0261308	-150,9	   0,0261701	-153,0
     42,9487	   0,0261044	-152,4	   0,0260736	-150,5
     42,9506	   0,0260573	-151,3	   0,0259889	-151,4
     42,9526	   0,0259984	-150,7	   0,0258562	-151,7
     42,9545	   0,0259444	-151,1	   0,0257811	-152,8
     42,9565	   0,0258436	-151,9	    0,025801	-151,9
     42,9585	   0,0257384	-151,8	   0,0256772	-153,0
     42,9604	   0,0257147	-152,1	   0,0255689	-151,2
     42,9624	   0,0256094	-150,2	   0,0254901	-150,4
     42,9643	   0,0255368	-150,3	   0,0254142	-152,6
     42,9663	   0,0254743	-150,9	    0,025388	-150,6
     42,9682	   0,0253934	-149,7	   0,0253562	-150,8
     42,9702	    0,025257	-149,1	   0,0252055	-150,1
     42,9721	   0,0251341	-150,2	   0,0250824	-149,7
     42,9741	   0,0251278	-149,4	   0,0250242	-148,2
     42,9761	   0,0249861	-148,7	   0,0249602	-150,9
      42,978	    0,024877	-147,1	   0,0249058	-150,1
       42,98	    0,024812	-149,6	   0,0247539	-148,9
     42,9819	   0,0247763	-151,2	   0,0247141	-148,9
     42,9839	   0,0247483	-148,9	   0,0246626	-150,1
     42,9858	    0,024685	-148,8	   0,0245276	-149,8
     42,9878	   0,0246177	-149,0	   0,0244496	-150,9
     42,9897	   0,0245348	-149,4	   0,0244005	-150,4
     42,9917	   0,0244925	-149,9	   0,0243534	-150,6
     42,9936	    0,024423	-150,1	   0,0242919	-150,5
     42,9956	   0,0243208	-150,5	   0,0242354	-148,5
     42,9976	   0,0242223	-148,2	   0,0241635	-148,6
     42,9995	   0,0241615	-145,9	   0,0241269	-149,6
     43,0015	   0,0241003	-148,4	    0,023943	-148,8
     43,0034	   0,0240298	-148,4	   0,0238649	-148,7
     43,0054	   0,0238675	-148,0	   0,0237602	-149,0
     43,0073	   0,0238398	-147,1	   0,0237112	-147,2
     43,0093	   0,0237561	-147,0	    0,023705	-147,2
     43,0112	   0,0236975	-146,3	   0,0236687	-149,3
     43,0132	   0,0235972	-148,1	   0,0236636	-150,5
     43,0152	   0,0235769	-149,5	   0,0235029	-148,7
     43,0171	   0,0235259	-149,0	   0,0234442	-150,3
     43,0191	   0,0234918	-148,7	   0,0233555	-149,0
      43,021	   0,0233955	-146,8	   0,0232415	-148,3
      43,023	    0,023266	-146,9	   0,0231797	-147,3
     43,0249	   0,0231869	-149,2	   0,0231395	-148,7
     43,0269	   0,0231394	-147,3	   0,0230926	-148,2
     43,0288	   0,0230454	-148,4	   0,0229675	-146,3
     43,0308	   0,0230095	-147,1	   0,0228842	-146,3
     43,0327	   0,0229606	-146,5	   0,0228479	-145,5
     43,0347	   0,0229149	-145,4	   0,0228106	-147,0
     43,0367	   0,0228299	-144,0	   0,0227371	-147,5
     43,0386	   0,0228325	-146,2	   0,0226673	-148,0
     43,0406	   0,0227189	-147,1	   0,0226105	-149,7
     43,0425	   0,0226418	-146,6	   0,0225182	-148,6
     43,0445	     0,02259	-145,9	   0,0224921	-146,4
     43,0464	    0,022467	-144,6	   0,0225132	-146,8
     43,0484	    0,022398	-146,6	    0,022455	-146,3
     43,0503	   0,0223301	-147,6	   0,0224187	-148,5
     43,0523	    0,022287	-148,3	   0,0222743	-146,2
     43,0543	   0,0222515	-145,7	    0,022151	-146,0
     43,0562	   0,0221488	-144,9	   0,0220667	-145,5
     43,0582	   0,0220754	-145,7	   0,0220169	-146,2
     43,0601	   0,0219963	-143,7	   0,0220245	-145,8
     43,0621	   0,0219693	-145,7	   0,0219428	-146,0
      43,064	   0,0219248	-146,1	   0,0218784	-146,9
      43,066	   0,0218446	-145,9	   0,0218117	-144,6
     43,0679	   0,0218384	-145,5	   0,0217836	-145,0
     43,0699	   0,0217247	-142,9	   0,0217467	-146,2
     43,0718	   0,0216086	-144,5	   0,0216569	-146,4
     43,0738	   0,0216043	-146,7	    0,021599	-145,5
     43,0758	    0,021529	-147,2	   0,0215588	-147,0
     43,0777	   0,0214797	-146,3	    0,021466	-146,2
     43,0797	   0,0214262	-146,9	   0,0213537	-144,7
     43,0816	   0,0214142	-144,4	   0,0212643	-143,5
     43,0836	   0,0213099	-143,2	   0,0211998	-143,6
     43,0855	   0,0212103	-142,8	   0,0211391	-145,4
     43,0875	   0,0211597	-144,8	   0,0210632	-145,3
     43,0894	   0,0211349	-143,6	   0,0210335	-145,7
     43,0914	   0,0209646	-144,9	   0,0209452	-146,1
     43,0934	   0,0209013	-144,0	   0,0209486	-144,1
     43,0953	   0,0208241	-143,2	    0,020855	-144,1
     43,0973	   0,0209312	-143,4	   0,0208019	-145,4
     43,0992	   0,0208034	-143,9	   0,0207959	-145,5
     43,1012	     0,02064	-146,6	   0,0207443	-144,1
     43,1031	   0,0205622	-146,8	   0,0206524	-145,4
     43,1051	   0,0205495	-146,1	   0,0205951	-145,0
      43,107	   0,0205761	-143,7	   0,0205593	-142,3
      43,109	   0,0205388	-143,6	    0,020426	-143,0
     43,1109	   0,0204437	-143,8	   0,0203451	-143,7
     43,1129	   0,0204112	-143,9	   0,0202845	-145,1
     43,1149	   0,0203385	-143,5	   0,0203159	-145,3
     43,1168	   0,0203257	-144,1	   0,0202235	-144,1
     43,1188	   0,0202943	-143,7	   0,0202588	-144,3
     43,1207	   0,0201512	-142,3	   0,0201657	-143,6
     43,1227	   0,0201057	-142,9	   0,0201078	-143,7
     43,1246	   0,0200259	-143,5	   0,0200234	-142,2
     43,1266	   0,0199212	-142,7	   0,0198862	-143,7
     43,1285	   0,0198773	-144,6	   0,0198996	-144,6
     43,1305	   0,0197898	-144,1	   0,0197937	-142,4
     43,1325	   0,0197564	-141,6	   0,0198532	-144,2
     43,1344	   0,0196936	-142,1	   0,0196908	-143,5
     43,1364	   0,0197212	-141,9	   0,0196266	-143,3
     43,1383	   0,0197188	-140,7	   0,0196193	-143,9
     43,1403	   0,0197011	-143,2	   0,0195713	-143,5
     43,1422	   0,0196379	-143,3	   0,0195312	-145,6
     43,1442	   0,0195041	-141,6	   0,0194674	-144,4
     43,1461	   0,0194277	-143,4	   0,0194649	-142,7
     43,1481	   0,0193794	-141,7	    0,019279	-142,0
       43,15	     0,01937	-142,4	   0,0191998	-141,3
      43,152	   0,0193292	-144,3	   0,0192527	-142,0
      43,154	   0,0192509	-142,8	   0,0192241	-144,0
     43,1559	   0,0191918	-141,1	   0,0192011	-143,4
     43,1579	   0,0190557	-142,1	   0,0191632	-142,0
     43,1598	   0,0190201	-142,0	   0,0190866	-142,4
     43,1618	   0,0190488	-141,2	   0,0189837	-142,8
     43,1637	   0,0188619	-139,9	   0,0190055	-141,3
     43,1657	   0,0188463	-141,9	   0,0189624	-140,5
     43,1676	   0,0188173	-142,7	   0,0188262	-142,9
     43,1696	   0,0188278	-144,0	   0,0187734	-142,7
     43,1716	    0,018802	-142,8	   0,0187583	-141,6
     43,1735	    0,018701	-142,1	   0,0187587	-140,8
     43,1755	    0,018591	-141,3	   0,0186786	-142,2
     43,1774	   0,0186023	-139,6	   0,0185679	-141,6
     43,1794	   0,0184649	-139,2	   0,0184606	-141,7
     43,1813	   0,0184395	-141,3	   0,0185078	-142,4
     43,1833	   0,0184681	-141,3	   0,0183968	-142,4
     43,1852	   0,0183984	-141,2	   0,0184818	-142,6
     43,1872	   0,0183406	-141,9	   0,0184074	-141,6
     43,1891	   0,0182835	-140,3	   0,0183604	-139,7
     43,1911	   0,0183269	-141,3	    0,018278	-140,6
     43,1931	   0,0182376	-140,5	   0,0181327	-140,8
      43,195	   0,0181814	-143,2	   0,0180723	-140,6
      43,197	   0,0181663	-141,9	   0,0180728	-141,7
     43,1989	   0,0180584	-141,4	   0,0180186	-142,7
     43,2009	   0,0179761	-138,0	   0,0179661	-141,9
     43,2028	   0,0178371	-141,4	   0,0179484	-141,7
     43,2048	   0,0178987	-139,7	   0,0179363	-140,4
     43,2067	   0,0178837	-139,9	   0,0178377	-140,1
     43,2087	   0,0178804	-141,1	   0,0178423	-141,4
     43,2107	   0,0178094	-141,6	   0,0177403	-140,3
     43,2126	   0,0176912	-142,0	    0,017697	-141,6
     43,2146	   0,0176046	-141,7	    0,017655	-141,4
     43,2165	   0,0176028	-140,9	     0,01765	-143,2
     43,2185	   0,0176007	-139,6	    0,017555	-140,3
     43,2204	   0,0175147	-138,0	   0,0174559	-141,4
     43,2224	   0,0173909	-139,2	   0,0175714	-139,7
     43,2243	    0,017315	-139,8	   0,0176031	-141,7
     43,2263	   0,0172734	-140,4	   0,0174518	-140,9
     43,2282	   0,0172472	-139,8	    0,017343	-141,3
     43,2302	    0,017291	-141,3	   0,0173381	-141,3
     43,2322	    0,017269	-139,6	   0,0172453	-138,9
     43,2341	   0,0172397	-139,6	   0,0172154	-140,5
     43,2361	   0,0172083	-140,2	   0,0172048	-138,3
      43,238	   0,0170743	-138,5	   0,0172354	-140,1
       43,24	   0,0170713	-138,5	   0,0170948	-140,9
     43,2419	    0,017045	-139,9	   0,0169913	-141,3
     43,2439	   0,0169779	-141,2	   0,0169532	-141,4
     43,2458	   0,0169191	-139,1	   0,0169073	-140,1
     43,2478	   0,0168846	-139,8	   0,0169001	-138,7
     43,2498	    0,016884	-138,6	   0,0168899	-139,0
     43,2517	   0,0167543	-140,6	   0,0168293	-138,6
     43,2537	   0,0166991	-140,9	   0,0167738	-139,1
     43,2556	   0,0166919	-141,1	    0,016749	-140,5
     43,2576	   0,0165843	-138,8	   0,0167327	-142,5
     43,2595	   0,0165629	-140,0	   0,0167667	-141,2
     43,2615	   0,0165316	-137,2	   0,0166181	-141,4
     43,2634	   0,0165169	-139,1	   0,0164773	-138,8
     43,2654	   0,0164623	-138,3	   0,0164879	-138,4
     43,2673	   0,0165335	-138,9	   0,0164322	-138,9
     43,2693	   0,0163943	-140,3	   0,0164786	-137,3
     43,2713	   0,0163752	-140,8	   0,0164858	-138,6
     43,2732	   0,0163805	-139,7	   0,0164836	-140,2
     43,2752	   0,0163546	-138,7	   0,0164314	-140,1
     43,2771	   0,0162222	-138,5	   0,0163625	-140,5
     43,2791	   0,0161485	-137,3	   0,0162463	-139,8
      43,281	   0,0160418	-137,6	   0,0162348	-138,8
      43,283	   0,0161104	-137,2	   0,0162024	-137,5
     43,2849	   0,0160863	-139,8	   0,0161095	-138,6
     43,2869	   0,0160869	-139,4	   0,0160178	-138,3
     43,2889	   0,0159022	-140,0	   0,0159636	-139,2
     43,2908	     0,01592	-139,3	     0,01597	-140,4
     43,2928	    0,015929	-138,0	   0,0160539	-140,1
     43,2947	   0,0159637	-138,0	   0,0159633	-140,3
     43,2967	   0,0158797	-136,1	   0,0158075	-139,5
     43,2986	   0,0157818	-136,9	   0,0157598	-135,5
     43,3006	   0,0156887	-138,0	    0,015728	-136,8
     43,3025	   0,0156395	-139,6	   0,0157262	-136,7
     43,3045	    0,015579	-140,6	   0,0156964	-138,2
     43,3064	   0,0157193	-140,0	   0,0156794	-139,4
     43,3084	   0,0157307	-139,1	   0,0157371	-140,3
     43,3104	   0,0156137	-135,9	   0,0156466	-138,8
     43,3123	   0,0154384	-135,8	   0,0156643	-138,5
     43,3143	   0,0154196	-136,7	   0,0155422	-138,4
     43,3162	    0,015358	-138,7	   0,0154456	-136,9
     43,3182	   0,0154445	-139,5	   0,0153419	-136,0
     43,3201	   0,0154484	-138,6	   0,0153736	-136,4
     43,3221	   0,0153725	-139,5	   0,0153517	-138,1
      43,324	   0,0153742	-138,7	   0,0153622	-139,1
      43,326	   0,0153815	-137,4	   0,0152942	-139,5
      43,328	   0,0151988	-136,2	   0,0152925	-138,4
     43,3299	   0,0150547	-135,6	   0,0152407	-138,7
     43,3319	    0,015023	-136,0	   0,0151857	-136,3
     43,3338	   0,0150258	-137,6	   0,0151224	-135,5
     43,3358	   0,0150309	-139,7	   0,0149483	-136,3
     43,3377	   0,0150849	-139,4	   0,0149947	-137,0
     43,3397	   0,0151395	-138,1	   0,0150516	-137,1
     43,3416	   0,0149889	-137,1	    0,015034	-139,6
     43,3436	   0,0148448	-135,8	    0,014987	-139,2
     43,3456	   0,0148216	-136,5	   0,0149829	-138,3
     43,3475	   0,0148777	-136,3	   0,0148596	-137,2
     43,3495	   0,0148881	-137,0	   0,0148381	-136,4
     43,3514	   0,0147902	-138,3	   0,0147693	-136,7
     43,3534	   0,0148445	-137,8	   0,0147768	-136,4
     43,3553	   0,0147526	-136,7	   0,0147387	-136,9
     43,3573	   0,0146876	-137,8	   0,0147008	-137,9
     43,3592	   0,0146898	-136,5	   0,0146225	-139,3
     43,3612	    0,014597	-134,7	   0,0146068	-137,0
     43,3631	    0,014556	-136,5	   0,0146766	-137,2
     43,3651	   0,0145047	-135,0	   0,0146438	-136,7
     43,3671	   0,0146255	-136,2	   0,0145431	-135,3
      43,369	   0,0146155	-137,2	   0,0144625	-135,8
      43,371	   0,0145649	-137,3	   0,0143831	-135,5
     43,3729	   0,0143901	-136,0	   0,0143435	-136,8
     43,3749	   0,0143224	-136,9	   0,0143677	-137,2
     43,3768	   0,0142965	-136,4	   0,0143298	-136,5
     43,3788	   0,0143144	-135,7	   0,0143743	-137,7
     43,3807	   0,0143295	-136,1	   0,0143261	-137,3
     43,3827	   0,0142022	-135,2	   0,0142618	-136,5
     43,3847	   0,0141614	-135,7	   0,0142423	-136,5
     43,3866	   0,0140911	-137,2	   0,0143046	-135,4
     43,3886	   0,0140798	-135,2	   0,0142658	-137,1
     43,3905	   0,0141096	-136,7	   0,0142081	-136,8
     43,3925	    0,014044	-136,6	   0,0140423	-135,8
     43,3944	    0,014007	-136,7	   0,0140045	-136,9
     43,3964	   0,0140037	-137,1	   0,0140115	-135,9
     43,3983	   0,0138568	-136,3	   0,0140316	-136,0
     43,4003	   0,0140027	-136,9	    0,014035	-137,0
     43,4022	   0,0140165	-136,2	   0,0139585	-136,8
     43,4042	   0,0138509	-134,0	    0,013928	-137,7
     43,4062	   0,0138199	-136,6	   0,0138363	-135,9
     43,4081	   0,0137733	-135,4	   0,0137488	-134,8
     43,4101	   0,0137761	-136,0	   0,0137829	-135,5
      43,412	   0,0138389	-136,5	   0,0137834	-134,6
      43,414	   0,0137377	-137,0	    0,013741	-136,5
     43,4159	   0,0136648	-136,7	   0,0137177	-137,8
     43,4179	   0,0135463	-136,1	   0,0135837	-137,4
     43,4198	   0,0136546	-134,2	   0,0135072	-136,8
     43,4218	    0,013607	-134,7	   0,0135848	-135,4
     43,4238	   0,0135162	-133,3	   0,0135666	-135,2
     43,4257	   0,0135155	-135,4	   0,0136349	-134,3
     43,4277	   0,0134842	-136,9	   0,0135965	-134,1
     43,4296	   0,0135469	-135,6	   0,0135386	-136,0
     43,4316	   0,0134455	-137,4	   0,0135067	-136,7
     43,4335	   0,0133525	-135,3	   0,0133824	-135,3
     43,4355	   0,0133782	-134,8	   0,0132931	-138,4
     43,4374	   0,0133403	-135,3	   0,0132684	-134,5
     43,4394	   0,0132621	-133,5	   0,0132815	-135,8
     43,4413	   0,0132206	-136,5	   0,0132364	-136,3
     43,4433	   0,0132119	-134,9	   0,0131578	-134,8
     43,4453	   0,0132438	-134,7	   0,0131736	-137,3
     43,4472	    0,013202	-134,9	   0,0131865	-135,6
     43,4492	   0,0131645	-134,3	   0,0132368	-134,1
     43,4511	   0,0130989	-134,7	   0,0131757	-134,0
     43,4531	   0,0130646	-135,3	    0,013111	-133,5
      43,455	       0,013	-136,6	   0,0130867	-134,6
      43,457	   0,0130876	-137,1	   0,0130791	-136,7
     43,4589	   0,0131762	-135,7	   0,0129954	-136,6
     43,4609	   0,0130401	-134,2	   0,0129321	-136,3
     43,4629	   0,0130216	-133,4	   0,0129682	-135,4
     43,4648	   0,0129452	-132,5	   0,0129629	-135,3
     43,4668	   0,0129196	-133,7	    0,012857	-134,4
     43,4687	   0,0129044	-134,4	   0,0128139	-134,6
     43,4707	   0,0128772	-135,5	   0,0128019	-133,1
     43,4726	   0,0128644	-133,9	   0,0128828	-135,4
     43,4746	     0,01271	-136,2	   0,0128657	-136,6
     43,4765	   0,0126868	-135,9	   0,0127618	-135,5
     43,4785	   0,0126827	-133,3	   0,0126742	-135,6
     43,4804	   0,0126331	-134,4	   0,0126341	-135,6
     43,4824	   0,0126849	-135,6	   0,0126049	-134,6
     43,4844	   0,0126154	-135,6	   0,0125302	-135,8
     43,4863	   0,0126601	-134,3	   0,0126457	-136,0
     43,4883	   0,0126603	-133,8	   0,0126334	-134,6
     43,4902	   0,0126257	-132,2	   0,0125864	-134,6
     43,4922	   0,0125282	-132,2	   0,0124573	-133,2
     43,4941	   0,0124818	-134,3	   0,0124307	-133,4
     43,4961	   0,0124557	-135,1	   0,0124822	-132,4
      43,498	   0,0124883	-135,6	   0,0124934	-134,2
        43,5	   0,0124355	-132,0	    0,012499	-135,7

