X-Data [Hz]	Laser (M - Filtered) [m/s]	Phase [Deg]	Laser (M - Filtered) [m/s]	Phase [Deg]	
	003: [06-03-24 13:12]		004: [06-03-24 13:32]	
         130	  0,00487414	55,6	  0,00406939	67,9
      130,02	  0,00498043	61,8	  0,00421691	58,7
     130,039	  0,00495183	58,9	  0,00435887	51,1
     130,059	  0,00500162	68,1	  0,00420224	54,1
     130,078	  0,00508541	58,7	   0,0043367	60,6
     130,098	  0,00499489	62,3	  0,00446487	59,0
     130,117	  0,00495083	57,8	  0,00426415	62,9
     130,137	   0,0048061	56,1	  0,00423285	65,9
     130,156	  0,00512955	65,3	  0,00434735	65,5
     130,176	  0,00481781	58,2	   0,0041191	53,5
     130,196	  0,00501202	55,2	  0,00448918	52,7
     130,215	  0,00514132	61,0	  0,00443687	53,8
     130,235	  0,00507105	57,4	  0,00430158	65,7
     130,254	  0,00495528	57,0	  0,00440897	66,9
     130,274	   0,0051066	56,5	  0,00444461	57,4
     130,293	  0,00528764	61,5	  0,00442785	49,3
     130,313	  0,00575402	57,2	  0,00457715	49,6
     130,332	  0,00521192	61,4	  0,00413558	58,5
     130,352	  0,00521243	51,6	  0,00431438	51,0
     130,371	  0,00507275	64,2	  0,00457144	60,1
     130,391	  0,00538336	59,7	  0,00440113	56,7
     130,411	  0,00498682	63,0	  0,00452937	52,6
      130,43	  0,00509768	65,2	  0,00463343	47,1
      130,45	  0,00493884	66,8	  0,00439963	53,8
     130,469	  0,00514672	70,2	   0,0044726	61,5
     130,489	  0,00516923	65,5	  0,00434279	67,3
     130,508	  0,00511352	63,9	  0,00426825	68,3
     130,528	  0,00517658	60,5	  0,00451495	60,0
     130,547	  0,00525535	62,4	   0,0045079	58,4
     130,567	  0,00531621	57,3	  0,00420932	56,0
     130,587	   0,0053011	56,0	  0,00436219	64,9
     130,606	   0,0051187	61,2	  0,00431272	53,5
     130,626	   0,0048263	65,7	  0,00479252	55,2
     130,645	  0,00508894	71,9	  0,00441392	65,9
     130,665	  0,00545004	60,0	  0,00451497	67,9
     130,684	  0,00517026	59,9	   0,0046415	56,7
     130,704	  0,00527244	62,8	  0,00441856	70,2
     130,723	  0,00534109	56,7	  0,00422466	50,3
     130,743	  0,00561561	61,5	  0,00447209	59,4
     130,762	  0,00528261	62,5	  0,00440973	67,3
     130,782	  0,00541221	64,9	  0,00460606	57,4
     130,802	  0,00547933	60,6	   0,0047324	63,1
     130,821	   0,0055201	58,7	   0,0047018	55,8
     130,841	  0,00542291	62,6	  0,00467324	58,8
      130,86	  0,00543382	56,6	  0,00442961	69,2
      130,88	     0,00503	70,4	  0,00463027	48,5
     130,899	  0,00519203	60,8	  0,00440776	60,2
     130,919	  0,00510078	52,9	  0,00464214	50,8
     130,938	  0,00570051	53,8	  0,00460866	65,0
     130,958	  0,00540785	52,8	  0,00470032	60,8
     130,978	  0,00529677	70,0	   0,0046871	59,5
     130,997	  0,00547457	62,2	  0,00471207	58,2
     131,017	  0,00536398	60,8	  0,00464409	66,4
     131,036	  0,00550179	68,7	  0,00450936	55,8
     131,056	  0,00523699	73,1	  0,00450304	65,3
     131,075	  0,00548953	63,0	   0,0049076	64,5
     131,095	  0,00522721	66,1	  0,00481051	57,9
     131,114	  0,00549572	58,2	  0,00459351	54,2
     131,134	  0,00541372	56,0	  0,00486389	58,4
     131,153	  0,00522899	69,8	   0,0045124	59,5
     131,173	   0,0056274	60,7	  0,00459939	62,7
     131,193	   0,0054023	66,6	  0,00481721	54,7
     131,212	  0,00558493	64,0	  0,00487789	61,8
     131,232	  0,00561501	51,1	   0,0048605	71,0
     131,251	   0,0058436	62,9	  0,00462805	65,7
     131,271	   0,0057646	62,6	  0,00491354	66,7
      131,29	  0,00561145	65,6	  0,00465166	65,3
      131,31	  0,00530394	64,3	  0,00464815	65,2
     131,329	  0,00585771	57,7	  0,00469272	61,1
     131,349	  0,00569368	56,4	  0,00496487	54,1
     131,369	  0,00588705	55,5	  0,00496866	52,8
     131,388	  0,00567691	54,6	  0,00467415	58,6
     131,408	  0,00568113	56,2	  0,00496217	60,8
     131,427	  0,00582566	65,9	  0,00487455	56,3
     131,447	  0,00576774	69,4	  0,00510211	50,4
     131,466	  0,00576647	64,6	  0,00472424	57,6
     131,486	  0,00556217	58,6	   0,0048876	62,7
     131,505	  0,00578592	60,3	  0,00491966	56,5
     131,525	  0,00586697	61,4	  0,00497154	53,8
     131,544	  0,00596846	63,7	  0,00482436	64,1
     131,564	  0,00562797	58,9	  0,00487369	57,7
     131,584	  0,00539149	67,7	  0,00519882	54,9
     131,603	  0,00565387	65,6	  0,00478233	70,5
     131,623	  0,00610643	56,8	  0,00516784	54,9
     131,642	  0,00553649	65,1	  0,00487261	57,9
     131,662	  0,00578399	56,6	  0,00526189	56,1
     131,681	  0,00594511	54,2	  0,00488412	69,1
     131,701	  0,00602681	58,2	  0,00481151	64,0
      131,72	  0,00563517	70,0	  0,00504237	62,1
      131,74	  0,00595031	55,8	  0,00509989	51,3
      131,76	  0,00601762	66,4	  0,00509886	62,1
     131,779	  0,00602183	60,9	   0,0051386	51,1
     131,799	  0,00604434	56,6	  0,00502611	62,6
     131,818	  0,00621454	65,9	  0,00503114	58,1
     131,838	  0,00586599	64,9	  0,00545444	59,8
     131,857	  0,00607921	57,0	  0,00500802	65,0
     131,877	  0,00581379	67,7	   0,0049807	65,1
     131,896	  0,00582469	64,9	  0,00518041	51,7
     131,916	  0,00576901	65,5	  0,00494213	65,3
     131,935	  0,00585972	66,3	  0,00495494	67,7
     131,955	  0,00627449	50,6	  0,00519278	59,0
     131,975	  0,00575524	62,8	  0,00498987	60,4
     131,994	  0,00643756	64,3	    0,005458	58,4
     132,014	  0,00619015	67,2	  0,00529211	61,1
     132,033	   0,0060899	65,9	  0,00522912	62,8
     132,053	  0,00629423	60,7	  0,00522835	59,3
     132,072	  0,00617924	64,5	  0,00510632	68,5
     132,092	  0,00606378	63,6	  0,00508166	55,6
     132,111	  0,00591748	67,3	    0,005076	71,1
     132,131	  0,00608901	68,5	  0,00518836	58,2
     132,151	  0,00610962	60,2	  0,00522749	55,0
      132,17	  0,00636616	65,9	  0,00528925	58,5
      132,19	  0,00618521	59,1	  0,00539066	50,6
     132,209	  0,00663161	50,7	  0,00542894	55,5
     132,229	  0,00649257	62,5	  0,00538972	64,7
     132,248	  0,00610823	66,8	  0,00528117	67,6
     132,268	  0,00628544	57,1	  0,00529131	64,1
     132,287	  0,00625026	61,1	  0,00499621	66,6
     132,307	  0,00590625	67,0	  0,00551377	56,7
     132,326	  0,00627836	58,5	  0,00531037	63,4
     132,346	  0,00639947	58,4	  0,00562052	64,6
     132,366	  0,00647633	65,4	   0,0052723	49,4
     132,385	  0,00618947	51,7	  0,00552361	50,3
     132,405	  0,00685377	50,5	  0,00548794	61,2
     132,424	  0,00653701	59,5	  0,00552056	53,1
     132,444	  0,00647451	59,4	  0,00582078	54,8
     132,463	  0,00626408	63,9	  0,00552945	62,4
     132,483	  0,00657551	58,9	  0,00535061	53,3
     132,502	  0,00635216	62,9	  0,00575182	60,0
     132,522	  0,00664948	56,8	  0,00535435	58,8
     132,542	  0,00629346	56,6	  0,00545684	58,1
     132,561	  0,00679392	62,8	  0,00581252	56,3
     132,581	  0,00654512	57,0	  0,00529421	64,7
       132,6	  0,00660352	65,3	  0,00555624	57,5
      132,62	  0,00627674	69,8	  0,00570351	63,6
     132,639	  0,00664327	59,3	  0,00552826	70,8
     132,659	  0,00648711	58,5	  0,00582012	62,5
     132,678	  0,00637958	65,6	  0,00553819	68,3
     132,698	  0,00677144	52,3	  0,00555022	56,7
     132,717	  0,00641099	56,1	  0,00598211	56,7
     132,737	   0,0070539	57,8	  0,00572614	69,5
     132,757	  0,00684748	54,2	  0,00545858	63,7
     132,776	  0,00670371	62,6	  0,00555858	56,8
     132,796	   0,0067579	60,9	  0,00556578	55,7
     132,815	  0,00702734	60,8	  0,00561331	60,3
     132,835	  0,00680233	56,3	  0,00572542	58,5
     132,854	  0,00697776	62,2	   0,0058277	60,9
     132,874	  0,00679594	58,1	  0,00562772	65,2
     132,893	   0,0066888	54,0	  0,00568443	65,2
     132,913	  0,00688132	59,6	  0,00592139	50,5
     132,933	  0,00748461	57,0	  0,00592318	52,7
     132,952	   0,0069864	63,2	  0,00601461	55,3
     132,972	  0,00663673	58,7	  0,00583942	67,3
     132,991	  0,00676558	58,8	  0,00589221	65,7
     133,011	   0,0068333	63,3	  0,00585301	58,1
      133,03	  0,00703961	66,1	  0,00549925	62,3
      133,05	  0,00662891	66,2	  0,00599026	72,4
     133,069	  0,00702279	60,0	  0,00588293	63,7
     133,089	  0,00698309	57,1	  0,00585399	65,1
     133,109	  0,00689204	57,4	   0,0058288	60,6
     133,128	  0,00705986	62,7	  0,00616416	52,7
     133,148	  0,00723591	52,3	  0,00588902	55,0
     133,167	  0,00688062	61,5	  0,00629213	52,4
     133,187	  0,00732454	63,7	  0,00584634	63,6
     133,206	  0,00686356	67,1	  0,00588671	68,7
     133,226	  0,00724441	59,4	  0,00600551	52,5
     133,245	  0,00713804	64,0	  0,00581851	57,5
     133,265	  0,00699156	61,6	  0,00627325	56,1
     133,284	  0,00736299	60,0	  0,00610637	64,0
     133,304	  0,00713707	59,3	  0,00623874	52,2
     133,324	  0,00756725	59,1	  0,00597819	68,1
     133,343	  0,00721639	64,0	  0,00628051	52,3
     133,363	  0,00698409	69,8	  0,00588498	61,8
     133,382	  0,00742829	61,8	  0,00629003	56,0
     133,402	  0,00705149	62,4	  0,00602474	72,1
     133,421	  0,00751629	58,0	  0,00669623	55,6
     133,441	  0,00754352	57,0	  0,00622548	65,2
      133,46	  0,00781487	60,2	  0,00613106	56,6
      133,48	  0,00735383	55,2	  0,00604618	66,3
       133,5	    0,007508	55,2	  0,00621145	61,3
     133,519	  0,00745751	58,3	  0,00638808	50,5
     133,539	  0,00741639	60,6	  0,00638175	58,0
     133,558	  0,00762889	62,7	  0,00609112	67,4
     133,578	  0,00773101	60,5	  0,00614837	60,9
     133,597	  0,00683568	72,1	  0,00593412	61,8
     133,617	  0,00747344	59,0	  0,00629315	63,3
     133,636	  0,00745498	61,4	   0,0064267	65,8
     133,656	  0,00752141	56,6	  0,00620288	63,1
     133,675	  0,00758898	58,8	  0,00598486	60,2
     133,695	  0,00749372	65,1	  0,00644262	51,0
     133,715	  0,00791009	60,8	  0,00636298	58,8
     133,734	   0,0075137	62,8	  0,00611519	65,8
     133,754	  0,00771002	64,0	  0,00659388	69,7
     133,773	  0,00725983	61,2	  0,00618716	60,3
     133,793	  0,00797261	62,9	  0,00650183	62,0
     133,812	  0,00814287	59,7	  0,00639203	57,2
     133,832	  0,00781321	53,0	  0,00626217	58,6
     133,851	  0,00790224	56,3	  0,00636008	66,5
     133,871	  0,00868866	54,1	  0,00631874	67,8
     133,891	  0,00817239	57,3	  0,00653779	58,9
      133,91	   0,0075174	64,4	  0,00653424	64,6
      133,93	  0,00773757	58,9	  0,00628493	70,8
     133,949	  0,00785533	58,0	  0,00648913	53,5
     133,969	  0,00762088	64,4	  0,00660617	57,4
     133,988	  0,00793049	65,9	  0,00700228	53,4
     134,008	  0,00805475	58,0	  0,00685575	55,5
     134,027	  0,00811569	56,3	   0,0064646	67,0
     134,047	   0,0082283	52,0	   0,0068621	65,1
     134,066	  0,00796486	54,8	  0,00661978	58,5
     134,086	  0,00878366	59,0	  0,00677209	59,8
     134,106	  0,00874357	62,0	  0,00679405	62,6
     134,125	  0,00791177	58,6	  0,00664074	56,6
     134,145	  0,00815659	60,9	  0,00658752	61,5
     134,164	  0,00815792	63,4	  0,00697168	48,3
     134,184	  0,00845041	60,9	  0,00659415	66,7
     134,203	  0,00813825	58,0	  0,00658038	59,1
     134,223	  0,00852193	62,6	  0,00694032	58,4
     134,242	  0,00808627	70,4	  0,00645421	61,4
     134,262	  0,00850567	57,3	  0,00650968	63,6
     134,282	  0,00867212	64,8	  0,00718148	58,2
     134,301	  0,00854293	56,6	  0,00661403	62,0
     134,321	   0,0088927	56,4	   0,0070512	57,6
      134,34	   0,0086286	58,5	  0,00694591	52,3
      134,36	   0,0082127	65,9	   0,0072631	57,7
     134,379	  0,00885597	62,1	  0,00688097	64,7
     134,399	  0,00831233	62,2	  0,00711771	58,8
     134,418	  0,00857516	60,4	  0,00725422	53,9
     134,438	  0,00859309	61,3	  0,00720763	56,4
     134,457	  0,00886466	63,9	    0,006834	61,5
     134,477	  0,00857625	64,6	  0,00642255	68,7
     134,497	  0,00844013	57,4	  0,00727447	62,9
     134,516	  0,00828214	62,8	  0,00736539	61,1
     134,536	  0,00848452	58,3	  0,00695887	59,8
     134,555	  0,00896754	59,1	  0,00720488	61,5
     134,575	  0,00923002	63,2	  0,00746074	57,7
     134,594	  0,00921176	57,7	  0,00702696	56,7
     134,614	  0,00859444	58,1	  0,00730433	58,4
     134,633	   0,0091367	57,2	  0,00776965	53,4
     134,653	  0,00853044	62,9	  0,00749284	56,0
     134,673	  0,00889928	61,7	  0,00712356	58,0
     134,692	  0,00913258	66,3	  0,00770883	57,4
     134,712	   0,0088961	58,6	  0,00730491	55,7
     134,731	  0,00917689	58,4	  0,00721987	55,9
     134,751	  0,00965852	51,8	  0,00720007	66,6
      134,77	  0,00893702	56,6	  0,00731235	53,1
      134,79	  0,00940425	60,7	  0,00690737	67,5
     134,809	  0,00897428	63,8	  0,00713944	62,7
     134,829	  0,00881444	56,4	  0,00721515	65,7
     134,848	  0,00951038	52,2	  0,00760248	59,0
     134,868	  0,00960461	64,8	  0,00725117	56,7
     134,888	  0,00919634	55,8	  0,00727044	64,8
     134,907	  0,00925158	55,5	  0,00804702	49,5
     134,927	  0,00935171	65,3	  0,00701039	57,7
     134,946	  0,00929411	54,0	  0,00741651	66,4
     134,966	  0,00958758	66,0	    0,007486	57,2
     134,985	   0,0099989	60,5	  0,00741578	57,6
     135,005	  0,00978702	58,6	  0,00740195	55,3
     135,024	  0,00991506	63,0	  0,00745103	55,5
     135,044	  0,00937053	63,0	  0,00731928	61,7
     135,064	  0,00946376	67,1	  0,00771306	59,5
     135,083	   0,0096172	65,9	  0,00757395	62,5
     135,103	  0,00998716	57,0	  0,00770462	56,5
     135,122	  0,00977979	66,9	  0,00814208	56,9
     135,142	   0,0098071	60,9	  0,00775463	60,4
     135,161	  0,00956762	66,2	  0,00782533	58,3
     135,181	  0,00960342	65,5	  0,00758932	65,5
       135,2	  0,00989864	62,5	  0,00785324	55,6
      135,22	  0,00990077	55,4	  0,00816129	62,6
     135,239	  0,00993801	65,7	  0,00819939	55,1
     135,259	  0,00978458	63,1	  0,00798228	61,3
     135,279	  0,00965394	56,6	  0,00781712	59,8
     135,298	  0,00978165	58,6	   0,0077312	61,2
     135,318	   0,0106162	53,8	  0,00832299	62,3
     135,337	   0,0100154	67,2	  0,00820228	53,0
     135,357	    0,010412	62,0	  0,00804885	56,1
     135,376	   0,0105557	58,8	  0,00838308	59,8
     135,396	   0,0100853	61,4	  0,00800534	63,9
     135,415	  0,00989526	68,0	  0,00793687	64,4
     135,435	  0,00978079	67,6	  0,00772454	62,9
     135,455	   0,0104904	64,4	   0,0083843	56,7
     135,474	   0,0105731	64,5	  0,00851447	52,6
     135,494	   0,0103386	61,5	  0,00865494	59,0
     135,513	   0,0107669	57,9	  0,00808053	65,8
     135,533	    0,010365	64,5	  0,00854634	58,0
     135,552	    0,011076	58,0	  0,00832004	60,7
     135,572	   0,0105019	56,8	   0,0079016	69,5
     135,591	   0,0110357	59,7	  0,00821783	60,3
     135,611	   0,0107377	66,7	  0,00776297	61,3
      135,63	   0,0110693	64,5	  0,00856076	66,1
      135,65	   0,0111418	55,8	  0,00856951	65,9
      135,67	   0,0112791	54,6	  0,00867999	55,3
     135,689	   0,0106695	64,2	  0,00869657	57,7
     135,709	   0,0102458	55,9	  0,00844651	60,5
     135,728	   0,0111906	54,0	  0,00920225	64,5
     135,748	   0,0106292	63,9	  0,00856064	64,8
     135,767	   0,0106262	59,1	  0,00878914	53,6
     135,787	    0,010879	59,5	    0,008727	62,4
     135,806	   0,0112906	61,1	  0,00842659	58,9
     135,826	   0,0113742	61,9	  0,00888489	55,4
     135,846	   0,0105855	65,6	  0,00863646	65,4
     135,865	   0,0107718	57,5	   0,0088007	64,5
     135,885	   0,0122337	61,1	  0,00860554	59,5
     135,904	   0,0115797	61,4	  0,00915775	54,8
     135,924	   0,0112385	64,5	  0,00875535	66,4
     135,943	   0,0115404	61,8	  0,00871949	60,1
     135,963	    0,011132	58,3	  0,00919581	58,8
     135,982	   0,0111039	65,1	  0,00893029	56,9
     136,002	   0,0114457	62,8	  0,00913607	65,6
     136,021	   0,0114783	65,4	  0,00904618	57,6
     136,041	    0,011873	60,5	  0,00891247	59,2
     136,061	   0,0115774	60,5	  0,00926846	58,3
      136,08	   0,0117412	63,8	  0,00911715	60,2
       136,1	   0,0116235	64,3	   0,0092428	63,5
     136,119	   0,0120019	57,1	  0,00893452	67,0
     136,139	   0,0118068	58,1	  0,00954242	57,9
     136,158	   0,0118673	58,8	  0,00919547	61,4
     136,178	   0,0125577	59,8	  0,00905184	62,1
     136,197	   0,0123922	59,0	  0,00941591	53,0
     136,217	   0,0123653	70,1	  0,00933652	53,6
     136,237	   0,0118296	64,0	  0,00934115	63,6
     136,256	   0,0121596	65,7	  0,00958289	59,8
     136,276	   0,0123649	58,4	  0,00914484	64,0
     136,295	   0,0126615	56,7	  0,00962989	63,7
     136,315	   0,0124286	60,9	  0,00903476	67,1
     136,334	   0,0120907	60,9	  0,00915059	61,3
     136,354	   0,0125317	60,3	  0,00945231	62,7
     136,373	   0,0120519	63,1	  0,00932308	64,0
     136,393	    0,012996	55,6	  0,00958369	61,5
     136,413	   0,0125806	64,1	  0,00966068	65,1
     136,432	   0,0129554	60,8	  0,00927155	61,4
     136,452	   0,0123777	67,5	   0,0106285	57,8
     136,471	   0,0137125	54,9	  0,00942036	68,9
     136,491	   0,0125081	57,2	  0,00983704	59,9
      136,51	   0,0132516	59,7	  0,00955623	57,8
      136,53	   0,0130573	62,1	   0,0100617	58,2
     136,549	   0,0128302	59,9	  0,00997623	65,3
     136,569	    0,013297	56,9	  0,00962771	65,6
     136,588	   0,0132323	58,9	   0,0101592	56,9
     136,608	   0,0134039	62,1	  0,00979201	60,4
     136,628	    0,013839	59,5	   0,0102188	67,7
     136,647	   0,0133525	63,2	  0,00983388	62,9
     136,667	   0,0128905	64,7	   0,0102532	59,6
     136,686	   0,0137835	51,2	   0,0100068	58,0
     136,706	   0,0138388	60,8	   0,0101536	57,2
     136,725	    0,014222	55,8	  0,00982289	64,7
     136,745	   0,0136475	60,2	   0,0104396	60,1
     136,764	   0,0144323	66,8	   0,0100244	65,9
     136,784	   0,0142031	65,1	     0,01037	60,3
     136,804	   0,0144825	57,3	   0,0103421	66,4
     136,823	   0,0145026	57,5	   0,0103538	56,0
     136,843	   0,0142821	62,4	   0,0105584	61,5
     136,862	   0,0145143	57,4	   0,0108572	61,5
     136,882	   0,0145368	62,8	   0,0108229	54,1
     136,901	   0,0152047	56,9	   0,0107172	62,8
     136,921	   0,0148686	62,6	   0,0108608	55,3
      136,94	   0,0139034	68,5	   0,0109878	62,0
      136,96	   0,0141905	66,0	   0,0107702	62,9
     136,979	   0,0152356	54,4	   0,0105245	58,7
     136,999	   0,0151927	58,4	   0,0108029	55,5
     137,019	   0,0147577	65,0	   0,0109745	60,1
     137,038	   0,0153129	59,2	   0,0107317	61,3
     137,058	   0,0158595	56,3	   0,0108126	64,9
     137,077	   0,0147876	59,2	    0,011262	62,7
     137,097	   0,0151199	60,8	   0,0109035	64,3
     137,116	   0,0157909	60,8	   0,0110034	61,3
     137,136	   0,0157757	65,3	   0,0110358	59,5
     137,155	     0,01537	65,3	   0,0109399	57,2
     137,175	   0,0156796	58,8	   0,0112993	56,8
     137,195	   0,0159205	61,6	   0,0115708	55,7
     137,214	   0,0155761	56,4	   0,0111011	62,4
     137,234	   0,0159279	66,3	   0,0108439	62,0
     137,253	   0,0163633	61,4	   0,0113105	65,4
     137,273	   0,0162347	63,8	   0,0115428	62,6
     137,292	   0,0161623	67,5	   0,0118051	60,6
     137,312	   0,0158149	65,6	   0,0116279	62,6
     137,331	   0,0166951	61,8	   0,0117713	57,7
     137,351	    0,016079	63,2	   0,0119595	62,3
      137,37	   0,0164727	61,1	   0,0115687	66,2
      137,39	   0,0170886	62,8	   0,0123376	52,8
      137,41	   0,0172785	61,3	    0,012365	56,2
     137,429	   0,0164837	64,9	   0,0123501	64,5
     137,449	     0,01703	63,1	   0,0122305	56,1
     137,468	   0,0175226	59,0	   0,0126837	58,3
     137,488	   0,0172579	62,5	   0,0123338	62,1
     137,507	   0,0171657	64,9	   0,0125839	54,6
     137,527	   0,0174439	58,9	   0,0124195	61,8
     137,546	    0,017791	59,9	   0,0120426	57,9
     137,566	   0,0180581	66,0	   0,0124907	64,0
     137,586	   0,0169918	64,0	   0,0125604	57,3
     137,605	   0,0176337	58,5	   0,0126873	62,5
     137,625	   0,0185653	60,4	   0,0128517	56,0
     137,644	   0,0185008	60,9	   0,0123837	64,4
     137,664	   0,0186455	63,5	   0,0134451	59,5
     137,683	   0,0188857	61,5	   0,0129923	61,8
     137,703	    0,019384	65,6	   0,0131386	56,2
     137,722	   0,0187694	60,2	   0,0127241	57,9
     137,742	     0,01908	57,7	      0,0131	61,7
     137,761	   0,0197032	58,7	   0,0131545	65,8
     137,781	    0,019345	57,2	   0,0131027	65,2
     137,801	   0,0195771	63,9	    0,012794	62,7
      137,82	   0,0198144	66,2	   0,0131634	64,4
      137,84	   0,0203242	57,8	   0,0134502	64,8
     137,859	   0,0204448	58,1	   0,0139732	53,6
     137,879	   0,0199343	56,2	   0,0139865	55,8
     137,898	   0,0203973	53,0	    0,013726	57,8
     137,918	   0,0205205	60,4	   0,0139325	64,7
     137,937	   0,0203455	60,2	    0,013526	54,3
     137,957	   0,0208006	64,8	   0,0136168	63,3
     137,977	   0,0200619	64,2	   0,0143266	55,3
     137,996	   0,0208863	63,5	   0,0147204	55,5
     138,016	   0,0218536	57,1	   0,0138381	62,9
     138,035	   0,0218855	60,7	   0,0148946	63,0
     138,055	    0,021328	57,1	   0,0142068	63,8
     138,074	   0,0225787	60,0	   0,0146368	66,2
     138,094	   0,0216604	63,4	   0,0141418	60,4
     138,113	   0,0221701	64,6	   0,0145636	60,9
     138,133	   0,0234074	57,7	   0,0153018	59,7
     138,152	    0,022876	62,6	   0,0147296	64,9
     138,172	   0,0233153	62,8	   0,0154646	62,2
     138,192	   0,0221617	69,6	   0,0147221	60,5
     138,211	   0,0229166	67,4	    0,015422	52,9
     138,231	   0,0233836	61,0	   0,0150936	61,1
      138,25	   0,0231403	59,9	   0,0155595	59,0
      138,27	   0,0230738	58,4	    0,015116	60,4
     138,289	   0,0233102	60,0	   0,0161111	58,6
     138,309	   0,0236721	66,4	   0,0153033	58,0
     138,328	   0,0252962	59,6	   0,0159076	56,5
     138,348	   0,0250731	59,7	   0,0154682	62,9
     138,368	   0,0238441	66,8	   0,0153482	64,3
     138,387	     0,02603	62,6	   0,0161051	54,8
     138,407	   0,0258927	62,8	   0,0159381	61,3
     138,426	   0,0247003	66,7	   0,0165454	65,6
     138,446	   0,0261275	56,8	   0,0161895	61,0
     138,465	    0,025269	65,6	   0,0160259	65,2
     138,485	   0,0260088	64,2	    0,016684	57,3
     138,504	   0,0262956	68,8	   0,0166913	60,9
     138,524	    0,027184	62,3	   0,0170292	57,3
     138,544	   0,0272167	65,1	   0,0171747	63,3
     138,563	   0,0281834	58,8	   0,0165959	62,3
     138,583	   0,0273518	63,9	     0,01764	62,7
     138,602	   0,0283373	64,2	   0,0174323	55,0
     138,622	   0,0293048	64,8	   0,0180571	58,7
     138,641	   0,0289044	63,5	   0,0186255	59,7
     138,661	   0,0298331	66,1	    0,017758	52,4
      138,68	   0,0289168	63,3	   0,0182659	62,3
       138,7	    0,030283	66,8	   0,0171044	59,6
     138,719	    0,030186	69,7	   0,0180446	62,8
     138,739	   0,0308929	63,6	    0,018876	55,4
     138,759	    0,031733	62,2	   0,0185514	61,0
     138,778	    0,032098	66,0	   0,0188485	59,9
     138,798	    0,030565	66,7	   0,0192149	57,5
     138,817	   0,0331774	62,7	   0,0185857	59,9
     138,837	   0,0324873	64,7	   0,0190593	55,6
     138,856	   0,0340447	62,5	    0,020104	56,8
     138,876	   0,0345514	64,2	   0,0201809	56,7
     138,895	   0,0348375	60,1	   0,0194974	56,6
     138,915	   0,0335921	62,8	   0,0192272	60,0
     138,935	   0,0354554	60,9	   0,0197322	61,0
     138,954	   0,0341788	69,7	   0,0198201	62,9
     138,974	   0,0364712	64,7	   0,0201867	61,1
     138,993	   0,0353625	68,4	   0,0199836	65,7
     139,013	   0,0366241	64,7	   0,0203697	66,8
     139,032	   0,0370514	67,6	   0,0219014	61,8
     139,052	   0,0378165	64,5	    0,021519	57,9
     139,071	   0,0386667	65,5	   0,0210957	57,8
     139,091	   0,0389247	64,9	    0,020875	64,9
      139,11	   0,0403351	70,3	     0,02206	56,7
      139,13	   0,0425509	67,2	   0,0218405	58,9
      139,15	   0,0421781	74,0	   0,0226054	63,2
     139,169	    0,041062	64,6	   0,0226701	59,0
     139,189	   0,0417403	72,8	   0,0219035	60,2
     139,208	   0,0419505	71,9	   0,0227834	64,0
     139,228	   0,0433967	71,4	   0,0235638	57,5
     139,247	   0,0438089	73,4	   0,0236847	62,8
     139,267	   0,0475496	70,7	   0,0237742	61,5
     139,286	   0,0449124	70,9	   0,0242004	59,5
     139,306	   0,0490618	68,0	   0,0246206	61,3
     139,326	   0,0494635	75,1	   0,0239515	61,4
     139,345	    0,050292	69,8	   0,0235031	64,4
     139,365	   0,0518735	70,2	   0,0238067	67,9
     139,384	   0,0515198	71,2	   0,0255999	57,2
     139,404	   0,0510204	78,2	   0,0245875	69,5
     139,423	   0,0522715	75,2	   0,0251785	56,7
     139,443	   0,0534277	75,3	   0,0255275	65,8
     139,462	   0,0550838	72,0	   0,0255424	65,7
     139,482	   0,0550198	75,2	   0,0262976	60,6
     139,501	   0,0557724	75,1	   0,0266261	64,9
     139,521	   0,0550426	71,8	   0,0267472	63,9
     139,541	   0,0592898	78,5	   0,0268517	56,7
      139,56	   0,0580714	73,4	   0,0273875	59,7
      139,58	   0,0625399	70,7	   0,0282942	63,2
     139,599	   0,0637302	71,6	    0,028603	63,3
     139,619	   0,0622305	84,9	   0,0274441	66,9
     139,638	   0,0669977	72,1	   0,0292322	69,9
     139,658	   0,0660603	75,6	    0,028699	61,8
     139,677	    0,066724	77,8	   0,0291863	63,6
     139,697	   0,0697334	79,0	   0,0310689	61,5
     139,717	   0,0702575	78,5	   0,0313995	63,3
     139,736	    0,073578	78,0	   0,0310835	64,5
     139,756	   0,0737149	77,2	   0,0309569	63,9
     139,775	   0,0729946	82,1	   0,0301498	65,4
     139,795	   0,0774922	75,8	    0,032282	67,7
     139,814	   0,0778557	82,2	   0,0321325	62,6
     139,834	   0,0808916	79,4	   0,0319144	70,8
     139,853	   0,0784403	88,4	   0,0334874	70,7
     139,873	   0,0801885	84,2	   0,0326419	64,6
     139,892	   0,0809732	88,3	   0,0337322	69,4
     139,912	   0,0832184	85,1	   0,0337967	64,1
     139,932	   0,0854614	82,8	   0,0334238	74,6
     139,951	   0,0880183	87,1	   0,0369663	67,7
     139,971	   0,0869304	87,5	   0,0339116	71,3
      139,99	   0,0894072	90,3	   0,0356921	65,2
      140,01	   0,0899366	90,6	   0,0376659	66,2
     140,029	    0,092901	84,7	   0,0390944	67,2
     140,049	   0,0947998	90,8	   0,0377039	65,3
     140,068	   0,0971726	83,9	   0,0384543	72,5
     140,088	   0,0991188	84,4	   0,0382775	65,6
     140,108	   0,0986667	95,9	   0,0390908	73,6
     140,127	    0,100568	87,0	   0,0393843	63,0
     140,147	    0,104141	87,3	    0,042541	67,6
     140,166	    0,103215	89,7	   0,0434779	71,0
     140,186	    0,104469	90,6	    0,043654	70,6
     140,205	    0,106579	95,9	   0,0425101	70,9
     140,225	    0,108642	94,1	   0,0432446	66,5
     140,244	    0,112223	87,3	    0,044354	67,3
     140,264	    0,109796	91,2	   0,0453241	76,1
     140,283	    0,113673	93,2	   0,0465428	70,7
     140,303	    0,113659	90,0	   0,0485858	74,9
     140,323	    0,113338	95,0	   0,0508084	76,5
     140,342	    0,117734	93,2	    0,052827	67,7
     140,362	    0,116971	94,5	   0,0542158	69,5
     140,381	    0,118747	99,3	   0,0544479	73,2
     140,401	    0,117826	99,4	   0,0548795	74,2
      140,42	    0,121214	94,2	   0,0554972	74,3
      140,44	    0,120577	102,3	    0,056877	70,4
     140,459	    0,123488	90,8	   0,0577625	74,4
     140,479	    0,122544	99,4	   0,0600574	77,5
     140,499	     0,12621	98,8	   0,0603606	81,6
     140,518	    0,126736	102,0	   0,0599935	78,5
     140,538	       0,127	98,0	   0,0641917	76,2
     140,557	    0,128237	99,9	   0,0655713	78,0
     140,577	    0,131568	101,1	   0,0669657	75,6
     140,596	    0,130742	105,7	   0,0675197	74,8
     140,616	    0,132722	107,7	    0,065727	76,3
     140,635	    0,134951	103,4	   0,0709422	76,8
     140,655	    0,134614	107,1	   0,0717862	74,4
     140,674	    0,134955	106,4	   0,0740834	77,7
     140,694	     0,13823	103,7	   0,0738865	78,0
     140,714	     0,13856	104,9	   0,0754652	81,4
     140,733	    0,138613	102,5	   0,0773308	81,8
     140,753	    0,141001	104,8	   0,0799253	86,8
     140,772	    0,141798	107,7	   0,0787083	88,2
     140,792	    0,142046	105,2	   0,0812429	86,5
     140,811	    0,143436	101,1	   0,0826067	80,1
     140,831	    0,147574	112,5	   0,0835258	84,2
      140,85	    0,148673	106,3	   0,0854284	81,8
      140,87	    0,149116	103,6	   0,0874971	84,9
      140,89	    0,151755	117,0	   0,0885176	83,2
     140,909	    0,152718	108,6	   0,0893787	87,5
     140,929	    0,154621	108,8	   0,0932162	86,7
     140,948	    0,152673	113,9	    0,094184	86,7
     140,968	    0,156632	107,4	   0,0922857	91,3
     140,987	    0,156266	115,6	   0,0938652	88,2
     141,007	    0,158179	109,2	   0,0950139	84,9
     141,026	    0,157696	114,2	    0,097647	88,3
     141,046	    0,159828	114,8	   0,0992692	88,7
     141,065	     0,16048	113,3	    0,101939	91,1
     141,085	    0,161965	111,7	   0,0996822	89,6
     141,105	     0,16053	122,1	    0,103202	87,3
     141,124	    0,163956	115,9	    0,104952	91,4
     141,144	    0,161745	112,6	    0,106945	92,2
     141,163	    0,162848	118,4	    0,107959	89,9
     141,183	    0,164347	119,0	    0,108575	90,5
     141,202	    0,164379	113,9	    0,111352	92,0
     141,222	    0,167191	116,5	    0,111346	89,8
     141,241	    0,167326	119,8	     0,11188	97,1
     141,261	    0,167676	117,4	    0,114488	91,3
     141,281	    0,169663	116,3	    0,115433	91,4
       141,3	    0,169153	119,2	    0,118561	91,4
      141,32	    0,169318	117,7	    0,118219	94,3
     141,339	    0,171983	119,2	    0,118055	97,0
     141,359	    0,173588	123,8	    0,120306	98,6
     141,378	    0,174109	119,1	    0,123804	97,8
     141,398	    0,176409	123,3	    0,122241	97,3
     141,417	    0,177042	122,5	    0,126571	102,3
     141,437	    0,177228	121,6	    0,127993	103,1
     141,456	    0,178678	122,2	    0,128592	106,3
     141,476	    0,180937	122,8	    0,128352	102,5
     141,496	    0,181607	119,3	    0,130242	100,2
     141,515	    0,182377	119,5	    0,132458	104,4
     141,535	    0,183554	120,3	    0,134106	94,7
     141,554	    0,184184	126,2	    0,134566	101,2
     141,574	    0,184009	128,4	     0,13495	102,3
     141,593	    0,183659	128,1	    0,136149	100,3
     141,613	    0,186174	123,8	    0,135159	99,7
     141,632	    0,187027	126,5	    0,137731	103,3
     141,652	    0,186761	127,2	    0,138157	103,1
     141,672	    0,187504	125,7	    0,140263	103,1
     141,691	    0,189456	133,2	    0,139624	107,5
     141,711	    0,190835	124,4	    0,142242	104,4
      141,73	    0,190186	125,4	    0,140928	109,0
      141,75	    0,191102	130,3	    0,144781	107,7
     141,769	     0,19114	129,4	    0,144393	106,4
     141,789	     0,19386	136,2	    0,146752	110,0
     141,808	    0,192904	126,4	    0,147102	107,7
     141,828	    0,195375	132,8	    0,149927	113,1
     141,848	    0,194005	127,6	    0,147417	103,6
     141,867	    0,194319	137,2	    0,150495	110,9
     141,887	    0,195392	128,9	    0,151506	112,0
     141,906	    0,197697	132,8	    0,150769	109,0
     141,926	    0,196888	136,3	    0,152185	112,5
     141,945	     0,19813	128,0	    0,153836	111,0
     141,965	     0,19824	132,0	    0,155421	116,0
     141,984	    0,201278	131,2	    0,153385	116,6
     142,004	    0,200576	140,3	    0,154495	110,8
     142,023	    0,198966	135,2	    0,152331	128,2
     142,043	    0,200356	133,6	    0,115911	189,9
     142,063	    0,203533	134,0	    0,100559	199,6
     142,082	    0,203411	138,3	   0,0916954	-154,5
     142,102	    0,204305	147,1	   0,0870243	-148,8
     142,121	    0,204335	140,9	   0,0812873	-149,0
     142,141	    0,205222	135,5	   0,0786712	-146,5
      142,16	    0,206044	137,0	   0,0764042	-148,8
      142,18	    0,205871	143,6	   0,0764032	-145,2
     142,199	    0,204779	146,1	   0,0712321	-147,0
     142,219	    0,204975	158,3	   0,0698003	-150,0
     142,239	    0,194667	189,7	   0,0703039	-147,5
     142,258	   0,0292321	-131,2	   0,0668304	-147,8
     142,278	   0,0289961	-129,4	   0,0685031	-149,3
     142,297	   0,0284083	-130,3	   0,0647755	-145,8
     142,317	     0,03021	-129,5	   0,0641044	-148,7
     142,336	   0,0285501	-128,1	   0,0658206	-143,2
     142,356	   0,0279377	-131,5	   0,0618596	-141,6
     142,375	   0,0285194	-125,6	   0,0624902	-141,8
     142,395	   0,0282368	-132,7	   0,0614496	-137,2
     142,414	   0,0292376	-129,6	   0,0604957	-136,8
     142,434	   0,0288498	-131,8	   0,0584252	-139,7
     142,454	   0,0295683	-128,7	   0,0575889	-144,3
     142,473	   0,0281484	-133,3	   0,0562757	-140,9
     142,493	   0,0287856	-127,3	   0,0563118	-136,0
     142,512	    0,027647	-131,3	   0,0553718	-140,9
     142,532	   0,0276185	-127,2	   0,0550834	-142,5
     142,551	   0,0275177	-128,4	   0,0529958	-136,6
     142,571	   0,0268754	-129,4	   0,0536985	-134,5
      142,59	   0,0277597	-130,7	   0,0513071	-142,1
      142,61	   0,0267722	-132,3	   0,0513548	-139,1
      142,63	   0,0262097	-126,3	   0,0492277	-141,6
     142,649	   0,0253478	-131,2	   0,0493296	-136,4
     142,669	   0,0259099	-127,8	    0,047601	-136,8
     142,688	   0,0253971	-132,9	   0,0464264	-138,9
     142,708	   0,0263262	-129,5	   0,0463103	-132,2
     142,727	   0,0250541	-127,6	    0,044811	-137,3
     142,747	   0,0251544	-129,1	   0,0453406	-134,3
     142,766	   0,0252094	-125,7	   0,0436554	-137,9
     142,786	   0,0260324	-131,2	   0,0444674	-131,4
     142,805	   0,0251413	-129,3	   0,0434218	-136,7
     142,825	   0,0247059	-131,2	   0,0429199	-128,9
     142,845	   0,0239582	-126,0	   0,0429659	-135,0
     142,864	   0,0236566	-130,4	   0,0410346	-139,0
     142,884	   0,0246695	-126,7	   0,0410969	-130,1
     142,903	    0,023646	-129,2	   0,0404722	-132,9
     142,923	   0,0245225	-134,1	   0,0391822	-138,1
     142,942	   0,0241337	-132,9	   0,0392852	-135,0
     142,962	   0,0229831	-132,8	   0,0389305	-130,8
     142,981	   0,0241855	-131,5	   0,0388925	-128,9
     143,001	   0,0238922	-130,0	   0,0390492	-136,5
     143,021	   0,0239114	-135,7	   0,0381439	-136,7
      143,04	   0,0244932	-132,1	    0,038929	-139,6
      143,06	   0,0228828	-124,5	   0,0369763	-139,4
     143,079	   0,0228781	-134,3	   0,0370202	-129,8
     143,099	   0,0231695	-128,3	    0,036231	-132,3
     143,118	   0,0230021	-132,5	    0,037227	-132,1
     143,138	   0,0234065	-127,4	   0,0360244	-134,8
     143,157	    0,021891	-130,3	   0,0363248	-129,6
     143,177	   0,0226402	-128,9	   0,0352194	-128,8
     143,196	   0,0220768	-129,3	   0,0343291	-130,9
     143,216	   0,0219331	-122,0	   0,0350523	-131,4
     143,236	   0,0228443	-135,4	   0,0340241	-136,7
     143,255	   0,0219105	-130,9	    0,033994	-134,2
     143,275	   0,0217074	-128,2	   0,0353455	-131,9
     143,294	   0,0220376	-123,3	   0,0342565	-130,4
     143,314	   0,0216335	-127,6	   0,0329267	-127,7
     143,333	   0,0209141	-123,9	    0,032484	-136,1
     143,353	   0,0216475	-127,6	   0,0320277	-133,3
     143,372	     0,02143	-126,7	   0,0324646	-129,3
     143,392	   0,0211488	-127,8	   0,0316725	-130,5
     143,412	   0,0206995	-135,4	   0,0317183	-134,0
     143,431	   0,0208746	-133,4	   0,0306976	-129,8
     143,451	   0,0202257	-125,6	   0,0313973	-132,7
      143,47	   0,0204484	-133,1	   0,0312106	-135,6
      143,49	   0,0200454	-127,9	   0,0294183	-132,4
     143,509	   0,0202065	-133,3	   0,0306421	-130,6
     143,529	   0,0207893	-124,6	   0,0292824	-125,8
     143,548	   0,0197329	-129,4	   0,0296021	-128,2
     143,568	   0,0200365	-125,7	   0,0284304	-128,5
     143,587	   0,0196473	-124,7	   0,0285539	-125,7
     143,607	   0,0197434	-132,9	   0,0289102	-131,7
     143,627	   0,0195882	-133,7	   0,0276642	-127,7
     143,646	   0,0196765	-131,4	   0,0286056	-133,2
     143,666	   0,0194106	-130,1	   0,0276806	-133,0
     143,685	   0,0195029	-127,5	    0,028072	-133,9
     143,705	   0,0190037	-130,2	   0,0278731	-131,2
     143,724	   0,0193876	-131,6	   0,0275915	-130,9
     143,744	   0,0194783	-129,9	   0,0269097	-127,2
     143,763	   0,0191324	-129,6	   0,0266142	-128,9
     143,783	   0,0194232	-123,2	   0,0266698	-122,9
     143,803	    0,018936	-130,2	    0,026487	-129,0
     143,822	   0,0191918	-129,3	   0,0258836	-130,9
     143,842	   0,0175451	-128,7	   0,0260203	-132,0
     143,861	   0,0189385	-126,3	   0,0250678	-135,2
     143,881	   0,0180044	-124,0	   0,0249335	-131,2
       143,9	   0,0183503	-130,0	     0,02443	-130,2
      143,92	   0,0181207	-123,2	   0,0250411	-127,5
     143,939	   0,0180645	-132,4	   0,0248672	-129,0
     143,959	   0,0178274	-133,1	   0,0243308	-133,9
     143,979	   0,0182477	-128,9	   0,0237328	-130,3
     143,998	   0,0187286	-130,0	   0,0242484	-136,0
     144,018	   0,0177415	-130,0	   0,0234434	-134,8
     144,037	   0,0182669	-133,3	   0,0239742	-131,6
     144,057	   0,0179307	-125,1	   0,0240287	-131,1
     144,076	   0,0170869	-129,1	   0,0231258	-126,8
     144,096	   0,0180356	-128,5	   0,0236895	-131,7
     144,115	   0,0174623	-126,1	   0,0229688	-126,8
     144,135	   0,0170111	-130,4	   0,0230223	-129,7
     144,154	   0,0173364	-125,9	   0,0232457	-127,7
     144,174	   0,0174634	-123,4	   0,0228357	-131,1
     144,194	     0,01727	-129,3	   0,0217932	-130,0
     144,213	   0,0172888	-123,9	   0,0227439	-132,3
     144,233	   0,0170749	-122,2	   0,0222336	-123,1
     144,252	   0,0166429	-129,0	   0,0214896	-128,9
     144,272	    0,016825	-128,3	   0,0227054	-128,2
     144,291	   0,0163021	-128,6	   0,0214438	-123,6
     144,311	   0,0165136	-130,9	   0,0212005	-131,1
      144,33	   0,0169003	-123,8	    0,022329	-128,5
      144,35	   0,0162264	-133,9	   0,0216214	-131,0
      144,37	   0,0168703	-128,5	   0,0214368	-131,2
     144,389	   0,0165777	-121,2	   0,0209342	-128,4
     144,409	   0,0157975	-125,8	   0,0204111	-126,1
     144,428	   0,0172125	-127,1	   0,0208831	-128,3
     144,448	   0,0161831	-130,1	   0,0213447	-124,5
     144,467	   0,0157122	-130,1	   0,0210774	-128,2
     144,487	   0,0159206	-124,7	   0,0203917	-127,8
     144,506	   0,0163196	-125,8	    0,021118	-127,7
     144,526	     0,01551	-131,4	   0,0197998	-130,9
     144,545	   0,0154477	-126,7	   0,0196561	-129,1
     144,565	   0,0160294	-134,2	    0,019962	-127,2
     144,585	   0,0164487	-130,0	   0,0195223	-125,7
     144,604	   0,0152561	-125,4	   0,0194901	-125,1
     144,624	   0,0158785	-126,9	   0,0200038	-126,4
     144,643	   0,0157627	-125,2	   0,0193259	-132,2
     144,663	    0,015216	-125,3	   0,0190925	-133,0
     144,682	   0,0146374	-130,7	   0,0192612	-130,7
     144,702	   0,0151688	-131,1	   0,0191478	-129,1
     144,721	   0,0148015	-126,8	   0,0186004	-125,8
     144,741	   0,0143998	-128,0	   0,0183405	-122,8
     144,761	   0,0147196	-133,0	     0,01893	-125,1
      144,78	   0,0147718	-134,0	   0,0182576	-128,1
       144,8	    0,014637	-117,8	   0,0189319	-124,8
     144,819	    0,014457	-127,3	   0,0183641	-128,8
     144,839	   0,0151721	-130,5	    0,018394	-120,6
     144,858	   0,0151996	-128,6	   0,0177508	-122,6
     144,878	   0,0149132	-130,9	    0,017293	-124,8
     144,897	   0,0144245	-127,0	   0,0178532	-132,2
     144,917	   0,0147133	-122,9	   0,0174673	-132,1
     144,936	   0,0152539	-128,6	   0,0182162	-121,3
     144,956	   0,0145287	-130,3	   0,0184623	-127,8
     144,976	   0,0141838	-128,3	   0,0177638	-125,3
     144,995	   0,0143913	-120,0	   0,0171387	-133,0
     145,015	   0,0139335	-127,7	   0,0175386	-128,7
     145,034	   0,0141425	-125,5	   0,0177713	-131,6
     145,054	   0,0141866	-127,0	    0,017504	-125,8
     145,073	   0,0133183	-126,7	   0,0164747	-128,7
     145,093	    0,014592	-128,2	   0,0171991	-129,5
     145,112	   0,0138391	-129,0	   0,0172809	-128,3
     145,132	   0,0140343	-122,2	   0,0161711	-133,2
     145,152	   0,0134563	-129,7	   0,0162414	-124,6
     145,171	   0,0140387	-127,6	   0,0162004	-129,0
     145,191	     0,01355	-126,0	   0,0168399	-129,5
      145,21	   0,0129213	-129,9	   0,0161524	-126,6
      145,23	   0,0135941	-131,6	   0,0157388	-124,5
     145,249	   0,0128738	-132,6	    0,016648	-124,3
     145,269	   0,0138953	-128,8	   0,0155663	-129,4
     145,288	   0,0134144	-125,1	   0,0159303	-127,7
     145,308	   0,0132814	-129,0	   0,0156834	-125,6
     145,327	   0,0133101	-127,0	   0,0157253	-124,9
     145,347	    0,013591	-130,6	   0,0157918	-122,3
     145,367	   0,0129169	-120,9	   0,0156367	-130,7
     145,386	   0,0130003	-129,0	   0,0155016	-127,0
     145,406	   0,0136311	-128,9	   0,0156883	-131,7
     145,425	   0,0136497	-123,0	   0,0155128	-120,3
     145,445	   0,0134835	-128,5	   0,0157388	-130,6
     145,464	   0,0130596	-122,0	   0,0150017	-126,3
     145,484	   0,0126906	-125,2	   0,0151414	-125,0
     145,503	    0,012399	-136,6	   0,0148726	-126,6
     145,523	   0,0121658	-125,0	   0,0147605	-126,9
     145,543	   0,0120272	-133,6	   0,0143791	-126,7
     145,562	   0,0125194	-132,7	   0,0145637	-125,6
     145,582	   0,0124976	-128,2	   0,0144121	-123,4
     145,601	    0,011938	-128,9	    0,015431	-126,8
     145,621	   0,0118699	-130,3	   0,0147746	-127,1
      145,64	   0,0117763	-124,6	   0,0150445	-129,3
      145,66	   0,0121076	-125,2	   0,0145413	-126,2
     145,679	   0,0122855	-120,8	   0,0151592	-128,4
     145,699	   0,0131374	-128,9	   0,0144745	-131,1
     145,718	   0,0130776	-124,4	   0,0142214	-126,7
     145,738	   0,0130115	-123,9	   0,0143855	-128,4
     145,758	     0,01286	-129,3	   0,0145853	-132,2
     145,777	   0,0115138	-126,4	   0,0144401	-123,8
     145,797	   0,0119526	-123,2	   0,0150016	-124,9
     145,816	   0,0127032	-122,2	    0,014378	-124,3
     145,836	   0,0119412	-125,5	   0,0135185	-122,7
     145,855	   0,0116528	-126,2	   0,0137401	-122,2
     145,875	   0,0128751	-125,7	    0,013283	-126,3
     145,894	   0,0116251	-130,0	   0,0138407	-131,6
     145,914	   0,0114105	-124,9	   0,0148433	-127,9
     145,934	   0,0126773	-122,3	   0,0141909	-117,6
     145,953	   0,0116676	-129,9	   0,0126442	-124,9
     145,973	    0,012123	-129,4	   0,0135009	-129,7
     145,992	    0,012439	-129,8	   0,0143424	-127,4
     146,012	   0,0115107	-132,1	   0,0119234	-121,9
     146,031	   0,0110899	-126,8	   0,0134561	-135,8
     146,051	   0,0121061	-124,6	   0,0135729	-128,8
      146,07	   0,0116358	-132,2	   0,0122646	-129,6
      146,09	   0,0118559	-121,2	   0,0138831	-121,2
     146,109	   0,0114559	-125,2	   0,0120804	-124,7
     146,129	   0,0123161	-128,4	   0,0140857	-123,3
     146,149	   0,0108774	-128,9	   0,0119087	-127,3
     146,168	   0,0114777	-132,0	   0,0138092	-132,5
     146,188	   0,0114336	-121,6	   0,0125886	-132,4
     146,207	   0,0106432	-127,5	   0,0126898	-130,0
     146,227	   0,0112255	-129,3	   0,0129698	-133,5
     146,246	    0,011919	-122,8	   0,0117837	-127,2
     146,266	      0,0107	-122,8	   0,0126823	-123,5
     146,285	   0,0108601	-125,7	   0,0126874	-122,8
     146,305	   0,0109184	-126,7	   0,0121021	-128,2
     146,325	   0,0118403	-129,7	   0,0130535	-129,7
     146,344	   0,0115146	-126,3	   0,0121303	-135,9
     146,364	   0,0113336	-127,7	   0,0117647	-126,1
     146,383	   0,0107018	-123,7	   0,0123501	-126,1
     146,403	   0,0107814	-129,0	   0,0127639	-126,6
     146,422	   0,0105042	-131,6	   0,0122241	-124,7
     146,442	   0,0109942	-130,4	   0,0119816	-129,5
     146,461	   0,0110972	-125,8	   0,0117176	-127,5
     146,481	   0,0104062	-130,6	   0,0118435	-125,7
       146,5	   0,0100795	-124,1	   0,0121205	-130,4
      146,52	   0,0100368	-125,6	   0,0124128	-125,5
      146,54	   0,0102363	-132,8	   0,0127626	-128,1
     146,559	  0,00993181	-131,9	   0,0123933	-124,4
     146,579	   0,0112444	-121,1	   0,0119072	-123,2
     146,598	   0,0106667	-129,8	   0,0114756	-126,4
     146,618	   0,0108919	-128,1	   0,0119362	-127,2
     146,637	   0,0104483	-124,7	   0,0118253	-129,0
     146,657	   0,0104577	-122,2	   0,0123115	-126,5
     146,676	   0,0108476	-127,9	   0,0121377	-126,0
     146,696	   0,0106149	-128,4	   0,0119242	-129,8
     146,716	   0,0107133	-118,3	   0,0115219	-120,3
     146,735	   0,0104987	-128,0	   0,0115759	-130,5
     146,755	   0,0108143	-124,6	   0,0116557	-121,9
     146,774	   0,0105225	-127,1	   0,0108829	-126,5
     146,794	   0,0103668	-123,8	   0,0111183	-123,6
     146,813	   0,0104507	-126,5	   0,0112936	-126,3
     146,833	  0,00971861	-132,1	   0,0110723	-132,1
     146,852	    0,010456	-122,2	   0,0105547	-131,1
     146,872	   0,0106118	-123,0	   0,0112147	-121,7
     146,891	    0,010054	-125,9	   0,0111931	-120,9
     146,911	    0,010142	-126,7	   0,0108923	-127,2
     146,931	  0,00991865	-123,2	   0,0109529	-125,1
      146,95	   0,0102204	-131,1	   0,0111667	-124,9
      146,97	   0,0102186	-121,9	   0,0103088	-125,2
     146,989	  0,00965499	-121,3	   0,0102746	-132,8
     147,009	   0,0104242	-124,3	   0,0109304	-124,2
     147,028	  0,00995137	-127,0	   0,0110025	-128,2
     147,048	   0,0101001	-126,0	   0,0113407	-123,7
     147,067	    0,009979	-127,0	   0,0108136	-123,6
     147,087	  0,00992183	-124,1	   0,0110975	-127,6
     147,107	  0,00967851	-129,0	    0,010657	-125,3
     147,126	   0,0101203	-126,1	   0,0108765	-121,0
     147,146	  0,00990096	-126,4	   0,0108878	-127,8
     147,165	  0,00955428	-128,5	   0,0103876	-131,1
     147,185	    0,009399	-128,1	   0,0107286	-127,3
     147,204	  0,00982934	-125,9	   0,0115286	-128,5
     147,224	   0,0100809	-126,6	   0,0103529	-123,2
     147,243	   0,0100151	-129,4	  0,00999285	-124,4
     147,263	  0,00954401	-125,6	   0,0108588	-124,9
     147,283	  0,00987915	-129,0	   0,0109767	-125,5
     147,302	  0,00980594	-129,0	   0,0100872	-132,9
     147,322	    0,010026	-131,8	   0,0099104	-129,6
     147,341	  0,00971558	-119,8	  0,00989609	-127,6
     147,361	  0,00980588	-120,4	  0,00988111	-128,0
      147,38	  0,00975808	-127,4	   0,0100508	-125,6
       147,4	  0,00944081	-129,8	   0,0103196	-128,7
     147,419	  0,00928197	-125,5	   0,0102125	-123,0
     147,439	  0,00977809	-128,1	   0,0102172	-119,7
     147,458	  0,00952261	-125,0	   0,0101864	-126,6
     147,478	  0,00945903	-125,6	  0,00950383	-127,0
     147,498	  0,00890529	-126,9	  0,00970138	-124,9
     147,517	  0,00908753	-127,7	  0,00987785	-129,3
     147,537	   0,0100595	-124,7	  0,00967831	-123,9
     147,556	  0,00986629	-128,0	  0,00958318	-125,7
     147,576	   0,0093406	-131,0	  0,00940803	-131,3
     147,595	  0,00887189	-123,1	    0,010187	-132,6
     147,615	  0,00920798	-129,6	  0,00965375	-123,2
     147,634	  0,00890275	-128,2	  0,00965634	-131,9
     147,654	  0,00871269	-123,6	   0,0095746	-119,9
     147,674	    0,009613	-124,0	   0,0100438	-128,9
     147,693	  0,00938178	-131,3	     0,01021	-125,8
     147,713	  0,00882265	-124,6	    0,009481	-124,6
     147,732	  0,00860289	-130,7	  0,00970551	-122,7
     147,752	  0,00900961	-124,8	  0,00973809	-124,8
     147,771	   0,0090137	-125,8	  0,00867687	-127,1
     147,791	  0,00925053	-122,5	  0,00961927	-131,6
      147,81	  0,00905565	-128,5	  0,00969393	-125,5
      147,83	  0,00927138	-124,0	  0,00935545	-126,0
     147,849	  0,00866609	-128,3	  0,00981883	-125,0
     147,869	  0,00902511	-128,7	   0,0090454	-127,8
     147,889	  0,00965329	-123,6	  0,00952901	-126,0
     147,908	  0,00867013	-128,4	  0,00883945	-133,9
     147,928	  0,00882683	-135,2	  0,00931254	-130,0
     147,947	  0,00913573	-126,7	  0,00914932	-128,4
     147,967	  0,00861349	-127,0	  0,00980968	-126,7
     147,986	  0,00916985	-126,9	  0,00914514	-126,3
     148,006	  0,00916726	-123,4	  0,00886954	-128,4
     148,025	  0,00923498	-127,9	  0,00926588	-127,2
     148,045	  0,00882996	-126,4	  0,00950363	-122,0
     148,065	  0,00891437	-122,7	  0,00901623	-118,8
     148,084	  0,00831215	-125,5	  0,00877857	-124,2
     148,104	  0,00852369	-128,1	  0,00961125	-125,9
     148,123	  0,00857709	-129,7	  0,00921304	-123,7
     148,143	  0,00817428	-130,0	  0,00897715	-125,5
     148,162	  0,00829166	-131,7	  0,00899443	-126,2
     148,182	  0,00891419	-128,7	    0,008688	-134,8
     148,201	  0,00842021	-129,7	  0,00882842	-125,6
     148,221	  0,00896312	-129,8	  0,00904835	-127,4
      148,24	  0,00842091	-135,2	  0,00918934	-124,5
      148,26	  0,00848915	-128,8	   0,0093311	-125,3
      148,28	  0,00829742	-130,6	  0,00934997	-123,3
     148,299	  0,00815099	-122,5	  0,00864276	-124,6
     148,319	  0,00817049	-123,7	  0,00870978	-127,3
     148,338	   0,0087105	-120,4	  0,00902453	-125,8
     148,358	   0,0088891	-120,4	  0,00841113	-127,9
     148,377	  0,00829829	-130,6	  0,00843881	-130,1
     148,397	   0,0083748	-126,9	  0,00879737	-127,7
     148,416	  0,00776054	-126,6	  0,00846273	-125,4
     148,436	  0,00856932	-120,9	   0,0094846	-120,4
     148,456	  0,00867718	-130,8	  0,00902316	-123,5
     148,475	  0,00836567	-129,7	  0,00841909	-126,2
     148,495	  0,00814236	-123,1	  0,00827565	-121,7
     148,514	  0,00835378	-125,5	  0,00872021	-127,7
     148,534	  0,00808945	-131,5	  0,00876548	-123,0
     148,553	   0,0073702	-130,2	  0,00864156	-133,6
     148,573	  0,00804425	-128,2	  0,00848398	-125,8
     148,592	  0,00845837	-128,1	  0,00863089	-128,5
     148,612	  0,00788867	-129,0	  0,00849265	-127,5
     148,631	  0,00842856	-129,9	  0,00866836	-121,9
     148,651	    0,008302	-126,2	  0,00831679	-126,7
     148,671	  0,00852516	-120,1	  0,00829323	-123,8
      148,69	  0,00792046	-131,1	   0,0088387	-122,5
      148,71	  0,00803354	-122,5	   0,0083989	-130,2
     148,729	   0,0083708	-124,7	  0,00882618	-127,2
     148,749	  0,00772629	-124,0	  0,00813525	-125,8
     148,768	  0,00836387	-129,5	  0,00854614	-129,1
     148,788	   0,0081912	-128,8	  0,00777992	-128,0
     148,807	  0,00790894	-131,8	  0,00859316	-127,3
     148,827	    0,008093	-124,3	  0,00838047	-128,9
     148,847	  0,00796081	-121,0	  0,00815534	-122,2
     148,866	   0,0077593	-122,2	  0,00852475	-126,1
     148,886	  0,00778675	-127,8	  0,00812843	-132,4
     148,905	  0,00773979	-127,8	  0,00808629	-123,5
     148,925	  0,00815205	-130,3	  0,00859681	-130,4
     148,944	  0,00789642	-129,4	  0,00802171	-130,4
     148,964	  0,00799299	-128,3	  0,00788628	-127,7
     148,983	  0,00741261	-125,6	  0,00773746	-126,4
     149,003	  0,00754769	-128,0	  0,00834391	-126,3
     149,022	  0,00768904	-129,3	  0,00822354	-128,9
     149,042	  0,00783429	-124,6	  0,00783264	-126,6
     149,062	  0,00820007	-130,6	  0,00808435	-124,7
     149,081	  0,00811671	-126,2	  0,00790161	-128,2
     149,101	  0,00799894	-128,5	  0,00754358	-123,9
      149,12	  0,00810343	-130,7	  0,00768579	-121,2
      149,14	   0,0076605	-126,0	  0,00757314	-127,9
     149,159	   0,0069815	-132,7	  0,00769735	-130,8
     149,179	  0,00767899	-128,1	  0,00825409	-118,2
     149,198	  0,00770449	-124,3	  0,00760512	-132,4
     149,218	  0,00762178	-123,8	  0,00742119	-127,2
     149,238	  0,00761133	-129,8	  0,00761632	-127,4
     149,257	  0,00767458	-127,6	  0,00754513	-123,6
     149,277	   0,0076904	-126,0	  0,00780587	-126,4
     149,296	  0,00740578	-123,3	   0,0081362	-128,6
     149,316	  0,00728629	-130,1	  0,00777869	-125,1
     149,335	   0,0076585	-119,3	  0,00764654	-125,3
     149,355	  0,00767796	-127,3	  0,00708893	-127,0
     149,374	  0,00717053	-131,6	  0,00806093	-128,8
     149,394	    0,007235	-123,6	  0,00786931	-126,6
     149,413	   0,0077104	-127,9	  0,00729885	-125,7
     149,433	  0,00770686	-122,2	  0,00746898	-130,7
     149,453	  0,00771785	-118,7	  0,00791608	-127,9
     149,472	  0,00751528	-128,0	  0,00751548	-132,8
     149,492	  0,00772994	-127,8	  0,00764307	-125,7
     149,511	  0,00743674	-121,5	    0,007232	-129,7
     149,531	  0,00741001	-125,5	  0,00707727	-132,4
      149,55	  0,00736504	-127,9	   0,0073065	-124,3
      149,57	  0,00750197	-124,6	  0,00689377	-125,0
     149,589	  0,00685488	-125,2	  0,00739297	-130,9
     149,609	  0,00752875	-125,3	  0,00778503	-123,4
     149,629	  0,00740279	-121,4	  0,00717829	-128,8
     149,648	   0,0070526	-125,2	  0,00765672	-129,3
     149,668	  0,00733669	-123,1	  0,00731898	-125,9
     149,687	  0,00772181	-123,3	    0,007404	-128,7
     149,707	  0,00701596	-126,6	   0,0071956	-129,9
     149,726	  0,00711678	-121,5	  0,00729926	-123,1
     149,746	  0,00714622	-126,2	  0,00696449	-125,8
     149,765	  0,00737772	-128,9	   0,0074865	-132,1
     149,785	  0,00684596	-123,9	  0,00721585	-126,7
     149,804	  0,00677688	-131,6	  0,00729107	-124,4
     149,824	  0,00708396	-125,1	  0,00696898	-132,5
     149,844	  0,00719014	-131,0	  0,00710738	-131,8
     149,863	  0,00686235	-131,8	  0,00720299	-132,2
     149,883	   0,0069773	-126,5	  0,00767219	-118,6
     149,902	  0,00696826	-131,3	    0,006925	-125,1
     149,922	  0,00718725	-123,0	  0,00748868	-127,4
     149,941	  0,00691183	-125,1	  0,00741489	-125,2
     149,961	  0,00710059	-127,5	  0,00707975	-128,4
      149,98	  0,00711458	-130,3	  0,00685117	-129,1
         150	  0,00670276	-125,6	  0,00711017	-127,3

