X-Data [Hz]	Laser (M - Filtered) [m/s]	Phase [Deg]	Laser (M - Filtered) [m/s]	Phase [Deg]	
	002: [07-09-24 17:21]		003: [07-09-24 17:24]	
        41,5	   0,0081027	76,4	   0,0081673	76,4
      41,502	  0,00804729	77,8	  0,00830378	77,8
     41,5039	  0,00798206	78,6	  0,00818768	75,5
     41,5059	  0,00811364	78,7	  0,00823252	77,4
     41,5078	  0,00818158	76,5	   0,0081931	76,7
     41,5098	  0,00824355	78,7	  0,00825863	79,6
     41,5117	   0,0083678	74,4	  0,00826433	77,6
     41,5137	  0,00828486	77,0	   0,0082995	75,5
     41,5156	  0,00825568	77,0	  0,00832237	76,4
     41,5176	  0,00823621	77,0	  0,00829551	76,2
     41,5196	  0,00834977	77,0	  0,00832896	77,3
     41,5215	  0,00836646	75,5	  0,00836191	76,0
     41,5235	  0,00832005	74,8	  0,00830658	78,5
     41,5254	  0,00832439	77,6	  0,00828127	76,2
     41,5274	   0,0084493	76,9	  0,00838911	75,2
     41,5293	  0,00849713	78,0	  0,00843553	78,1
     41,5313	  0,00835972	74,3	   0,0083842	77,1
     41,5332	  0,00829822	77,4	  0,00836512	77,7
     41,5352	  0,00842228	78,2	  0,00846201	76,0
     41,5371	  0,00850325	78,5	  0,00850803	78,9
     41,5391	  0,00843951	75,9	   0,0084774	78,4
     41,5411	  0,00835777	75,3	  0,00849678	77,3
      41,543	  0,00838924	79,4	    0,008473	80,2
      41,545	  0,00854971	75,6	  0,00842206	76,5
     41,5469	  0,00862569	77,4	  0,00839862	78,2
     41,5489	  0,00851736	76,0	  0,00847933	77,0
     41,5508	  0,00846581	76,6	  0,00856866	78,4
     41,5528	  0,00847819	78,7	  0,00856733	80,4
     41,5547	  0,00852187	76,2	  0,00847293	75,5
     41,5567	   0,0084946	79,8	  0,00850127	78,1
     41,5587	  0,00852487	81,0	  0,00857958	76,6
     41,5606	  0,00855342	77,6	  0,00858931	77,1
     41,5626	  0,00856235	78,4	  0,00855313	78,1
     41,5645	   0,0086688	76,3	  0,00860131	75,2
     41,5665	  0,00864499	79,2	  0,00861743	78,4
     41,5684	  0,00853191	75,7	  0,00859305	76,2
     41,5704	  0,00848275	79,2	  0,00870522	80,5
     41,5723	  0,00861464	76,6	  0,00871991	78,9
     41,5743	  0,00873922	75,8	  0,00864676	77,1
     41,5762	  0,00874951	78,7	  0,00881455	77,4
     41,5782	  0,00870221	76,9	  0,00872127	78,1
     41,5802	  0,00862201	80,1	  0,00865792	80,5
     41,5821	  0,00864783	78,3	  0,00872214	76,3
     41,5841	  0,00873373	78,4	  0,00878551	77,9
      41,586	  0,00877292	80,2	   0,0088408	75,3
      41,588	  0,00883735	76,3	  0,00879159	75,9
     41,5899	  0,00868697	80,4	  0,00869611	78,4
     41,5919	   0,0087091	79,4	  0,00872693	75,4
     41,5938	   0,0088413	77,2	   0,0088367	75,8
     41,5958	  0,00891599	78,3	  0,00886739	77,6
     41,5978	  0,00894336	74,9	  0,00879711	76,5
     41,5997	  0,00889003	77,9	  0,00890967	78,9
     41,6017	  0,00885049	77,6	  0,00886967	77,4
     41,6036	  0,00882301	75,9	  0,00882828	81,3
     41,6056	  0,00882822	77,4	  0,00884674	79,9
     41,6075	  0,00890514	76,4	  0,00897652	77,2
     41,6095	  0,00894727	80,9	  0,00893005	79,5
     41,6114	  0,00895448	78,0	  0,00889513	77,8
     41,6134	  0,00888494	78,4	  0,00888741	78,7
     41,6153	  0,00891002	80,5	  0,00878782	76,8
     41,6173	  0,00907593	77,6	  0,00887804	78,1
     41,6193	   0,0090421	78,4	  0,00897172	76,9
     41,6212	  0,00898041	77,4	  0,00901788	76,1
     41,6232	  0,00896674	78,9	  0,00900313	77,2
     41,6251	  0,00900394	78,1	  0,00905806	77,3
     41,6271	  0,00903192	75,5	  0,00908809	78,6
      41,629	  0,00893489	76,6	  0,00905807	77,6
      41,631	  0,00902599	77,1	  0,00899479	75,8
     41,6329	  0,00914423	82,2	   0,0089945	79,7
     41,6349	  0,00921725	80,3	  0,00900752	78,1
     41,6369	  0,00919804	77,1	  0,00912637	80,3
     41,6388	  0,00909649	78,1	  0,00914095	79,7
     41,6408	  0,00911945	77,7	   0,0091772	77,0
     41,6427	  0,00913471	77,2	  0,00917832	78,5
     41,6447	  0,00913906	78,4	  0,00904462	76,7
     41,6466	  0,00920166	78,4	  0,00909642	77,7
     41,6486	  0,00921823	80,2	  0,00923968	76,5
     41,6505	  0,00922453	75,1	  0,00934825	76,3
     41,6525	  0,00919653	75,9	  0,00930023	78,4
     41,6544	  0,00929403	80,2	  0,00920671	77,0
     41,6564	  0,00931627	76,9	  0,00925372	80,9
     41,6584	  0,00921772	80,0	  0,00930749	79,7
     41,6603	  0,00925267	78,5	  0,00932909	78,6
     41,6623	  0,00924744	79,7	  0,00926787	80,0
     41,6642	  0,00921626	78,7	  0,00928968	76,9
     41,6662	  0,00930307	79,4	  0,00928705	77,9
     41,6681	  0,00936441	82,7	  0,00934535	78,1
     41,6701	  0,00934825	80,5	  0,00936216	78,9
      41,672	   0,0093344	77,6	  0,00936919	80,5
      41,674	  0,00919405	79,6	  0,00952686	77,0
      41,676	   0,0093746	78,6	   0,0094668	79,2
     41,6779	  0,00953417	79,6	  0,00933935	78,2
     41,6799	  0,00953532	78,5	  0,00934594	80,1
     41,6818	    0,009489	77,9	  0,00940257	81,0
     41,6838	  0,00943674	77,3	  0,00949967	79,8
     41,6857	  0,00937727	76,6	  0,00962713	78,5
     41,6877	  0,00946343	83,0	  0,00962132	79,4
     41,6896	  0,00957833	80,1	  0,00956112	78,2
     41,6916	  0,00953186	79,6	  0,00953719	80,1
     41,6936	   0,0095168	81,1	  0,00952869	78,4
     41,6955	  0,00952282	77,1	  0,00953862	79,8
     41,6975	  0,00955807	77,5	   0,0095416	77,7
     41,6994	  0,00957537	78,1	  0,00958549	75,4
     41,7014	  0,00957446	78,6	  0,00966755	81,1
     41,7033	  0,00958714	83,1	  0,00964254	79,5
     41,7053	  0,00959933	78,2	  0,00965137	80,9
     41,7072	   0,0096542	81,0	  0,00971952	81,2
     41,7092	  0,00971138	79,2	  0,00968136	79,1
     41,7111	  0,00974842	77,4	  0,00959285	79,9
     41,7131	  0,00981499	81,7	  0,00974067	78,4
     41,7151	  0,00974603	80,0	  0,00973793	78,9
      41,717	   0,0096876	78,7	  0,00965113	81,6
      41,719	  0,00971386	81,2	  0,00973906	77,7
     41,7209	  0,00978201	77,3	  0,00977102	78,3
     41,7229	  0,00980975	79,1	  0,00981234	77,3
     41,7248	  0,00973589	78,7	  0,00985983	76,5
     41,7268	  0,00977762	79,1	  0,00992304	80,6
     41,7287	  0,00985545	81,4	  0,00985547	78,3
     41,7307	  0,00996981	78,7	  0,00983477	82,5
     41,7327	  0,00998638	80,8	  0,00988346	81,1
     41,7346	   0,0100076	79,8	  0,00993561	77,7
     41,7366	  0,00996157	77,9	  0,00988464	79,4
     41,7385	  0,00996182	81,4	  0,00988435	77,3
     41,7405	  0,00989602	80,6	  0,00999074	77,0
     41,7424	     0,00981	80,2	   0,0100003	82,0
     41,7444	  0,00991484	82,5	   0,0100192	79,8
     41,7463	   0,0099299	77,9	   0,0100947	79,4
     41,7483	  0,00997573	78,8	    0,010085	79,7
     41,7502	   0,0100334	80,5	   0,0100868	79,2
     41,7522	   0,0101183	79,8	   0,0100664	81,3
     41,7542	   0,0101606	82,3	   0,0100599	80,3
     41,7561	   0,0101143	79,6	   0,0100567	80,5
     41,7581	   0,0101413	78,5	   0,0101484	77,8
       41,76	   0,0101032	80,7	   0,0101578	77,9
      41,762	   0,0101271	79,1	   0,0101816	81,7
     41,7639	   0,0101964	81,4	   0,0101776	78,3
     41,7659	   0,0102522	82,7	   0,0102134	81,2
     41,7678	   0,0102213	80,7	   0,0103042	81,3
     41,7698	   0,0102711	80,6	   0,0104006	80,5
     41,7718	   0,0101573	77,2	   0,0103339	81,2
     41,7737	   0,0101371	78,6	   0,0102391	81,5
     41,7757	   0,0102322	81,8	    0,010186	80,3
     41,7776	    0,010331	78,6	   0,0102271	80,6
     41,7796	   0,0103996	79,9	   0,0103486	77,2
     41,7815	   0,0104286	80,8	   0,0103636	81,8
     41,7835	   0,0103906	80,2	   0,0104664	78,4
     41,7854	   0,0103628	81,6	   0,0104252	79,5
     41,7874	   0,0103815	79,9	   0,0104051	80,1
     41,7893	   0,0105073	80,9	   0,0104636	78,1
     41,7913	   0,0105023	81,0	    0,010609	81,2
     41,7933	   0,0105198	79,3	   0,0105396	84,2
     41,7952	   0,0105161	80,8	   0,0104943	79,4
     41,7972	   0,0104582	78,4	   0,0105206	81,2
     41,7991	   0,0104312	77,6	   0,0105576	81,7
     41,8011	   0,0103519	82,4	   0,0105247	77,2
      41,803	   0,0103765	81,8	   0,0105988	78,6
      41,805	   0,0104729	81,6	   0,0106508	80,5
     41,8069	   0,0105597	82,7	   0,0106942	79,2
     41,8089	   0,0107025	80,7	    0,010657	82,1
     41,8109	   0,0107263	79,4	   0,0106339	80,4
     41,8128	   0,0106558	80,2	   0,0106871	80,8
     41,8148	   0,0106484	78,8	   0,0107497	81,1
     41,8167	   0,0107045	83,5	   0,0107547	78,0
     41,8187	   0,0107857	81,4	   0,0108137	80,6
     41,8206	   0,0107955	82,1	   0,0108262	82,0
     41,8226	   0,0108276	83,2	   0,0109376	79,1
     41,8245	   0,0107741	79,0	   0,0108918	81,8
     41,8265	   0,0107118	80,2	   0,0107805	81,7
     41,8284	   0,0108234	81,0	   0,0108364	79,6
     41,8304	   0,0108497	80,5	   0,0109087	81,7
     41,8324	   0,0109315	84,3	   0,0110271	82,0
     41,8343	   0,0108917	81,0	    0,010983	83,8
     41,8363	   0,0109366	80,2	   0,0110043	79,9
     41,8382	   0,0109577	83,1	   0,0109946	80,0
     41,8402	   0,0109541	81,0	    0,010944	81,7
     41,8421	   0,0110275	81,4	   0,0109791	80,8
     41,8441	   0,0110295	80,8	   0,0110079	81,2
      41,846	   0,0110432	79,8	   0,0110499	81,8
      41,848	   0,0110119	81,3	   0,0111226	80,4
       41,85	   0,0110379	83,3	    0,011132	82,9
     41,8519	   0,0111004	80,9	   0,0111794	81,2
     41,8539	   0,0111075	81,9	   0,0111475	80,3
     41,8558	   0,0111244	81,6	   0,0111684	83,2
     41,8578	   0,0112089	80,8	   0,0111934	81,1
     41,8597	   0,0112669	82,6	   0,0112516	83,2
     41,8617	   0,0112339	80,2	   0,0111726	84,6
     41,8636	   0,0111705	81,7	   0,0112087	80,3
     41,8656	   0,0112295	82,9	   0,0113345	81,2
     41,8675	   0,0113244	81,3	   0,0114724	81,4
     41,8695	   0,0113528	81,9	   0,0114652	80,7
     41,8715	   0,0113253	82,8	   0,0113976	82,6
     41,8734	   0,0114541	81,8	    0,011401	81,6
     41,8754	   0,0114275	82,1	    0,011361	79,8
     41,8773	   0,0114983	81,3	   0,0114157	85,0
     41,8793	   0,0114591	81,1	   0,0113672	83,1
     41,8812	   0,0114597	82,0	   0,0114696	80,9
     41,8832	   0,0114013	82,7	   0,0115662	83,9
     41,8851	   0,0114164	83,6	   0,0115377	80,3
     41,8871	   0,0114973	83,2	     0,01154	79,9
     41,8891	   0,0115885	82,0	   0,0114932	82,8
      41,891	   0,0115893	81,7	   0,0115606	82,4
      41,893	    0,011653	82,8	   0,0117159	83,7
     41,8949	    0,011625	82,1	   0,0118121	84,2
     41,8969	   0,0116933	84,1	   0,0117583	81,4
     41,8988	   0,0117383	82,7	   0,0117316	82,6
     41,9008	   0,0118047	82,7	    0,011707	80,8
     41,9027	   0,0117732	83,7	   0,0117805	79,9
     41,9047	   0,0117563	83,7	   0,0118541	85,2
     41,9066	   0,0117347	82,5	   0,0118954	83,8
     41,9086	   0,0117909	85,1	   0,0119074	84,0
     41,9106	    0,011869	81,2	   0,0120066	83,1
     41,9125	    0,011834	80,3	   0,0119973	82,3
     41,9145	   0,0119107	83,1	   0,0120015	82,4
     41,9164	   0,0119386	81,9	   0,0120298	82,9
     41,9184	   0,0119434	84,2	   0,0120244	82,1
     41,9203	   0,0119059	85,4	   0,0119873	83,8
     41,9223	   0,0119592	82,9	   0,0120412	84,5
     41,9242	   0,0120553	83,4	   0,0121056	83,0
     41,9262	   0,0121192	82,5	   0,0121051	83,7
     41,9282	   0,0121462	81,1	    0,012173	82,7
     41,9301	   0,0121239	85,4	   0,0122115	81,0
     41,9321	   0,0120946	84,0	   0,0122205	82,1
      41,934	   0,0121195	84,2	   0,0121339	83,2
      41,936	   0,0122488	86,2	   0,0121987	80,7
     41,9379	   0,0123338	87,6	    0,012291	84,6
     41,9399	   0,0122488	82,7	   0,0123658	84,6
     41,9418	   0,0122634	84,1	   0,0124522	83,8
     41,9438	   0,0123299	81,9	   0,0124541	84,6
     41,9457	   0,0123707	80,9	   0,0124565	83,1
     41,9477	   0,0123571	85,0	   0,0124127	81,3
     41,9497	   0,0123827	83,9	   0,0124699	82,9
     41,9516	    0,012366	85,6	   0,0125566	84,2
     41,9536	    0,012409	86,4	   0,0126808	81,8
     41,9555	   0,0123701	82,1	   0,0126554	85,6
     41,9575	   0,0123937	84,3	   0,0126341	83,7
     41,9594	   0,0124713	84,8	   0,0125902	85,1
     41,9614	   0,0125393	82,6	   0,0125759	86,6
     41,9633	   0,0125737	85,4	   0,0126065	85,8
     41,9653	   0,0126052	85,7	   0,0126727	83,5
     41,9673	   0,0126359	83,2	   0,0127177	86,0
     41,9692	   0,0126629	85,3	   0,0128181	82,9
     41,9712	   0,0126637	83,5	   0,0128081	83,3
     41,9731	   0,0126433	84,3	   0,0128519	86,0
     41,9751	   0,0128043	85,4	   0,0128735	84,2
      41,977	   0,0128518	84,5	   0,0129168	85,9
      41,979	   0,0128759	84,5	   0,0129377	87,5
     41,9809	   0,0129039	85,8	   0,0129748	81,9
     41,9829	   0,0129889	85,9	   0,0130229	85,4
     41,9848	   0,0130146	84,5	   0,0130039	83,8
     41,9868	   0,0129764	86,4	   0,0130759	83,2
     41,9888	   0,0129577	85,4	   0,0131594	83,4
     41,9907	   0,0130562	84,6	   0,0131659	85,8
     41,9927	     0,01307	84,9	    0,013188	84,7
     41,9946	   0,0131243	86,9	   0,0132021	86,5
     41,9966	   0,0131939	84,1	   0,0132352	87,1
     41,9985	    0,013134	87,1	    0,013288	83,9
     42,0005	   0,0130801	85,8	   0,0133017	85,3
     42,0024	   0,0131371	82,3	   0,0133584	84,3
     42,0044	   0,0131362	87,5	   0,0133886	85,7
     42,0064	   0,0132557	86,0	   0,0133941	85,6
     42,0083	   0,0133767	87,2	   0,0134149	84,6
     42,0103	   0,0134953	86,2	   0,0135198	83,3
     42,0122	   0,0134513	83,4	    0,013556	86,1
     42,0142	   0,0134571	82,8	   0,0137285	85,2
     42,0161	   0,0135221	88,2	   0,0136807	84,7
     42,0181	   0,0135026	85,6	   0,0135717	86,3
       42,02	   0,0135288	87,5	   0,0135715	86,8
      42,022	   0,0136466	89,6	   0,0136143	84,5
     42,0239	   0,0136749	84,7	   0,0137016	85,8
     42,0259	   0,0136866	85,2	   0,0137802	86,4
     42,0279	   0,0137112	84,9	   0,0136923	85,8
     42,0298	   0,0137075	85,1	   0,0137928	87,7
     42,0318	   0,0137253	87,4	    0,013882	86,2
     42,0337	   0,0137478	87,2	   0,0139384	86,3
     42,0357	   0,0137661	86,1	   0,0139924	86,9
     42,0376	   0,0138774	87,4	   0,0140689	81,5
     42,0396	   0,0139063	88,0	   0,0140441	84,7
     42,0415	   0,0139481	86,0	   0,0141446	89,1
     42,0435	   0,0139143	88,3	   0,0141595	87,8
     42,0455	   0,0139928	87,3	   0,0142838	86,6
     42,0474	   0,0140246	86,9	   0,0143073	89,2
     42,0494	   0,0140582	87,8	   0,0143379	89,0
     42,0513	   0,0141096	88,5	   0,0143514	85,6
     42,0533	   0,0142464	86,2	   0,0143373	88,6
     42,0552	   0,0142977	86,9	   0,0144349	85,2
     42,0572	    0,014346	89,2	   0,0145205	85,2
     42,0591	   0,0143484	87,6	   0,0145294	88,2
     42,0611	    0,014326	85,8	   0,0145713	88,1
      42,063	   0,0142465	89,3	   0,0146054	86,4
      42,065	   0,0144011	85,0	   0,0145501	87,8
      42,067	   0,0145174	87,3	   0,0146318	89,4
     42,0689	   0,0145418	87,8	   0,0146687	88,1
     42,0709	   0,0145609	86,5	   0,0147195	88,7
     42,0728	   0,0145783	86,9	   0,0148353	87,4
     42,0748	   0,0146362	90,0	   0,0148051	84,4
     42,0767	   0,0146066	88,2	   0,0148888	87,8
     42,0787	   0,0146946	88,6	   0,0148861	88,5
     42,0806	   0,0147445	88,8	   0,0149291	86,1
     42,0826	   0,0148162	85,9	   0,0150103	89,1
     42,0846	   0,0148424	86,3	   0,0150831	89,5
     42,0865	   0,0149185	89,8	   0,0151144	86,9
     42,0885	   0,0149914	87,0	   0,0150637	88,2
     42,0904	   0,0150531	89,4	   0,0152121	88,5
     42,0924	   0,0150495	91,1	    0,015274	88,1
     42,0943	   0,0151091	86,9	   0,0151708	90,2
     42,0963	   0,0151376	89,0	   0,0152187	89,7
     42,0982	   0,0151998	89,3	   0,0153267	87,6
     42,1002	   0,0152435	86,9	   0,0153799	87,5
     42,1021	   0,0152101	87,9	    0,015436	90,3
     42,1041	   0,0152376	90,2	   0,0154988	87,7
     42,1061	   0,0153106	88,7	   0,0155691	91,1
      42,108	   0,0153599	88,6	   0,0156664	91,8
       42,11	   0,0154273	89,6	   0,0157686	87,7
     42,1119	   0,0154905	91,0	   0,0157818	90,7
     42,1139	   0,0155231	88,6	   0,0158723	91,5
     42,1158	   0,0155563	92,7	   0,0158562	87,6
     42,1178	   0,0156135	91,4	   0,0159052	87,6
     42,1197	   0,0155783	88,3	   0,0159071	89,2
     42,1217	   0,0156644	90,3	   0,0160068	90,4
     42,1237	   0,0156998	89,1	   0,0160401	88,7
     42,1256	   0,0158083	87,9	   0,0159524	89,4
     42,1276	   0,0159114	91,7	   0,0160899	90,6
     42,1295	   0,0159392	91,7	   0,0162848	90,7
     42,1315	   0,0159447	90,3	   0,0162945	92,5
     42,1334	   0,0159934	90,9	   0,0162698	90,8
     42,1354	   0,0160356	92,0	   0,0163247	89,8
     42,1373	   0,0160864	90,7	   0,0164025	91,1
     42,1393	   0,0161462	90,6	   0,0164751	90,7
     42,1413	   0,0161743	92,9	   0,0165526	89,1
     42,1432	    0,016192	90,4	   0,0166216	91,3
     42,1452	   0,0162633	89,2	   0,0166564	91,8
     42,1471	   0,0164028	89,6	   0,0167534	89,7
     42,1491	   0,0163948	90,2	   0,0167892	90,8
      42,151	   0,0164821	92,7	   0,0167865	95,3
      42,153	   0,0164668	93,8	   0,0168286	92,6
     42,1549	   0,0165436	91,0	   0,0168854	92,3
     42,1569	   0,0166391	91,8	    0,016962	93,1
     42,1588	   0,0167262	92,2	    0,016967	92,5
     42,1608	   0,0167736	91,9	   0,0170551	90,7
     42,1628	   0,0168163	91,2	   0,0171444	92,5
     42,1647	   0,0168604	92,4	    0,017162	90,0
     42,1667	   0,0167869	93,9	   0,0172473	89,5
     42,1686	   0,0169218	89,8	   0,0172474	91,4
     42,1706	   0,0169439	92,5	   0,0173094	93,2
     42,1725	   0,0170041	92,5	   0,0173656	91,4
     42,1745	    0,017104	92,4	   0,0175049	94,1
     42,1764	   0,0172207	95,1	   0,0176109	93,9
     42,1784	   0,0172859	94,8	   0,0176732	92,6
     42,1804	   0,0173516	92,1	    0,017764	91,5
     42,1823	   0,0173493	93,2	   0,0178664	93,6
     42,1843	   0,0174299	95,2	   0,0178532	93,8
     42,1862	   0,0175521	93,7	   0,0178713	92,9
     42,1882	   0,0175711	93,2	   0,0179137	95,2
     42,1901	   0,0176071	94,4	   0,0179296	92,7
     42,1921	   0,0176061	92,7	   0,0180023	90,0
      42,194	   0,0176763	91,4	    0,018078	92,5
      42,196	   0,0177903	96,3	   0,0181162	95,1
     42,1979	   0,0178546	95,6	    0,018252	94,7
     42,1999	   0,0179108	94,5	   0,0182791	95,0
     42,2019	   0,0179393	96,2	   0,0184106	96,3
     42,2038	   0,0180296	95,0	   0,0185416	92,6
     42,2058	   0,0180936	94,0	   0,0186075	95,5
     42,2077	   0,0181327	95,2	    0,018656	96,2
     42,2097	   0,0182024	96,6	   0,0186914	95,8
     42,2116	   0,0182828	95,0	   0,0187969	93,0
     42,2136	   0,0184227	93,7	   0,0188783	95,2
     42,2155	   0,0184734	94,4	   0,0188963	94,2
     42,2175	   0,0185573	95,9	   0,0189608	92,9
     42,2195	   0,0186014	92,4	   0,0189839	97,4
     42,2214	   0,0186744	96,6	   0,0190734	95,3
     42,2234	   0,0187133	96,3	   0,0191907	93,6
     42,2253	   0,0187113	96,4	   0,0192502	95,3
     42,2273	   0,0188253	99,0	   0,0193385	98,9
     42,2292	   0,0189418	98,7	   0,0194364	96,8
     42,2312	   0,0189744	98,0	   0,0195172	96,6
     42,2331	   0,0190823	96,7	    0,019561	98,8
     42,2351	   0,0191326	98,6	   0,0196778	94,1
      42,237	   0,0192462	94,2	   0,0197609	94,8
      42,239	   0,0192394	95,1	   0,0198396	98,3
      42,241	   0,0193045	99,9	   0,0198528	98,7
     42,2429	   0,0193916	101,0	   0,0199007	96,3
     42,2449	    0,019568	96,5	   0,0199167	95,6
     42,2468	   0,0196315	95,1	   0,0200163	99,0
     42,2488	   0,0197813	100,1	   0,0201269	96,8
     42,2507	   0,0198319	98,3	   0,0201858	100,3
     42,2527	   0,0199201	99,0	   0,0203053	101,2
     42,2546	   0,0198841	101,2	   0,0204071	96,9
     42,2566	   0,0200117	97,7	   0,0204935	97,8
     42,2586	   0,0201051	98,2	   0,0206144	98,1
     42,2605	   0,0200954	99,5	    0,020686	98,5
     42,2625	   0,0200938	100,5	   0,0208142	97,8
     42,2644	   0,0201819	96,3	   0,0208949	98,3
     42,2664	   0,0202315	98,3	   0,0209339	99,1
     42,2683	   0,0203359	100,1	   0,0209632	99,3
     42,2703	   0,0204825	99,6	   0,0210696	96,4
     42,2722	   0,0205928	100,4	   0,0212099	99,9
     42,2742	   0,0207181	101,3	   0,0213629	100,4
     42,2761	    0,020699	100,2	   0,0214415	99,5
     42,2781	   0,0207481	99,8	   0,0215171	100,6
     42,2801	   0,0208126	103,7	   0,0215912	102,2
      42,282	   0,0208398	103,4	   0,0216932	100,7
      42,284	    0,021031	100,0	   0,0218841	101,7
     42,2859	   0,0211784	101,8	   0,0219072	103,0
     42,2879	   0,0213092	101,8	   0,0220167	101,0
     42,2898	   0,0213198	102,3	   0,0221128	101,0
     42,2918	    0,021433	100,1	   0,0221844	102,9
     42,2937	   0,0215077	102,2	   0,0223239	103,1
     42,2957	   0,0216191	101,8	   0,0223857	100,0
     42,2977	   0,0217379	100,2	   0,0225023	100,9
     42,2996	   0,0217802	103,4	   0,0225402	103,9
     42,3016	   0,0217741	104,0	   0,0226533	102,9
     42,3035	   0,0218212	102,7	   0,0227611	104,6
     42,3055	   0,0219434	103,9	   0,0229418	104,6
     42,3074	   0,0219955	104,4	   0,0230537	102,9
     42,3094	   0,0222126	105,2	   0,0231444	104,1
     42,3113	   0,0223176	103,4	   0,0231216	107,7
     42,3133	   0,0223908	106,0	   0,0232377	106,6
     42,3153	   0,0224406	106,0	   0,0233981	103,5
     42,3172	    0,022522	104,7	   0,0235635	105,0
     42,3192	    0,022629	104,4	   0,0236528	107,1
     42,3211	    0,022762	107,2	   0,0237458	105,5
     42,3231	   0,0228469	105,3	   0,0238739	103,4
      42,325	   0,0228339	103,5	   0,0239718	106,5
      42,327	   0,0229404	104,7	   0,0240989	104,8
     42,3289	   0,0230737	106,6	   0,0242015	104,4
     42,3309	   0,0231752	107,0	   0,0242677	109,8
     42,3328	   0,0232993	104,3	   0,0243023	108,7
     42,3348	   0,0233537	105,8	   0,0244566	106,2
     42,3368	   0,0235391	106,4	   0,0245323	107,0
     42,3387	   0,0236099	105,5	   0,0246421	107,8
     42,3407	   0,0237057	109,5	   0,0247455	109,0
     42,3426	   0,0237074	112,2	   0,0248701	107,7
     42,3446	   0,0239628	107,4	    0,024989	110,0
     42,3465	   0,0240869	108,5	   0,0251105	111,7
     42,3485	   0,0241261	110,7	   0,0252076	111,0
     42,3504	    0,024213	110,3	   0,0252883	110,5
     42,3524	   0,0242869	108,6	   0,0254079	111,0
     42,3544	   0,0243587	109,3	   0,0254948	111,9
     42,3563	   0,0244942	110,9	   0,0256581	108,1
     42,3583	   0,0245189	110,9	   0,0258103	108,0
     42,3602	   0,0246731	109,9	   0,0258692	111,3
     42,3622	   0,0247056	110,2	   0,0259267	111,3
     42,3641	    0,024767	111,4	   0,0260571	111,4
     42,3661	   0,0248983	108,7	     0,02621	111,0
      42,368	   0,0250279	109,9	   0,0263754	110,9
       42,37	   0,0252379	114,0	    0,026524	110,2
     42,3719	    0,025325	113,7	   0,0267061	113,9
     42,3739	   0,0254999	112,1	   0,0267653	115,4
     42,3759	   0,0255852	115,2	   0,0268765	113,8
     42,3778	   0,0256269	114,7	   0,0269305	113,5
     42,3798	    0,025741	113,5	   0,0270589	118,6
     42,3817	   0,0258213	113,9	   0,0271534	117,4
     42,3837	   0,0260028	117,6	   0,0272915	114,0
     42,3856	    0,026079	116,7	   0,0274032	114,8
     42,3876	   0,0261755	114,0	   0,0275653	117,1
     42,3895	    0,026285	114,6	   0,0276037	116,7
     42,3915	   0,0263634	116,5	   0,0276834	114,6
     42,3935	   0,0264914	116,3	   0,0277714	117,2
     42,3954	   0,0266317	116,0	   0,0279988	115,9
     42,3974	   0,0267582	117,8	   0,0280842	115,8
     42,3993	    0,026828	116,1	   0,0281625	116,5
     42,4013	   0,0269859	115,4	   0,0282883	119,1
     42,4032	   0,0270701	116,1	   0,0283607	121,2
     42,4052	   0,0271252	119,4	   0,0284773	116,8
     42,4071	   0,0272679	116,8	   0,0286406	118,1
     42,4091	   0,0272965	115,9	    0,028781	121,4
      42,411	    0,027452	119,8	   0,0288685	121,0
      42,413	   0,0275222	120,5	    0,028953	119,6
      42,415	   0,0276543	118,4	   0,0291403	120,9
     42,4169	   0,0277508	119,2	   0,0292723	122,5
     42,4189	   0,0278694	119,1	   0,0293095	121,6
     42,4208	   0,0280331	122,4	   0,0294997	123,3
     42,4228	   0,0281558	121,1	   0,0295152	125,9
     42,4247	    0,028208	122,5	   0,0295881	122,7
     42,4267	   0,0282598	121,5	   0,0296667	123,0
     42,4286	   0,0283865	124,3	    0,029819	127,3
     42,4306	   0,0284544	123,4	   0,0298758	126,8
     42,4326	   0,0284985	122,6	   0,0300513	123,7
     42,4345	   0,0285941	125,1	   0,0301289	123,2
     42,4365	   0,0287686	126,1	   0,0301935	127,8
     42,4384	   0,0289154	123,5	   0,0303126	128,2
     42,4404	   0,0290117	123,4	   0,0304424	123,7
     42,4423	   0,0290577	125,6	   0,0305213	125,3
     42,4443	   0,0292347	124,7	   0,0305966	129,2
     42,4462	   0,0294596	123,9	   0,0306612	125,8
     42,4482	   0,0295796	126,6	   0,0307399	124,9
     42,4501	   0,0297193	126,0	   0,0308708	126,4
     42,4521	   0,0297487	125,2	   0,0309836	130,4
     42,4541	   0,0297819	126,4	   0,0310608	129,1
      42,456	   0,0298466	125,9	   0,0311247	130,3
      42,458	   0,0300095	128,5	   0,0311685	129,9
     42,4599	   0,0299966	127,9	   0,0312291	131,1
     42,4619	   0,0302119	127,0	    0,031292	130,7
     42,4638	   0,0302107	129,8	   0,0313235	133,3
     42,4658	   0,0303499	130,7	   0,0313353	133,3
     42,4677	    0,030386	129,8	   0,0314053	133,8
     42,4697	   0,0305023	131,4	   0,0314864	132,3
     42,4717	   0,0306482	130,9	   0,0315502	131,6
     42,4736	   0,0307564	131,3	   0,0316494	135,5
     42,4756	   0,0307611	131,3	   0,0316971	136,1
     42,4775	   0,0309035	134,9	   0,0317788	133,0
     42,4795	   0,0309957	135,3	   0,0318499	136,3
     42,4814	   0,0311058	133,7	   0,0319102	135,5
     42,4834	   0,0311265	133,9	   0,0319611	135,2
     42,4853	   0,0312037	134,7	   0,0320341	135,8
     42,4873	    0,031285	137,3	   0,0320889	138,0
     42,4892	      0,0313	135,0	   0,0320955	138,9
     42,4912	   0,0313926	136,4	   0,0321863	135,2
     42,4932	   0,0314659	138,5	   0,0322597	136,8
     42,4951	   0,0314619	140,6	   0,0323549	138,1
     42,4971	   0,0315187	141,0	   0,0323209	137,6
      42,499	   0,0316469	135,7	   0,0323547	137,0
      42,501	   0,0316826	137,7	   0,0324073	139,9
     42,5029	    0,031683	139,1	   0,0324438	138,9
     42,5049	   0,0317279	139,7	   0,0325079	140,9
     42,5068	   0,0318045	138,3	   0,0325482	138,8
     42,5088	   0,0318215	141,8	   0,0325504	138,6
     42,5108	   0,0318438	142,2	   0,0325573	143,7
     42,5127	   0,0318637	138,9	   0,0325265	143,7
     42,5147	   0,0319308	140,3	   0,0325761	140,9
     42,5166	   0,0320263	142,0	   0,0325472	141,8
     42,5186	   0,0321575	143,8	   0,0325997	145,9
     42,5205	   0,0323035	141,7	   0,0326905	144,9
     42,5225	   0,0322875	141,5	   0,0326775	144,5
     42,5244	   0,0323453	143,4	   0,0327362	143,2
     42,5264	   0,0322508	143,7	   0,0327076	147,3
     42,5283	    0,032304	141,6	   0,0327207	146,9
     42,5303	   0,0323579	140,9	   0,0327745	146,9
     42,5323	   0,0323619	145,9	   0,0328406	146,6
     42,5342	    0,032392	145,8	   0,0329023	147,6
     42,5362	   0,0324619	145,3	   0,0328369	148,1
     42,5381	   0,0325056	145,6	   0,0328229	147,4
     42,5401	    0,032544	149,3	   0,0327728	150,2
      42,542	   0,0326004	149,7	   0,0328647	148,4
      42,544	   0,0326121	147,8	   0,0328033	151,0
     42,5459	   0,0326319	146,7	   0,0327262	147,7
     42,5479	   0,0327105	150,8	   0,0327342	151,1
     42,5499	   0,0327691	151,6	   0,0327278	149,1
     42,5518	   0,0327668	150,7	   0,0327632	151,1
     42,5538	   0,0327816	148,3	   0,0327669	149,9
     42,5557	   0,0327224	149,1	   0,0327845	152,8
     42,5577	   0,0327906	154,1	    0,032774	154,5
     42,5596	   0,0328226	151,5	   0,0327993	150,5
     42,5616	   0,0327779	149,6	   0,0327371	151,6
     42,5635	   0,0327897	153,4	   0,0327732	153,2
     42,5655	   0,0327489	154,0	   0,0326893	154,6
     42,5674	   0,0327209	153,1	   0,0326635	153,7
     42,5694	   0,0327277	154,3	   0,0326835	153,1
     42,5714	   0,0326623	156,0	   0,0326393	153,8
     42,5733	    0,032638	156,5	   0,0326233	154,2
     42,5753	   0,0325706	156,8	   0,0326022	155,0
     42,5772	   0,0325929	156,1	    0,032536	152,9
     42,5792	   0,0326009	157,1	   0,0324943	155,4
     42,5811	   0,0326034	159,7	   0,0325113	157,1
     42,5831	   0,0325138	156,3	    0,032492	155,8
      42,585	   0,0325169	157,2	   0,0325073	155,7
      42,587	   0,0325144	159,3	   0,0324012	159,1
      42,589	    0,032636	160,5	   0,0324487	158,5
     42,5909	   0,0326012	157,9	   0,0323995	157,2
     42,5929	   0,0325305	159,5	   0,0323614	157,6
     42,5948	   0,0325224	160,2	   0,0323181	157,5
     42,5968	   0,0325142	161,5	   0,0323409	161,1
     42,5987	   0,0324519	162,7	   0,0322413	160,3
     42,6007	   0,0323622	158,8	   0,0321613	158,8
     42,6026	   0,0323267	159,5	   0,0321893	162,5
     42,6046	   0,0322899	163,1	   0,0321424	161,7
     42,6065	   0,0322711	163,2	   0,0320823	160,4
     42,6085	   0,0321593	162,8	   0,0320124	161,7
     42,6105	   0,0321819	160,7	    0,031934	162,1
     42,6124	   0,0321883	162,7	     0,03189	163,4
     42,6144	   0,0321522	164,9	   0,0318286	164,4
     42,6163	   0,0321039	163,6	   0,0318082	161,5
     42,6183	   0,0320656	161,9	   0,0317141	165,0
     42,6202	   0,0319891	163,7	   0,0316512	165,4
     42,6222	     0,03195	164,5	   0,0315436	166,1
     42,6241	   0,0318757	166,6	   0,0314496	164,8
     42,6261	    0,031834	166,6	   0,0314009	166,4
     42,6281	   0,0317384	164,5	   0,0313726	164,5
       42,63	   0,0317108	167,0	   0,0313144	168,3
      42,632	   0,0316899	167,2	   0,0313132	166,7
     42,6339	   0,0317077	168,4	   0,0312843	166,0
     42,6359	   0,0317191	165,9	   0,0311791	165,2
     42,6378	   0,0316445	167,2	   0,0310976	169,4
     42,6398	   0,0316274	169,9	   0,0310473	169,3
     42,6417	   0,0315431	171,0	   0,0310046	165,3
     42,6437	   0,0314933	165,9	   0,0309619	165,8
     42,6456	   0,0314247	168,5	   0,0308778	170,4
     42,6476	   0,0313338	170,5	   0,0308783	169,7
     42,6496	   0,0312626	171,3	   0,0308072	168,9
     42,6515	    0,031147	168,6	   0,0307985	168,6
     42,6535	    0,031134	169,0	   0,0306854	171,9
     42,6554	   0,0311152	171,4	   0,0306468	171,2
     42,6574	   0,0310148	171,3	   0,0305817	170,4
     42,6593	   0,0309564	168,2	   0,0305004	170,5
     42,6613	   0,0308857	170,5	   0,0304473	173,3
     42,6632	   0,0307888	172,8	    0,030356	174,2
     42,6652	   0,0307715	173,6	    0,030349	172,9
     42,6672	   0,0306578	174,0	   0,0302204	171,4
     42,6691	   0,0305839	171,1	    0,030162	169,8
     42,6711	   0,0305577	173,2	   0,0300503	174,3
      42,673	    0,030539	175,5	   0,0299707	174,3
      42,675	   0,0303842	176,5	   0,0299281	174,0
     42,6769	   0,0302572	173,7	    0,029928	172,0
     42,6789	   0,0301323	174,9	    0,029807	173,8
     42,6808	   0,0300554	175,7	   0,0297602	173,9
     42,6828	   0,0300081	177,5	    0,029619	174,6
     42,6847	   0,0299585	177,3	    0,029557	174,2
     42,6867	   0,0299451	173,9	   0,0294773	174,4
     42,6887	   0,0298874	175,4	   0,0294001	174,3
     42,6906	   0,0298397	178,7	   0,0293607	178,8
     42,6926	   0,0297733	179,7	    0,029333	176,1
     42,6945	    0,029709	175,7	   0,0291393	175,6
     42,6965	   0,0295982	175,5	   0,0290595	175,1
     42,6984	   0,0294616	179,2	   0,0289612	179,6
     42,7004	   0,0294001	179,8	   0,0289261	178,5
     42,7023	   0,0293133	180,3	   0,0288049	176,3
     42,7043	   0,0292475	177,9	   0,0287579	175,9
     42,7063	   0,0292026	178,3	   0,0287396	181,1
     42,7082	   0,0291363	181,3	   0,0287534	180,1
     42,7102	   0,0290126	181,9	   0,0286297	180,1
     42,7121	   0,0290385	179,2	   0,0285553	176,5
     42,7141	   0,0290207	179,4	   0,0284573	177,0
      42,716	   0,0288593	180,9	   0,0283833	180,5
      42,718	   0,0288102	183,2	   0,0283611	181,0
     42,7199	   0,0287379	183,3	   0,0282507	178,8
     42,7219	   0,0286006	180,6	    0,028148	179,0
     42,7239	   0,0285708	181,4	   0,0280204	180,4
     42,7258	   0,0285318	184,6	   0,0280161	178,6
     42,7278	   0,0284218	184,3	   0,0278629	179,9
     42,7297	   0,0283876	182,8	   0,0278431	179,2
     42,7317	   0,0282632	182,3	   0,0276718	180,9
     42,7336	   0,0280738	184,7	   0,0276261	180,6
     42,7356	   0,0280168	186,3	   0,0275809	181,5
     42,7375	   0,0279446	184,4	   0,0275153	181,4
     42,7395	   0,0278672	184,6	   0,0273437	180,6
     42,7414	   0,0277785	185,7	   0,0273515	179,3
     42,7434	   0,0277181	185,2	   0,0273056	183,7
     42,7454	   0,0276524	186,6	   0,0271743	185,6
     42,7473	   0,0275714	185,4	   0,0270365	181,3
     42,7493	   0,0274652	184,4	    0,026996	182,9
     42,7512	   0,0273731	186,0	   0,0269957	185,2
     42,7532	   0,0273149	187,5	   0,0268875	185,3
     42,7551	   0,0271718	188,6	   0,0267536	184,3
     42,7571	   0,0270105	185,5	   0,0267776	184,5
      42,759	   0,0269465	186,9	   0,0266162	184,7
      42,761	   0,0269111	188,9	   0,0265582	185,8
      42,763	   0,0269097	188,7	   0,0264813	186,6
     42,7649	   0,0268301	187,8	   0,0264042	186,5
     42,7669	   0,0266554	187,6	    0,026363	184,4
     42,7688	   0,0266544	185,8	   0,0262867	186,9
     42,7708	   0,0266256	190,2	   0,0261884	188,9
     42,7727	   0,0265578	187,2	   0,0261615	189,2
     42,7747	   0,0264461	187,7	   0,0260001	186,0
     42,7766	   0,0263052	187,1	   0,0258739	186,8
     42,7786	   0,0262778	187,5	   0,0258068	188,8
     42,7805	   0,0261986	188,1	   0,0257416	190,6
     42,7825	   0,0260606	191,5	   0,0256499	188,3
     42,7845	   0,0259835	188,0	   0,0255745	190,0
     42,7864	   0,0258301	187,8	   0,0255737	188,5
     42,7884	   0,0258402	187,5	   0,0254154	189,8
     42,7903	   0,0257837	191,6	   0,0252957	190,1
     42,7923	   0,0256758	190,8	   0,0252309	192,3
     42,7942	   0,0255629	189,0	   0,0252112	189,9
     42,7962	   0,0255427	188,1	   0,0251191	191,9
     42,7981	    0,025509	189,4	   0,0250916	192,0
     42,8001	   0,0253548	191,4	   0,0249688	193,1
     42,8021	   0,0253176	190,8	   0,0249294	191,2
      42,804	   0,0251982	192,6	   0,0249196	190,3
      42,806	   0,0250953	188,8	   0,0248827	190,8
     42,8079	   0,0249988	191,5	   0,0247026	193,2
     42,8099	   0,0248803	193,6	   0,0246406	192,8
     42,8118	   0,0247797	195,4	   0,0245513	191,3
     42,8138	   0,0247372	192,5	   0,0244617	189,9
     42,8157	   0,0247101	192,5	    0,024313	192,2
     42,8177	   0,0246129	193,5	   0,0242751	193,2
     42,8196	   0,0245519	195,8	   0,0242111	192,4
     42,8216	   0,0244125	194,2	   0,0241227	192,1
     42,8236	   0,0243272	194,7	   0,0240073	192,7
     42,8255	   0,0242383	192,6	   0,0239228	191,5
     42,8275	    0,024168	195,9	   0,0238865	195,2
     42,8294	   0,0240688	196,7	   0,0238396	194,0
     42,8314	   0,0240222	197,1	   0,0237464	191,8
     42,8333	   0,0239731	194,9	   0,0236919	191,2
     42,8353	    0,023888	194,9	   0,0235664	193,7
     42,8372	   0,0237446	197,5	   0,0235495	193,5
     42,8392	   0,0237281	196,9	   0,0235357	194,6
     42,8412	   0,0235468	196,6	   0,0234654	193,9
     42,8431	   0,0235212	196,8	   0,0233174	194,8
     42,8451	   0,0235029	194,8	   0,0232296	194,9
      42,847	   0,0233888	196,0	   0,0232346	195,7
      42,849	   0,0233763	195,6	   0,0231602	195,8
     42,8509	   0,0232585	197,7	   0,0229759	197,8
     42,8529	   0,0232096	196,5	    0,022899	195,0
     42,8548	   0,0231107	196,4	   0,0227882	194,8
     42,8568	   0,0230344	194,3	    0,022796	198,7
     42,8587	   0,0229121	198,2	   0,0227661	198,4
     42,8607	   0,0228099	197,3	   0,0226743	196,2
     42,8627	   0,0227307	195,9	   0,0225582	195,2
     42,8646	   0,0227334	194,0	    0,022407	198,3
     42,8666	   0,0226402	197,5	   0,0223103	197,7
     42,8685	   0,0226327	199,8	   0,0223019	-159,6
     42,8705	   0,0225659	199,5	   0,0222768	-161,1
     42,8724	   0,0224418	199,4	   0,0222028	-164,0
     42,8744	   0,0223492	196,7	   0,0221347	-164,3
     42,8763	   0,0222887	197,4	   0,0220524	-164,5
     42,8783	   0,0222131	199,4	   0,0219006	-160,5
     42,8803	   0,0221534	-159,4	   0,0219052	-161,7
     42,8822	   0,0219939	-156,6	   0,0218122	-163,5
     42,8842	   0,0218997	-160,0	   0,0218496	-164,4
     42,8861	   0,0218053	-160,6	    0,021703	-161,1
     42,8881	   0,0216674	-158,7	   0,0216563	-161,4
       42,89	   0,0216275	-158,6	   0,0215661	-159,4
      42,892	   0,0215408	-159,1	   0,0215601	-161,8
     42,8939	   0,0215643	-158,3	   0,0214386	-162,6
     42,8959	   0,0214729	-159,8	   0,0213675	-161,0
     42,8979	   0,0213973	-159,4	   0,0213028	-161,2
     42,8998	   0,0212922	-156,3	   0,0211965	-157,6
     42,9018	   0,0213056	-158,1	   0,0211516	-163,3
     42,9037	   0,0212645	-157,5	   0,0211195	-161,4
     42,9057	   0,0211079	-159,2	   0,0210849	-158,8
     42,9076	   0,0210501	-161,2	   0,0209152	-157,7
     42,9096	   0,0210075	-158,5	   0,0208859	-157,5
     42,9115	   0,0209624	-159,0	   0,0207705	-157,3
     42,9135	   0,0209147	-158,8	   0,0207311	-158,2
     42,9154	   0,0208644	-156,6	   0,0207186	-159,7
     42,9174	   0,0207254	-159,1	   0,0206427	-155,6
     42,9194	   0,0206621	-160,3	   0,0205422	-156,7
     42,9213	      0,0207	-156,4	   0,0204548	-157,3
     42,9233	   0,0205518	-155,1	   0,0204077	-158,4
     42,9252	   0,0204776	-158,1	   0,0203058	-157,8
     42,9272	    0,020405	-156,5	   0,0201807	-157,6
     42,9291	   0,0203341	-157,5	    0,020114	-160,3
     42,9311	    0,020205	-155,8	   0,0200608	-157,2
      42,933	   0,0201158	-154,1	   0,0199779	-158,7
      42,935	    0,020118	-153,1	   0,0199249	-158,9
      42,937	   0,0200394	-157,3	    0,019922	-158,4
     42,9389	    0,019946	-156,7	   0,0198191	-158,5
     42,9409	   0,0198547	-153,3	    0,019832	-156,2
     42,9428	   0,0198017	-155,1	   0,0197241	-155,6
     42,9448	   0,0197513	-153,0	   0,0196168	-158,9
     42,9467	   0,0197049	-153,6	   0,0195056	-157,9
     42,9487	   0,0196118	-156,9	   0,0194293	-155,6
     42,9506	   0,0196398	-158,7	   0,0193783	-153,9
     42,9526	   0,0195695	-154,0	   0,0193413	-154,1
     42,9545	   0,0193891	-156,1	   0,0192664	-154,6
     42,9565	   0,0193445	-156,4	   0,0192595	-154,8
     42,9585	   0,0192381	-156,2	    0,019204	-155,6
     42,9604	   0,0192036	-157,0	    0,019153	-156,1
     42,9624	   0,0192167	-156,4	   0,0191415	-152,5
     42,9643	   0,0191841	-153,3	    0,019134	-152,5
     42,9663	   0,0191453	-153,4	   0,0190434	-156,2
     42,9682	   0,0190641	-153,6	   0,0190018	-156,5
     42,9702	   0,0188997	-152,6	   0,0189557	-154,6
     42,9721	   0,0188382	-154,9	   0,0188305	-154,2
     42,9741	   0,0187887	-151,8	   0,0187539	-154,4
     42,9761	    0,018766	-149,2	   0,0186543	-153,0
      42,978	   0,0187393	-152,1	    0,018562	-156,9
       42,98	   0,0187355	-151,8	   0,0185318	-155,3
     42,9819	   0,0186808	-154,0	   0,0184684	-152,7
     42,9839	   0,0185881	-152,3	   0,0184402	-152,1
     42,9858	   0,0184042	-152,5	    0,018381	-152,3
     42,9878	   0,0183291	-153,3	   0,0182478	-151,9
     42,9897	    0,018261	-151,1	   0,0182138	-151,8
     42,9917	   0,0181487	-153,1	   0,0181226	-154,3
     42,9936	   0,0180902	-154,4	   0,0180821	-153,9
     42,9956	   0,0179829	-154,4	    0,017994	-150,5
     42,9976	   0,0179575	-151,2	   0,0179552	-150,5
     42,9995	   0,0179437	-152,3	   0,0179213	-153,2
     43,0015	   0,0179495	-149,6	   0,0178725	-154,7
     43,0034	   0,0179483	-152,9	   0,0178491	-152,5
     43,0054	   0,0178727	-152,6	   0,0178446	-153,6
     43,0073	   0,0177951	-149,3	   0,0177349	-149,7
     43,0093	   0,0177351	-148,8	    0,017584	-151,4
     43,0112	   0,0175998	-147,1	   0,0175119	-153,5
     43,0132	   0,0174704	-150,8	   0,0174641	-154,0
     43,0152	   0,0174949	-151,6	   0,0174717	-152,8
     43,0171	   0,0174684	-151,7	   0,0174343	-151,5
     43,0191	   0,0174434	-151,2	   0,0174003	-149,8
      43,021	   0,0174336	-151,8	   0,0173577	-149,2
      43,023	   0,0173017	-149,1	   0,0172898	-151,9
     43,0249	   0,0173022	-151,0	   0,0171766	-151,6
     43,0269	   0,0173285	-154,1	   0,0171409	-150,5
     43,0288	   0,0172479	-152,3	   0,0170916	-151,5
     43,0308	   0,0172034	-150,9	   0,0170346	-150,9
     43,0327	   0,0170735	-148,1	    0,017015	-148,1
     43,0347	   0,0169745	-148,0	   0,0170494	-150,5
     43,0367	   0,0169415	-149,1	    0,016906	-153,7
     43,0386	   0,0169255	-147,6	   0,0168736	-154,7
     43,0406	   0,0168209	-150,2	   0,0167559	-151,0
     43,0425	   0,0167426	-150,2	   0,0166036	-149,9
     43,0445	   0,0165814	-147,7	   0,0166217	-150,1
     43,0464	   0,0166217	-150,2	    0,016686	-148,8
     43,0484	   0,0165899	-147,4	   0,0166359	-151,9
     43,0503	   0,0165321	-149,6	   0,0165597	-150,2
     43,0523	    0,016437	-150,5	   0,0164657	-149,0
     43,0543	   0,0163799	-152,7	   0,0164069	-146,5
     43,0562	   0,0163794	-149,3	   0,0162858	-148,3
     43,0582	   0,0163196	-148,2	   0,0162606	-148,6
     43,0601	   0,0162384	-149,1	   0,0162549	-148,9
     43,0621	   0,0162111	-148,7	   0,0161921	-149,9
      43,064	   0,0162908	-150,7	    0,016253	-149,0
      43,066	   0,0162075	-149,1	   0,0161416	-146,9
     43,0679	   0,0161356	-146,5	   0,0161143	-148,9
     43,0699	   0,0160293	-145,6	      0,0161	-149,3
     43,0718	   0,0160285	-146,1	   0,0160149	-149,8
     43,0738	   0,0158817	-145,2	   0,0160426	-150,2
     43,0758	    0,015884	-148,4	   0,0159604	-149,3
     43,0777	   0,0158278	-148,6	   0,0158202	-146,9
     43,0797	   0,0157386	-149,9	   0,0156933	-145,8
     43,0816	   0,0156634	-148,8	   0,0156936	-147,3
     43,0836	   0,0156216	-145,6	   0,0156112	-147,9
     43,0855	   0,0156064	-146,3	   0,0155978	-147,5
     43,0875	   0,0155877	-150,9	   0,0155053	-149,1
     43,0894	   0,0155796	-146,4	   0,0154574	-145,2
     43,0914	    0,015503	-147,1	   0,0154905	-147,5
     43,0934	   0,0154111	-146,5	   0,0154122	-147,1
     43,0953	   0,0153014	-144,8	   0,0153285	-148,5
     43,0973	   0,0152574	-143,9	    0,015276	-150,4
     43,0992	    0,015282	-146,4	    0,015296	-149,4
     43,1012	   0,0153005	-147,7	   0,0152729	-148,7
     43,1031	   0,0151671	-146,6	   0,0152041	-146,3
     43,1051	    0,015131	-147,5	   0,0150993	-145,7
      43,107	   0,0152245	-144,2	   0,0150901	-143,8
      43,109	   0,0152471	-145,6	   0,0150794	-146,9
     43,1109	   0,0151663	-148,7	   0,0150663	-147,1
     43,1129	   0,0151383	-147,0	   0,0150506	-148,8
     43,1149	   0,0149579	-147,8	   0,0149834	-145,9
     43,1168	   0,0148756	-145,9	   0,0149738	-147,8
     43,1188	   0,0147965	-146,6	   0,0149407	-145,5
     43,1207	   0,0147791	-143,9	   0,0148582	-145,8
     43,1227	   0,0147027	-143,3	   0,0148312	-147,5
     43,1246	   0,0146549	-145,4	   0,0147641	-146,9
     43,1266	   0,0146323	-143,6	   0,0146779	-148,8
     43,1285	   0,0145928	-146,7	   0,0145908	-146,5
     43,1305	   0,0146287	-147,7	   0,0144978	-144,2
     43,1325	   0,0145649	-144,5	   0,0145149	-142,4
     43,1344	   0,0145784	-142,8	   0,0145186	-145,9
     43,1364	   0,0144737	-146,9	   0,0144963	-145,1
     43,1383	   0,0144832	-144,8	   0,0144803	-145,9
     43,1403	   0,0143832	-144,0	   0,0144197	-148,2
     43,1422	   0,0143117	-146,0	   0,0143578	-145,9
     43,1442	   0,0142193	-144,3	   0,0142638	-147,3
     43,1461	    0,014188	-142,3	   0,0142259	-145,4
     43,1481	    0,014149	-143,2	   0,0141555	-142,3
       43,15	   0,0140861	-141,4	   0,0141201	-144,7
      43,152	   0,0141143	-144,8	   0,0141873	-146,4
      43,154	   0,0141862	-144,0	   0,0141064	-145,2
     43,1559	   0,0141541	-146,1	   0,0140765	-142,2
     43,1579	   0,0140072	-145,4	    0,014007	-142,9
     43,1598	   0,0139441	-145,6	   0,0139931	-143,0
     43,1618	   0,0139114	-144,6	   0,0139237	-144,5
     43,1637	   0,0138774	-143,1	   0,0138958	-145,1
     43,1657	   0,0138042	-144,6	    0,013836	-147,3
     43,1676	   0,0137854	-143,1	   0,0138263	-145,7
     43,1696	   0,0136676	-144,9	   0,0136993	-146,3
     43,1716	   0,0135985	-144,4	    0,013574	-143,5
     43,1735	   0,0135258	-141,9	   0,0136264	-143,5
     43,1755	   0,0135904	-142,7	   0,0135653	-145,8
     43,1774	   0,0135493	-142,5	   0,0135302	-145,2
     43,1794	   0,0134436	-145,5	   0,0134006	-145,7
     43,1813	   0,0134194	-143,0	   0,0133553	-145,1
     43,1833	   0,0133384	-145,3	   0,0133654	-142,2
     43,1852	   0,0133192	-144,9	   0,0133478	-144,1
     43,1872	   0,0133575	-142,0	   0,0133075	-143,6
     43,1891	   0,0133637	-141,0	   0,0132782	-144,0
     43,1911	   0,0132678	-140,9	   0,0133124	-144,1
     43,1931	   0,0132185	-140,8	   0,0133619	-145,4
      43,195	   0,0131902	-143,2	   0,0132989	-144,5
      43,197	   0,0132051	-145,8	    0,013264	-142,4
     43,1989	   0,0131662	-143,3	   0,0131436	-140,9
     43,2009	   0,0131779	-144,6	   0,0130387	-141,4
     43,2028	   0,0130526	-143,6	   0,0130489	-140,6
     43,2048	   0,0129958	-142,6	   0,0129713	-143,0
     43,2067	   0,0129479	-143,2	   0,0129014	-145,0
     43,2087	   0,0129339	-141,1	   0,0129417	-145,8
     43,2107	   0,0128421	-143,5	    0,012933	-145,0
     43,2126	   0,0128472	-141,3	   0,0130273	-142,6
     43,2146	   0,0128422	-139,8	    0,012981	-141,9
     43,2165	   0,0128173	-140,9	   0,0129232	-143,2
     43,2185	   0,0127137	-143,1	   0,0127683	-141,6
     43,2204	   0,0127173	-141,9	   0,0126933	-145,6
     43,2224	   0,0127502	-141,9	   0,0126484	-142,4
     43,2243	   0,0127338	-142,6	   0,0126499	-144,6
     43,2263	   0,0126418	-143,7	   0,0127032	-141,9
     43,2282	   0,0126027	-142,0	   0,0126308	-144,0
     43,2302	   0,0125219	-141,4	   0,0126249	-141,3
     43,2322	   0,0124585	-139,6	   0,0125894	-142,6
     43,2341	   0,0124243	-140,3	   0,0125392	-145,0
     43,2361	   0,0123917	-141,0	   0,0124562	-142,3
      43,238	   0,0123467	-141,3	   0,0124593	-143,8
       43,24	   0,0124266	-142,9	   0,0123751	-143,3
     43,2419	   0,0124307	-144,0	   0,0122576	-139,1
     43,2439	   0,0124171	-143,8	   0,0123308	-141,9
     43,2458	   0,0123741	-141,7	   0,0122721	-140,1
     43,2478	    0,012356	-139,2	   0,0122751	-140,0
     43,2498	   0,0121734	-138,4	   0,0122943	-143,0
     43,2517	   0,0121716	-138,0	   0,0122819	-143,5
     43,2537	    0,012032	-141,1	    0,012195	-145,4
     43,2556	    0,011967	-142,2	   0,0120924	-142,7
     43,2576	   0,0119507	-142,4	   0,0120418	-142,0
     43,2595	   0,0119958	-141,3	    0,011896	-139,3
     43,2615	   0,0119899	-140,2	   0,0119236	-139,6
     43,2634	   0,0119832	-141,8	   0,0119129	-140,4
     43,2654	   0,0119323	-141,4	   0,0119732	-141,8
     43,2673	   0,0118846	-139,2	   0,0120331	-142,3
     43,2693	   0,0119174	-141,8	   0,0119469	-143,0
     43,2713	   0,0118694	-140,7	   0,0118781	-142,6
     43,2732	   0,0118236	-140,7	   0,0117767	-140,2
     43,2752	   0,0117147	-140,2	   0,0117317	-138,2
     43,2771	   0,0117743	-141,0	   0,0117003	-139,0
     43,2791	   0,0117102	-139,8	   0,0117361	-137,2
      43,281	    0,011725	-139,5	   0,0117588	-142,0
      43,283	   0,0116689	-141,7	   0,0117029	-141,5
     43,2849	   0,0116124	-142,8	   0,0117117	-142,7
     43,2869	     0,01159	-141,9	   0,0116706	-143,4
     43,2889	   0,0116286	-139,8	   0,0117462	-140,6
     43,2908	   0,0114733	-140,4	   0,0116281	-140,0
     43,2928	    0,011369	-141,1	   0,0116416	-138,3
     43,2947	   0,0113939	-137,9	    0,011594	-136,8
     43,2967	   0,0114318	-138,6	   0,0115692	-140,1
     43,2986	   0,0114088	-141,2	   0,0115117	-139,4
     43,3006	   0,0113796	-140,2	   0,0114307	-142,1
     43,3025	   0,0113932	-143,0	   0,0113972	-143,0
     43,3045	    0,011367	-141,3	   0,0112593	-142,0
     43,3064	   0,0113642	-140,5	   0,0112517	-141,6
     43,3084	   0,0112405	-137,0	    0,011196	-139,8
     43,3104	    0,011236	-136,6	   0,0112442	-136,9
     43,3123	   0,0112456	-137,4	   0,0112943	-140,0
     43,3143	   0,0113086	-140,0	   0,0112764	-137,5
     43,3162	   0,0112743	-140,4	   0,0112759	-140,0
     43,3182	   0,0111576	-141,0	   0,0112158	-140,7
     43,3201	   0,0110944	-142,2	   0,0110897	-139,6
     43,3221	   0,0110714	-140,2	   0,0110354	-141,1
      43,324	   0,0109218	-138,5	   0,0110868	-140,8
      43,326	   0,0108098	-138,6	   0,0110041	-138,7
      43,328	   0,0108677	-136,6	   0,0110053	-139,7
     43,3299	   0,0108453	-137,7	   0,0110273	-137,8
     43,3319	   0,0108773	-137,8	   0,0109925	-141,2
     43,3338	   0,0108597	-139,4	    0,010845	-139,5
     43,3358	   0,0108371	-140,6	   0,0109459	-138,5
     43,3377	   0,0108458	-141,2	   0,0108638	-141,2
     43,3397	    0,010738	-139,9	   0,0108051	-137,8
     43,3416	   0,0107029	-138,1	   0,0107617	-140,6
     43,3436	   0,0106672	-134,6	   0,0107609	-139,3
     43,3456	   0,0107492	-137,3	   0,0106944	-136,8
     43,3475	   0,0108347	-138,9	   0,0106589	-138,6
     43,3495	   0,0107168	-139,4	     0,01061	-138,2
     43,3514	   0,0107442	-138,5	   0,0106257	-139,4
     43,3534	   0,0106398	-142,8	   0,0107049	-141,3
     43,3553	    0,010656	-139,3	   0,0106398	-138,5
     43,3573	   0,0106101	-141,6	   0,0105825	-139,0
     43,3592	   0,0106054	-139,0	   0,0105642	-139,6
     43,3612	   0,0104546	-135,8	   0,0105031	-137,3
     43,3631	   0,0104445	-138,4	   0,0104265	-139,6
     43,3651	   0,0104226	-137,6	   0,0103977	-137,1
     43,3671	   0,0103711	-137,8	   0,0103758	-139,8
      43,369	   0,0103737	-140,2	   0,0104018	-139,5
      43,371	   0,0103728	-138,9	    0,010413	-140,4
     43,3729	   0,0103941	-140,2	   0,0103074	-140,4
     43,3749	    0,010291	-138,0	   0,0103332	-138,6
     43,3768	   0,0103089	-136,1	   0,0103559	-138,6
     43,3788	    0,010208	-135,8	   0,0102856	-136,8
     43,3807	   0,0101803	-134,7	   0,0101968	-137,2
     43,3827	   0,0102707	-136,9	   0,0101638	-136,3
     43,3847	   0,0102396	-137,3	   0,0101598	-138,2
     43,3866	    0,010146	-139,2	    0,010189	-138,4
     43,3886	   0,0101505	-138,0	   0,0101672	-139,0
     43,3905	   0,0101226	-137,5	   0,0101285	-140,4
     43,3925	    0,010044	-136,7	   0,0101155	-138,4
     43,3944	   0,0100115	-136,8	   0,0100334	-137,3
     43,3964	  0,00999681	-139,0	  0,00997833	-136,7
     43,3983	   0,0100449	-136,4	  0,00996194	-134,2
     43,4003	  0,00995854	-137,4	   0,0100258	-135,4
     43,4022	   0,0100587	-138,9	   0,0100252	-136,9
     43,4042	  0,00994486	-133,7	    0,010071	-139,1
     43,4062	  0,00998174	-137,1	   0,0101361	-141,0
     43,4081	  0,00989221	-135,5	  0,00999803	-139,2
     43,4101	  0,00984564	-137,1	   0,0099106	-137,4
      43,412	  0,00982269	-139,9	  0,00998653	-137,5
      43,414	  0,00983701	-136,4	   0,0098369	-135,2
     43,4159	  0,00976368	-138,1	   0,0097212	-134,9
     43,4179	  0,00978993	-135,9	  0,00970932	-137,7
     43,4198	  0,00980364	-134,0	  0,00964612	-139,1
     43,4218	   0,0096859	-137,0	  0,00965702	-138,2
     43,4238	  0,00965987	-134,9	  0,00967589	-137,1
     43,4257	  0,00964366	-137,7	  0,00972454	-138,5
     43,4277	  0,00963973	-136,5	  0,00966527	-140,4
     43,4296	  0,00958868	-139,3	  0,00958853	-137,3
     43,4316	   0,0096345	-138,6	  0,00954532	-136,3
     43,4335	   0,0096171	-136,1	  0,00955205	-134,7
     43,4355	  0,00962294	-137,1	  0,00959511	-134,8
     43,4374	  0,00961737	-135,9	  0,00958654	-137,2
     43,4394	  0,00949769	-134,1	  0,00956524	-136,6
     43,4413	  0,00953811	-134,7	  0,00949038	-137,9
     43,4433	  0,00954694	-136,1	  0,00943883	-135,6
     43,4453	   0,0095158	-137,0	  0,00941227	-137,6
     43,4472	  0,00944885	-139,5	  0,00939022	-138,4
     43,4492	    0,009458	-137,4	  0,00932319	-137,7
     43,4511	  0,00943081	-135,9	  0,00936678	-138,6
     43,4531	  0,00931684	-136,7	  0,00936834	-135,8
      43,455	  0,00922848	-135,8	  0,00936591	-133,7
      43,457	  0,00922043	-135,4	  0,00939837	-133,5
     43,4589	  0,00928429	-135,2	  0,00931476	-134,5
     43,4609	  0,00930169	-135,5	  0,00929396	-134,9
     43,4629	  0,00932343	-135,7	  0,00933615	-137,4
     43,4648	  0,00930604	-133,2	  0,00921614	-137,6
     43,4668	  0,00921789	-137,0	   0,0092682	-138,0
     43,4687	   0,0091692	-134,4	  0,00926902	-137,1
     43,4707	  0,00917744	-136,0	  0,00917712	-138,0
     43,4726	  0,00924601	-135,5	  0,00906461	-136,6
     43,4746	  0,00914992	-139,8	  0,00912907	-133,1
     43,4765	  0,00910393	-137,3	  0,00916919	-136,2
     43,4785	  0,00905148	-136,2	  0,00904017	-135,4
     43,4804	  0,00900175	-134,7	  0,00901844	-135,4
     43,4824	  0,00893246	-133,5	  0,00903988	-137,4
     43,4844	  0,00890813	-134,1	  0,00902345	-135,8
     43,4863	  0,00902776	-135,8	  0,00900418	-136,3
     43,4883	  0,00899426	-135,9	  0,00896443	-137,2
     43,4902	  0,00892542	-136,8	  0,00895439	-138,1
     43,4922	  0,00894532	-140,2	  0,00891767	-138,0
     43,4941	  0,00894707	-136,8	  0,00887492	-139,1
     43,4961	  0,00892841	-134,1	  0,00888549	-136,0
      43,498	  0,00895948	-135,1	  0,00881508	-133,8
        43,5	  0,00895147	-135,7	  0,00882168	-131,7

