X-Data [Hz]	Piezo (M - Filtered) [mV]	Phase [Deg]	Piezo (M - Filtered) [mV]	Phase [Deg]	
	002: [07-09-24 17:21]		003: [07-09-24 17:24]	
        41,5	   0,0941983	-106,1	   0,0905521	-108,7
      41,502	   0,0949369	-107,3	   0,0969267	-105,7
     41,5039	   0,0913012	-99,6	   0,0966246	-109,3
     41,5059	   0,0951006	-104,8	   0,0964506	-107,6
     41,5078	   0,0930595	-101,5	   0,0938375	-103,0
     41,5098	   0,0957514	-101,1	   0,0989421	-105,6
     41,5117	   0,0958693	-107,2	   0,0956001	-103,5
     41,5137	   0,0952275	-101,2	   0,0966283	-109,7
     41,5156	   0,0960844	-108,4	   0,0974435	-109,9
     41,5176	   0,0943077	-101,4	   0,0961017	-104,5
     41,5196	   0,0987624	-109,0	   0,0963624	-103,9
     41,5215	   0,0973287	-105,6	   0,0941213	-102,8
     41,5235	   0,0958044	-103,5	   0,0983983	-104,7
     41,5254	   0,0989791	-108,7	   0,0960161	-102,7
     41,5274	   0,0966063	-102,4	   0,0959716	-104,4
     41,5293	    0,099074	-107,3	   0,0990074	-101,8
     41,5313	   0,0984378	-111,3	   0,0948953	-102,6
     41,5332	   0,0968006	-105,2	   0,0989052	-106,7
     41,5352	   0,0942647	-99,9	   0,0974212	-102,6
     41,5371	   0,0987602	-101,2	    0,101431	-106,5
     41,5391	   0,0984188	-107,2	    0,099163	-104,1
     41,5411	   0,0949554	-104,6	    0,101675	-108,8
      41,543	   0,0987092	-106,1	    0,101151	-102,8
      41,545	   0,0990418	-104,8	   0,0958947	-102,6
     41,5469	    0,101603	-102,9	   0,0998923	-107,4
     41,5489	   0,0993529	-107,7	   0,0985502	-105,0
     41,5508	    0,096447	-102,6	    0,101983	-107,3
     41,5528	    0,100842	-106,7	    0,101881	-105,1
     41,5547	    0,101155	-108,8	   0,0995616	-106,7
     41,5567	    0,100005	-102,7	   0,0988508	-101,5
     41,5587	    0,100387	-104,5	   0,0978154	-102,1
     41,5606	   0,0976123	-101,8	     0,10066	-105,4
     41,5626	    0,102099	-105,7	   0,0981884	-100,2
     41,5645	   0,0993507	-102,8	   0,0995489	-105,0
     41,5665	    0,101495	-104,0	    0,100919	-101,8
     41,5684	   0,0976272	-103,7	   0,0985601	-100,5
     41,5704	   0,0991241	-98,9	    0,103401	-103,0
     41,5723	    0,101954	-106,8	    0,101062	-101,1
     41,5743	    0,101143	-104,2	    0,102982	-109,2
     41,5762	    0,104124	-107,1	    0,105657	-105,8
     41,5782	    0,102826	-106,8	    0,102464	-106,5
     41,5802	    0,101684	-103,5	    0,104087	-104,6
     41,5821	    0,102525	-106,3	    0,101979	-104,9
     41,5841	    0,102738	-103,4	    0,103222	-108,2
      41,586	    0,105528	-104,7	    0,103289	-103,4
      41,588	    0,102642	-107,0	    0,104209	-107,2
     41,5899	    0,102042	-103,3	    0,104769	-106,2
     41,5919	    0,104343	-106,3	    0,100404	-104,5
     41,5938	    0,103025	-101,5	     0,10407	-108,9
     41,5958	    0,105806	-105,4	    0,103406	-102,4
     41,5978	     0,10056	-105,0	    0,102615	-101,6
     41,5997	    0,103261	-101,2	    0,105224	-103,6
     41,6017	    0,104491	-104,4	    0,104098	-101,8
     41,6036	    0,100713	-102,3	    0,104132	-102,5
     41,6056	    0,105793	-107,5	    0,103821	-99,7
     41,6075	    0,104035	-104,9	    0,107813	-109,5
     41,6095	     0,10715	-103,2	    0,106687	-102,0
     41,6114	    0,106299	-107,9	    0,105632	-107,0
     41,6134	    0,104095	-102,1	    0,105298	-107,4
     41,6153	    0,105231	-102,6	    0,102295	-104,2
     41,6173	    0,105767	-101,1	    0,105476	-107,7
     41,6193	    0,107198	-103,4	    0,105119	-102,1
     41,6212	    0,104097	-103,5	    0,107203	-106,0
     41,6232	    0,103525	-99,1	     0,10698	-107,8
     41,6251	     0,10536	-105,9	    0,105692	-102,0
     41,6271	    0,105262	-103,6	    0,107705	-104,8
      41,629	    0,105913	-103,8	    0,106139	-103,2
      41,631	    0,105836	-105,1	    0,104616	-104,5
     41,6329	    0,109721	-102,0	    0,107815	-102,4
     41,6349	    0,110621	-105,5	    0,106472	-100,8
     41,6369	    0,108592	-104,8	      0,1083	-104,6
     41,6388	    0,107738	-105,2	    0,108269	-104,6
     41,6408	    0,106362	-101,3	    0,110657	-105,8
     41,6427	    0,106203	-102,3	    0,109952	-107,5
     41,6447	    0,107613	-105,9	    0,105563	-102,9
     41,6466	    0,107271	-100,6	    0,110501	-108,1
     41,6486	    0,108405	-100,1	    0,108134	-102,2
     41,6505	     0,10965	-106,6	    0,109005	-105,3
     41,6525	    0,107153	-103,1	    0,111153	-102,3
     41,6544	    0,110433	-103,9	    0,107538	-102,5
     41,6564	     0,10799	-104,5	    0,111228	-104,1
     41,6584	    0,110999	-106,6	     0,11028	-101,7
     41,6603	    0,110894	-105,3	    0,111973	-106,4
     41,6623	    0,110515	-101,5	    0,112867	-104,6
     41,6642	    0,110095	-106,5	    0,108627	-103,9
     41,6662	    0,108621	-99,5	     0,11278	-107,4
     41,6681	    0,112498	-100,5	    0,111398	-104,9
     41,6701	    0,112199	-104,6	    0,111917	-104,7
      41,672	    0,110164	-102,8	    0,114361	-105,9
      41,674	    0,111445	-103,2	    0,112758	-101,4
      41,676	    0,110665	-100,6	    0,114669	-104,5
     41,6779	    0,113318	-99,9	     0,11019	-102,3
     41,6799	    0,114009	-105,9	    0,112918	-105,6
     41,6818	    0,110411	-100,3	    0,112671	-101,6
     41,6838	     0,11354	-109,2	    0,111824	-99,2
     41,6857	    0,111801	-105,4	    0,117026	-107,5
     41,6877	    0,116835	-100,7	    0,115415	-104,0
     41,6896	    0,114535	-105,6	    0,115851	-105,3
     41,6916	    0,113232	-100,5	    0,115777	-105,0
     41,6936	    0,114349	-102,2	    0,112858	-102,0
     41,6955	    0,114441	-102,3	    0,115025	-103,0
     41,6975	    0,113808	-101,5	    0,112474	-100,7
     41,6994	     0,11612	-106,7	    0,111654	-104,4
     41,7014	    0,113453	-100,8	    0,116843	-101,9
     41,7033	     0,11774	-101,8	    0,114084	-99,0
     41,7053	    0,114607	-105,4	    0,116771	-103,7
     41,7072	     0,11675	-103,1	     0,11642	-100,0
     41,7092	    0,118751	-105,9	    0,114157	-101,0
     41,7111	    0,115913	-106,2	    0,118083	-103,6
     41,7131	    0,120024	-101,8	    0,116677	-101,1
     41,7151	     0,11943	-105,0	    0,117306	-105,3
      41,717	    0,114364	-101,5	    0,118038	-101,8
      41,719	    0,117826	-101,3	    0,115332	-102,5
     41,7209	    0,117796	-101,8	    0,116734	-104,7
     41,7229	    0,117675	-101,2	    0,116024	-102,7
     41,7248	    0,118317	-105,9	    0,118184	-103,9
     41,7268	    0,115182	-101,0	    0,119799	-101,8
     41,7287	    0,117916	-97,5	    0,115999	-100,8
     41,7307	    0,119069	-103,8	    0,120835	-102,8
     41,7327	      0,1218	-101,4	    0,118789	-100,9
     41,7346	    0,123506	-106,0	    0,120051	-105,7
     41,7366	    0,121865	-106,0	    0,120513	-106,0
     41,7385	    0,121616	-100,3	    0,117434	-100,8
     41,7405	    0,121422	-104,6	    0,119976	-105,2
     41,7424	    0,118281	-98,9	    0,118022	-97,8
     41,7444	      0,1196	-99,7	    0,119388	-100,1
     41,7463	    0,118066	-101,4	    0,124161	-104,9
     41,7483	    0,117974	-101,1	    0,120021	-100,6
     41,7502	       0,121	-104,8	    0,123014	-105,4
     41,7522	    0,121485	-99,7	    0,123759	-101,4
     41,7542	    0,124434	-102,8	    0,121107	-101,6
     41,7561	    0,121945	-104,5	    0,123481	-104,3
     41,7581	     0,11902	-100,9	    0,120536	-101,9
       41,76	    0,124496	-104,3	    0,121555	-104,1
      41,762	    0,122527	-104,1	     0,12416	-99,8
     41,7639	    0,123503	-101,0	     0,11998	-100,7
     41,7659	    0,126542	-102,7	    0,125359	-103,5
     41,7678	    0,123546	-97,8	    0,125507	-100,1
     41,7698	    0,123917	-99,6	    0,124008	-98,8
     41,7718	    0,122017	-105,0	    0,126807	-103,1
     41,7737	    0,121567	-100,2	    0,124373	-99,9
     41,7757	    0,125188	-102,5	    0,124822	-105,0
     41,7776	    0,125554	-102,6	    0,125334	-103,7
     41,7796	    0,124704	-99,5	    0,122757	-104,8
     41,7815	     0,12791	-103,5	    0,127292	-101,5
     41,7835	    0,124973	-102,6	    0,124406	-101,2
     41,7854	    0,125937	-102,8	    0,125926	-100,6
     41,7874	    0,128143	-105,7	    0,127394	-100,6
     41,7893	    0,125056	-98,2	    0,124465	-101,0
     41,7913	     0,12841	-101,3	    0,129741	-104,1
     41,7933	      0,1248	-101,6	    0,130258	-98,0
     41,7952	     0,12693	-98,6	    0,126833	-103,1
     41,7972	    0,127537	-105,9	    0,127363	-104,0
     41,7991	    0,124734	-102,7	    0,130971	-101,3
     41,8011	    0,127207	-101,3	    0,128184	-104,6
      41,803	    0,129511	-102,5	    0,130257	-106,2
      41,805	      0,1251	-98,2	     0,12805	-98,9
     41,8069	    0,128415	-98,6	    0,128692	-100,5
     41,8089	    0,129529	-100,5	    0,129869	-99,5
     41,8109	    0,128128	-98,7	    0,127831	-99,1
     41,8128	     0,13132	-104,1	    0,130744	-103,4
     41,8148	    0,130438	-103,6	    0,131699	-101,1
     41,8167	    0,132758	-99,7	    0,129867	-104,7
     41,8187	    0,131943	-103,5	    0,133099	-103,3
     41,8206	    0,131273	-98,2	    0,131416	-96,8
     41,8226	     0,13229	-98,8	    0,132826	-101,9
     41,8245	    0,128549	-100,1	    0,132524	-100,3
     41,8265	    0,127961	-99,3	    0,131358	-97,6
     41,8284	    0,132821	-104,0	    0,134501	-105,1
     41,8304	    0,132609	-100,6	    0,134971	-99,7
     41,8324	    0,136116	-99,2	    0,135551	-100,5
     41,8343	    0,134778	-102,9	    0,136687	-100,7
     41,8363	    0,132275	-101,7	    0,131802	-100,1
     41,8382	     0,13585	-100,5	    0,132723	-101,5
     41,8402	    0,134852	-102,9	    0,134995	-100,0
     41,8421	    0,132552	-98,1	    0,132876	-97,7
     41,8441	    0,134943	-100,8	    0,137136	-102,7
      41,846	    0,133613	-101,4	    0,139164	-101,6
      41,848	    0,133102	-98,0	      0,1356	-100,6
       41,85	    0,137858	-100,7	    0,136705	-99,4
     41,8519	    0,135379	-101,7	    0,135883	-98,0
     41,8539	    0,137749	-100,5	    0,134955	-100,0
     41,8558	    0,140042	-102,9	     0,13756	-99,3
     41,8578	    0,136238	-99,0	    0,136172	-99,4
     41,8597	    0,138352	-99,4	    0,139851	-101,8
     41,8617	     0,13705	-101,3	    0,140023	-98,7
     41,8636	     0,13619	-98,1	    0,135955	-100,7
     41,8656	    0,139255	-101,6	    0,139315	-101,8
     41,8675	    0,139815	-102,5	    0,141042	-99,2
     41,8695	    0,139843	-98,8	    0,139298	-98,9
     41,8715	    0,141639	-99,8	    0,142552	-100,6
     41,8734	    0,140077	-98,4	    0,140177	-99,7
     41,8754	    0,138167	-97,5	    0,137435	-99,2
     41,8773	    0,141415	-102,1	    0,141637	-99,6
     41,8793	    0,139436	-99,8	    0,139942	-97,4
     41,8812	    0,142354	-103,1	    0,143435	-103,0
     41,8832	    0,141865	-101,6	    0,143534	-101,2
     41,8851	    0,140909	-97,8	    0,140791	-99,0
     41,8871	    0,142316	-100,6	    0,141797	-101,5
     41,8891	    0,140657	-98,7	    0,142039	-100,4
      41,891	    0,140375	-97,8	    0,141034	-99,5
      41,893	    0,147037	-101,8	    0,145946	-100,4
     41,8949	    0,143139	-100,4	    0,147727	-99,8
     41,8969	    0,145722	-98,6	    0,144177	-99,3
     41,8988	    0,148176	-101,1	    0,145046	-100,6
     41,9008	     0,14442	-97,3	    0,142376	-98,4
     41,9027	    0,145607	-98,3	     0,14337	-99,6
     41,9047	    0,148712	-100,7	    0,148729	-98,3
     41,9066	    0,142311	-97,0	    0,148385	-97,0
     41,9086	    0,144834	-95,2	    0,149329	-98,4
     41,9106	    0,147533	-102,0	    0,149576	-100,9
     41,9125	     0,14443	-100,3	    0,147294	-97,9
     41,9145	    0,149049	-101,3	    0,147749	-97,9
     41,9164	    0,149334	-102,5	    0,150594	-99,5
     41,9184	    0,147954	-97,1	     0,14853	-98,0
     41,9203	    0,149645	-97,9	    0,150515	-100,3
     41,9223	    0,147046	-96,6	    0,149479	-98,6
     41,9242	    0,147931	-96,1	    0,149625	-98,9
     41,9262	    0,150102	-100,7	    0,150691	-100,0
     41,9282	    0,150415	-99,7	     0,15052	-96,6
     41,9301	    0,153653	-98,0	    0,150063	-100,5
     41,9321	    0,152769	-100,9	     0,15212	-100,5
      41,934	    0,148343	-95,7	    0,150868	-98,2
      41,936	    0,153912	-97,5	    0,149935	-99,2
     41,9379	    0,156057	-96,0	     0,15547	-99,8
     41,9399	    0,151484	-96,9	    0,152946	-96,8
     41,9418	    0,152421	-97,3	    0,155783	-99,7
     41,9438	    0,152692	-100,0	    0,159744	-98,7
     41,9457	    0,152164	-98,9	    0,154867	-96,7
     41,9477	    0,156184	-98,8	     0,15116	-98,9
     41,9497	    0,157113	-100,6	     0,15834	-100,7
     41,9516	     0,15392	-94,2	    0,158245	-97,4
     41,9536	    0,154927	-95,9	    0,159138	-101,7
     41,9555	    0,152262	-99,0	    0,156554	-95,1
     41,9575	     0,15378	-94,4	    0,156137	-95,8
     41,9594	    0,158257	-99,5	    0,159258	-98,4
     41,9614	     0,15591	-100,2	    0,159208	-96,2
     41,9633	    0,159614	-96,4	    0,158045	-94,9
     41,9653	    0,160575	-98,6	    0,159797	-101,0
     41,9673	    0,155347	-96,4	    0,161037	-97,1
     41,9692	    0,157013	-95,1	    0,158795	-97,0
     41,9712	      0,1593	-99,8	    0,161037	-100,6
     41,9731	     0,15601	-96,7	    0,160895	-94,8
     41,9751	    0,161317	-97,2	    0,157042	-95,7
      41,977	    0,163815	-99,4	    0,164472	-97,9
      41,979	    0,161545	-95,7	    0,165379	-95,1
     41,9809	    0,163007	-96,5	    0,160852	-99,0
     41,9829	    0,164661	-98,9	    0,164355	-98,3
     41,9848	    0,161179	-95,4	    0,163336	-95,9
     41,9868	    0,162289	-94,8	    0,162599	-96,6
     41,9888	    0,163372	-96,0	    0,165437	-99,2
     41,9907	    0,162857	-95,9	    0,164502	-94,9
     41,9927	    0,165487	-98,8	    0,161812	-94,9
     41,9946	    0,167083	-96,8	    0,169493	-97,7
     41,9966	    0,162924	-95,3	    0,168325	-95,1
     41,9985	    0,167543	-97,0	    0,167064	-96,9
     42,0005	    0,163157	-96,8	    0,170173	-96,9
     42,0024	    0,162886	-98,3	    0,167911	-96,3
     42,0044	    0,167726	-96,2	    0,170093	-97,1
     42,0064	    0,170398	-97,7	    0,171094	-98,2
     42,0083	    0,167421	-93,3	    0,168008	-95,7
     42,0103	    0,172052	-96,2	    0,170041	-99,7
     42,0122	    0,169396	-97,4	     0,17272	-97,5
     42,0142	    0,167171	-97,2	    0,172138	-95,2
     42,0161	    0,174162	-95,9	    0,170146	-96,2
     42,0181	    0,169441	-96,9	     0,17282	-97,8
       42,02	    0,169497	-94,0	    0,174186	-95,2
      42,022	    0,173403	-92,6	    0,172965	-97,4
     42,0239	    0,172351	-96,8	    0,174652	-97,9
     42,0259	    0,169989	-94,1	    0,172182	-93,7
     42,0279	    0,174549	-98,4	    0,171589	-94,3
     42,0298	     0,17233	-97,5	     0,17773	-95,5
     42,0318	     0,17398	-95,3	    0,174512	-94,6
     42,0337	     0,17567	-96,8	    0,177759	-97,5
     42,0357	    0,172591	-93,0	    0,181323	-97,3
     42,0376	    0,174389	-92,5	    0,177508	-98,1
     42,0396	    0,176769	-94,4	    0,177784	-96,7
     42,0415	    0,176141	-95,6	    0,181555	-93,5
     42,0435	    0,178045	-93,6	      0,1794	-92,1
     42,0455	    0,179357	-96,4	    0,182212	-97,3
     42,0474	    0,177238	-95,8	     0,18513	-94,0
     42,0494	    0,180311	-93,7	    0,184032	-92,2
     42,0513	    0,182247	-94,8	    0,182275	-97,3
     42,0533	    0,177766	-94,5	     0,18601	-95,7
     42,0552	    0,181065	-92,8	    0,182674	-94,7
     42,0572	    0,184348	-94,5	    0,183277	-95,0
     42,0591	    0,183126	-94,3	    0,187081	-95,3
     42,0611	    0,183031	-95,5	    0,187869	-94,0
      42,063	    0,183849	-93,7	    0,184881	-95,1
      42,065	     0,18072	-95,1	    0,187523	-95,1
      42,067	    0,183071	-93,6	    0,185663	-90,9
     42,0689	    0,185144	-95,1	    0,185452	-92,1
     42,0709	    0,184175	-94,6	    0,191658	-94,4
     42,0728	    0,184014	-93,1	    0,189195	-94,1
     42,0748	    0,188584	-93,2	    0,190177	-97,7
     42,0767	    0,187765	-94,5	    0,193305	-95,7
     42,0787	    0,186947	-92,1	    0,190533	-91,8
     42,0806	    0,190686	-94,8	    0,187398	-93,7
     42,0826	     0,18762	-94,5	    0,195022	-94,1
     42,0846	    0,189165	-94,2	    0,194107	-93,3
     42,0865	    0,194402	-93,8	    0,191966	-94,2
     42,0885	     0,19128	-95,0	    0,195444	-94,2
     42,0904	    0,192839	-92,4	    0,195489	-91,8
     42,0924	    0,194905	-91,7	    0,194631	-91,8
     42,0943	    0,192108	-93,9	    0,197604	-93,7
     42,0963	    0,191247	-90,3	    0,198535	-92,9
     42,0982	    0,196428	-93,9	    0,196046	-94,0
     42,1002	      0,1948	-95,7	    0,198642	-95,7
     42,1021	    0,194126	-92,0	     0,19747	-90,0
     42,1041	    0,199128	-92,9	    0,198129	-92,0
     42,1061	    0,198461	-95,3	    0,202422	-92,2
      42,108	    0,195228	-91,6	      0,2049	-91,1
       42,11	    0,197134	-91,6	    0,201656	-92,5
     42,1119	    0,198976	-92,1	    0,202836	-91,1
     42,1139	    0,199049	-93,5	    0,206012	-91,6
     42,1158	    0,202151	-90,4	    0,202934	-92,7
     42,1178	    0,202337	-91,8	    0,204619	-93,0
     42,1197	    0,199998	-90,9	    0,207168	-94,0
     42,1217	    0,199768	-90,2	    0,206948	-91,5
     42,1237	     0,20224	-93,0	    0,205494	-93,2
     42,1256	    0,200887	-93,2	    0,206908	-93,7
     42,1276	    0,207513	-90,8	    0,206157	-90,0
     42,1295	    0,208796	-91,5	    0,210581	-92,6
     42,1315	    0,204355	-89,6	    0,213537	-90,6
     42,1334	    0,205234	-89,0	    0,209514	-89,3
     42,1354	    0,207989	-91,5	    0,208329	-90,1
     42,1373	    0,206839	-91,0	    0,217082	-91,7
     42,1393	    0,209241	-91,6	    0,214943	-91,4
     42,1413	    0,212093	-89,7	    0,214562	-91,7
     42,1432	     0,20916	-89,2	    0,217176	-92,1
     42,1452	     0,20993	-91,8	    0,218868	-91,5
     42,1471	    0,212559	-93,1	    0,216067	-90,2
     42,1491	    0,211849	-92,0	    0,217309	-89,6
      42,151	      0,2153	-88,5	    0,219568	-87,4
      42,153	    0,216016	-88,8	    0,218674	-88,0
     42,1549	    0,211248	-89,7	    0,220887	-90,4
     42,1569	    0,213564	-88,2	    0,221808	-90,2
     42,1588	    0,218352	-90,8	    0,220454	-87,7
     42,1608	     0,21839	-90,7	    0,223828	-92,6
     42,1628	    0,217696	-89,7	    0,226706	-91,2
     42,1647	    0,221981	-90,4	    0,223959	-90,4
     42,1667	    0,221918	-89,4	    0,223176	-91,5
     42,1686	    0,216663	-91,0	     0,22786	-90,6
     42,1706	    0,219389	-88,0	    0,226226	-87,2
     42,1725	    0,223511	-90,6	    0,225363	-88,5
     42,1745	    0,223305	-89,6	     0,22917	-89,0
     42,1764	    0,226871	-86,0	    0,233986	-88,6
     42,1784	    0,227564	-87,8	    0,229736	-87,5
     42,1804	    0,224708	-88,9	    0,231009	-90,3
     42,1823	    0,223032	-86,6	    0,235605	-88,1
     42,1843	    0,230966	-87,5	    0,235188	-87,1
     42,1862	    0,229225	-88,8	    0,235245	-89,6
     42,1882	    0,229506	-87,6	    0,239564	-88,1
     42,1901	    0,233053	-88,1	    0,233013	-87,2
     42,1921	    0,229155	-88,2	    0,233961	-91,0
      42,194	    0,228449	-89,2	    0,237354	-89,2
      42,196	    0,237757	-86,5	    0,239846	-86,2
     42,1979	    0,236747	-87,9	    0,239288	-87,2
     42,1999	    0,233471	-85,6	     0,24165	-88,1
     42,2019	    0,234499	-84,4	    0,241295	-84,7
     42,2038	    0,236563	-87,1	    0,240959	-87,2
     42,2058	    0,236032	-87,2	    0,247736	-88,2
     42,2077	    0,235224	-84,5	    0,248555	-86,2
     42,2097	    0,241537	-86,2	    0,246548	-85,8
     42,2116	    0,242585	-87,8	     0,24717	-89,2
     42,2136	    0,241946	-86,6	    0,251203	-87,8
     42,2155	    0,242882	-86,7	    0,248552	-86,1
     42,2175	    0,245794	-86,8	    0,248266	-87,1
     42,2195	    0,242553	-89,1	    0,253924	-85,3
     42,2214	    0,248897	-85,1	    0,250445	-85,2
     42,2234	     0,24614	-85,4	    0,249153	-86,4
     42,2253	     0,24499	-83,7	    0,252282	-85,5
     42,2273	    0,251047	-83,2	    0,256929	-82,5
     42,2292	    0,251549	-84,1	    0,255276	-83,6
     42,2312	    0,251864	-84,1	    0,259184	-86,1
     42,2331	    0,251198	-84,6	    0,262841	-84,2
     42,2351	     0,25542	-83,4	    0,259365	-85,9
      42,237	    0,253441	-86,6	    0,259646	-85,7
      42,239	    0,253306	-84,7	    0,266557	-84,2
      42,241	    0,258582	-82,3	    0,265632	-84,0
     42,2429	    0,261883	-82,2	    0,262316	-84,2
     42,2449	    0,258011	-83,8	    0,265128	-86,0
     42,2468	    0,257533	-85,3	    0,266538	-82,3
     42,2488	    0,263955	-82,6	     0,26771	-84,0
     42,2507	    0,263329	-84,3	    0,270339	-82,2
     42,2527	    0,262857	-82,2	    0,272626	-81,0
     42,2546	    0,266307	-81,1	    0,269152	-83,3
     42,2566	    0,264241	-83,3	    0,271415	-82,7
     42,2586	      0,2649	-82,2	    0,274273	-83,3
     42,2605	    0,271751	-83,4	    0,276363	-82,9
     42,2625	    0,268064	-82,3	    0,277801	-83,3
     42,2644	    0,265754	-84,2	    0,279256	-83,5
     42,2664	    0,267092	-81,8	    0,280382	-81,4
     42,2683	    0,272303	-82,1	    0,279186	-81,3
     42,2703	    0,274282	-82,8	    0,279242	-83,8
     42,2722	    0,275228	-80,7	    0,286156	-83,0
     42,2742	    0,278134	-80,8	    0,287025	-81,4
     42,2761	    0,275327	-80,7	    0,286738	-81,4
     42,2781	    0,273804	-80,3	    0,288243	-81,7
     42,2801	    0,280109	-78,5	    0,291298	-79,0
      42,282	     0,28049	-79,4	    0,289621	-79,4
      42,284	    0,278516	-79,9	    0,295153	-80,7
     42,2859	    0,282273	-78,2	    0,297334	-79,7
     42,2879	    0,286794	-81,0	    0,293084	-79,1
     42,2898	    0,287205	-80,1	    0,295002	-79,9
     42,2918	    0,286099	-80,3	    0,301935	-79,4
     42,2937	    0,289423	-78,4	    0,301744	-78,3
     42,2957	    0,290513	-79,8	     0,30115	-81,1
     42,2977	    0,289846	-80,8	    0,304276	-81,3
     42,2996	    0,294508	-78,5	    0,304171	-77,1
     42,3016	    0,294861	-78,7	    0,305176	-77,1
     42,3035	      0,2968	-79,7	    0,309913	-77,5
     42,3055	    0,295168	-76,3	    0,313004	-77,8
     42,3074	    0,296424	-76,3	    0,310826	-77,0
     42,3094	    0,298414	-76,9	    0,308299	-76,3
     42,3113	    0,298525	-78,7	    0,315578	-74,6
     42,3133	    0,300602	-74,7	    0,317018	-75,3
     42,3153	    0,304898	-75,7	    0,314182	-77,3
     42,3172	     0,30137	-76,0	    0,318858	-76,7
     42,3192	    0,303342	-75,6	    0,323579	-74,4
     42,3211	    0,311387	-74,9	    0,320837	-74,8
     42,3231	    0,310288	-76,9	    0,324829	-78,2
      42,325	    0,306537	-76,9	    0,328282	-75,8
      42,327	    0,309594	-76,1	    0,327632	-75,7
     42,3289	    0,314171	-76,2	    0,328261	-75,9
     42,3309	    0,314373	-75,1	    0,332548	-72,6
     42,3328	    0,314999	-76,0	     0,33378	-73,4
     42,3348	    0,317227	-75,1	    0,335143	-75,4
     42,3368	    0,320063	-75,4	    0,334068	-74,1
     42,3387	    0,319017	-75,1	     0,33654	-73,7
     42,3407	    0,325022	-72,6	    0,338023	-71,8
     42,3426	    0,325075	-69,6	    0,337915	-72,8
     42,3446	    0,323106	-73,0	    0,342191	-72,4
     42,3465	    0,325933	-71,3	    0,344177	-70,3
     42,3485	    0,330424	-71,5	     0,34436	-69,4
     42,3504	    0,330771	-71,9	     0,34447	-69,5
     42,3524	    0,328999	-71,5	     0,35097	-71,2
     42,3544	    0,331953	-70,8	    0,351913	-70,1
     42,3563	     0,33742	-71,1	    0,350874	-72,5
     42,3583	    0,335224	-70,7	    0,351782	-72,9
     42,3602	     0,33709	-70,7	    0,356434	-69,8
     42,3622	    0,339029	-71,0	    0,357573	-69,2
     42,3641	    0,337984	-69,7	    0,356945	-70,1
     42,3661	     0,33845	-71,7	    0,363158	-70,9
      42,368	    0,341895	-70,5	     0,36299	-69,5
       42,37	    0,348701	-68,3	    0,364393	-69,6
     42,3719	    0,351043	-68,5	    0,369851	-67,6
     42,3739	    0,348584	-67,9	     0,37092	-66,5
     42,3759	    0,354465	-66,7	    0,369349	-66,3
     42,3778	    0,353513	-67,3	     0,37039	-66,7
     42,3798	    0,350886	-66,4	    0,376912	-63,4
     42,3817	    0,353593	-66,5	    0,377141	-64,3
     42,3837	    0,359299	-64,5	    0,374989	-66,0
     42,3856	    0,360914	-65,2	    0,377388	-66,0
     42,3876	    0,358071	-66,4	    0,383477	-64,7
     42,3895	    0,361922	-65,7	    0,383464	-64,1
     42,3915	    0,365869	-65,5	    0,381231	-66,4
     42,3935	     0,36449	-65,3	    0,386159	-64,2
     42,3954	    0,365606	-64,1	    0,389184	-65,0
     42,3974	    0,371407	-63,0	     0,38807	-64,6
     42,3993	    0,369657	-65,0	    0,391239	-65,0
     42,4013	     0,37169	-65,1	    0,395472	-62,7
     42,4032	    0,375279	-64,9	    0,397653	-60,5
     42,4052	    0,377904	-61,7	    0,394604	-63,4
     42,4071	    0,376484	-64,4	    0,397924	-62,7
     42,4091	    0,376332	-64,3	    0,403871	-60,3
      42,411	    0,382178	-61,6	    0,404381	-59,8
      42,413	    0,385696	-61,6	    0,402644	-61,0
      42,415	    0,385843	-63,6	    0,406776	-60,3
     42,4169	    0,383403	-60,9	     0,41067	-58,4
     42,4189	    0,387133	-61,4	    0,407154	-58,8
     42,4208	    0,392497	-59,3	    0,411106	-57,9
     42,4228	    0,391886	-60,2	     0,41475	-55,6
     42,4247	    0,391473	-57,5	    0,412252	-57,2
     42,4267	    0,393487	-59,0	    0,412829	-57,0
     42,4286	    0,396764	-57,3	      0,4201	-54,7
     42,4306	    0,396316	-58,1	    0,420765	-55,0
     42,4326	    0,396956	-57,9	    0,419792	-56,8
     42,4345	    0,401159	-56,5	    0,419837	-56,8
     42,4365	    0,402497	-55,6	    0,426119	-54,2
     42,4384	     0,40218	-56,7	     0,42711	-53,8
     42,4404	      0,4043	-57,1	    0,424815	-56,4
     42,4423	    0,407559	-55,9	    0,426876	-54,9
     42,4443	    0,408389	-56,3	    0,432596	-53,0
     42,4462	    0,412628	-56,7	    0,430406	-54,4
     42,4482	    0,416335	-54,3	      0,4301	-55,2
     42,4501	    0,417952	-55,4	    0,432793	-54,3
     42,4521	    0,415815	-55,3	    0,439676	-51,1
     42,4541	    0,417372	-53,9	    0,438797	-51,7
      42,456	    0,421438	-55,2	    0,437551	-50,3
      42,458	    0,421684	-52,5	    0,440547	-51,2
     42,4599	    0,420797	-53,0	    0,444293	-49,7
     42,4619	     0,42543	-53,7	    0,441759	-49,7
     42,4638	    0,426711	-51,1	    0,443334	-48,1
     42,4658	    0,428544	-50,2	    0,443951	-48,4
     42,4677	    0,428102	-51,2	    0,444754	-48,2
     42,4697	    0,429672	-49,3	     0,44307	-47,7
     42,4717	    0,432345	-50,2	    0,441868	-48,9
     42,4736	    0,433029	-49,7	     0,44896	-46,0
     42,4756	    0,433618	-49,1	    0,452081	-45,2
     42,4775	    0,438841	-46,3	    0,446709	-47,4
     42,4795	    0,439727	-46,3	    0,449673	-44,5
     42,4814	    0,436828	-46,8	    0,455083	-45,7
     42,4834	    0,438245	-46,4	    0,455322	-45,6
     42,4853	    0,442686	-46,5	    0,454307	-44,1
     42,4873	    0,445896	-43,9	    0,456249	-43,1
     42,4892	    0,441074	-45,5	    0,458681	-42,8
     42,4912	    0,443259	-43,7	    0,457756	-45,0
     42,4932	    0,448919	-43,0	    0,456312	-43,5
     42,4951	     0,45102	-40,9	    0,461741	-43,7
     42,4971	    0,448524	-40,6	    0,460181	-42,9
      42,499	    0,448623	-44,3	    0,461687	-43,1
      42,501	    0,450797	-42,5	    0,462552	-41,2
     42,5029	    0,451706	-42,2	    0,463866	-42,7
     42,5049	    0,451167	-41,7	    0,466408	-40,8
     42,5068	    0,452902	-42,1	    0,463567	-41,3
     42,5088	     0,45509	-39,7	    0,462255	-41,5
     42,5108	    0,456682	-39,1	    0,466298	-38,0
     42,5127	    0,450182	-41,2	    0,467222	-37,5
     42,5147	    0,453676	-39,9	    0,462484	-38,8
     42,5166	    0,459755	-39,1	    0,464545	-38,4
     42,5186	    0,459678	-37,8	    0,469053	-35,7
     42,5205	     0,46006	-38,8	    0,470956	-36,3
     42,5225	    0,459343	-38,7	     0,46687	-35,2
     42,5244	    0,465543	-37,8	    0,467348	-37,0
     42,5264	    0,464585	-37,6	    0,473299	-34,2
     42,5283	    0,459924	-38,3	    0,471126	-34,6
     42,5303	    0,460481	-39,1	    0,468332	-33,3
     42,5323	    0,464969	-35,4	    0,468709	-33,7
     42,5342	    0,466301	-35,6	     0,47249	-33,6
     42,5362	    0,463558	-34,6	     0,47166	-32,6
     42,5381	    0,464067	-34,5	    0,466911	-33,1
     42,5401	    0,470148	-32,1	    0,469496	-30,2
      42,542	    0,471503	-31,9	    0,474538	-32,5
      42,544	    0,464306	-32,5	    0,473841	-29,7
     42,5459	     0,46544	-33,5	    0,468405	-32,3
     42,5479	    0,470852	-30,6	    0,470214	-29,8
     42,5499	    0,472587	-30,1	    0,473757	-32,1
     42,5518	    0,472385	-30,6	    0,472727	-29,5
     42,5538	    0,468582	-31,4	    0,470677	-30,3
     42,5557	    0,470942	-31,3	    0,471156	-28,1
     42,5577	    0,474829	-27,3	    0,472768	-26,7
     42,5596	    0,470153	-28,5	    0,472921	-30,2
     42,5616	    0,468828	-30,2	    0,471655	-28,6
     42,5635	    0,475207	-28,0	    0,471958	-27,9
     42,5655	    0,475294	-27,3	    0,474506	-26,7
     42,5674	    0,467422	-27,1	    0,472179	-27,3
     42,5694	    0,468576	-26,0	    0,469374	-27,1
     42,5714	    0,474657	-24,9	    0,469644	-26,9
     42,5733	    0,473523	-24,8	    0,472214	-26,9
     42,5753	    0,467617	-23,8	    0,470932	-25,8
     42,5772	     0,46812	-24,0	      0,4696	-27,2
     42,5792	    0,473227	-24,1	    0,468788	-25,5
     42,5811	    0,472952	-21,7	    0,470575	-24,0
     42,5831	    0,467396	-24,0	    0,470249	-24,8
      42,585	    0,466088	-22,7	    0,470964	-24,8
      42,587	    0,472788	-22,3	    0,469791	-22,0
      42,589	    0,473623	-20,8	    0,469367	-22,8
     42,5909	    0,468746	-22,5	    0,469354	-23,1
     42,5929	    0,468781	-20,6	    0,466943	-22,3
     42,5948	    0,472932	-21,1	    0,466899	-22,5
     42,5968	    0,473441	-20,0	    0,469757	-20,6
     42,5987	    0,471473	-18,8	     0,46943	-21,2
     42,6007	    0,467531	-21,2	    0,466625	-21,3
     42,6026	    0,465621	-20,5	    0,467077	-18,7
     42,6046	     0,47292	-18,3	    0,465983	-19,5
     42,6065	     0,46828	-18,3	    0,466164	-20,7
     42,6085	    0,464017	-17,1	    0,466087	-19,1
     42,6105	    0,462755	-19,3	    0,461041	-18,2
     42,6124	    0,468816	-18,7	    0,460866	-17,3
     42,6144	     0,46926	-16,5	     0,46412	-16,7
     42,6163	    0,463643	-17,0	    0,463257	-19,5
     42,6183	    0,464577	-18,8	    0,457594	-15,4
     42,6202	    0,464333	-16,8	    0,458368	-15,1
     42,6222	    0,464097	-16,4	    0,461427	-14,9
     42,6241	    0,462712	-14,2	    0,458665	-16,2
     42,6261	    0,461262	-13,5	    0,454146	-13,9
     42,6281	    0,462095	-16,4	    0,454476	-15,8
       42,63	     0,46415	-14,2	    0,457709	-13,2
      42,632	    0,461711	-13,4	    0,458027	-14,7
     42,6339	    0,459098	-11,9	    0,455944	-13,7
     42,6359	    0,463514	-14,4	    0,452166	-14,8
     42,6378	    0,461822	-13,2	    0,453047	-12,0
     42,6398	    0,461924	-11,4	    0,454612	-12,3
     42,6417	    0,458663	-10,2	    0,450748	-14,8
     42,6437	    0,457823	-14,4	    0,450038	-14,3
     42,6456	    0,458688	-11,9	    0,449368	-10,5
     42,6476	    0,457845	-10,7	    0,451406	-11,4
     42,6496	     0,45549	-9,8	    0,451868	-11,8
     42,6515	     0,45404	-12,0	    0,447784	-12,1
     42,6535	    0,453616	-11,3	    0,446535	-8,8
     42,6554	    0,454233	-10,0	    0,448264	-10,2
     42,6574	    0,454173	-10,1	     0,44732	-10,5
     42,6593	    0,451357	-11,8	    0,444125	-10,2
     42,6613	    0,450734	-9,9	     0,44246	-7,2
     42,6632	    0,451308	-8,7	    0,442564	-6,6
     42,6652	    0,449953	-7,6	    0,443493	-8,4
     42,6672	    0,448448	-7,0	    0,442778	-9,1
     42,6691	    0,446384	-9,3	    0,440419	-10,4
     42,6711	     0,44622	-7,0	    0,437036	-6,6
      42,673	    0,446978	-6,3	    0,436681	-6,8
      42,675	    0,445966	-5,0	    0,439838	-7,1
     42,6769	     0,43978	-6,3	    0,438124	-9,0
     42,6789	    0,441136	-5,5	    0,433464	-6,7
     42,6808	    0,442051	-5,8	    0,433787	-7,0
     42,6828	    0,440269	-3,9	    0,434629	-7,0
     42,6847	     0,43882	-3,8	    0,434607	-7,2
     42,6867	    0,438189	-6,6	     0,42832	-5,8
     42,6887	    0,437869	-5,0	    0,427671	-5,9
     42,6906	    0,440123	-2,9	    0,434065	-2,8
     42,6926	    0,436714	-1,5	    0,432733	-5,6
     42,6945	    0,432543	-4,6	    0,423664	-4,4
     42,6965	    0,432826	-4,6	    0,422062	-5,0
     42,6984	    0,432409	-2,4	    0,424092	-2,0
     42,7004	     0,42964	-1,6	    0,425957	-3,2
     42,7023	    0,430467	-0,7	    0,421182	-3,9
     42,7043	     0,43048	-2,5	    0,417797	-4,2
     42,7063	    0,428639	-2,1	    0,421229	-0,4
     42,7082	    0,427332	-0,2	    0,422835	-1,5
     42,7102	    0,424608	 0,7	    0,421964	-1,4
     42,7121	    0,424365	-1,1	    0,415728	-3,9
     42,7141	    0,426562	-1,1	    0,414988	-3,3
      42,716	    0,425211	 0,2	    0,416833	-0,5
      42,718	    0,425062	 1,5	    0,418309	-0,7
     42,7199	    0,420964	 2,3	    0,414125	-2,3
     42,7219	    0,418419	 0,5	    0,413979	-1,5
     42,7239	    0,418214	 1,1	    0,408388	-0,1
     42,7258	    0,419924	 2,9	    0,407992	-2,0
     42,7278	    0,419185	 2,8	    0,411142	-2,0
     42,7297	    0,416534	 2,8	    0,410489	-2,1
     42,7317	    0,414936	 2,0	    0,402315	 0,7
     42,7336	    0,413558	 2,8	    0,402501	 0,4
     42,7356	    0,413373	 4,4	    0,406998	-0,5
     42,7375	    0,407114	 4,1	     0,40559	-0,8
     42,7395	    0,406817	 4,5	    0,400708	 0,3
     42,7414	    0,412482	 4,2	    0,397463	-0,5
     42,7434	    0,409573	 3,8	     0,40131	 2,2
     42,7454	    0,405205	 6,0	    0,399004	 3,5
     42,7473	    0,403727	 5,4	    0,397769	 0,5
     42,7493	    0,403255	 3,6	    0,395654	 2,4
     42,7512	    0,403911	 5,0	      0,3943	 4,3
     42,7532	    0,401418	 6,4	    0,392823	 4,4
     42,7551	    0,399493	 7,4	    0,394894	 2,7
     42,7571	    0,396234	 5,5	    0,395563	 3,3
      42,759	    0,397344	 6,5	    0,386746	 4,4
      42,761	    0,398685	 7,5	    0,386502	 5,2
      42,763	    0,398106	 6,9	    0,391704	 4,6
     42,7649	    0,391788	 7,6	    0,390167	 4,7
     42,7669	    0,390078	 7,7	    0,386679	 4,3
     42,7688	    0,391153	 5,6	     0,38338	 6,9
     42,7708	    0,395516	 8,3	    0,385214	 7,3
     42,7727	    0,393166	 5,4	    0,386492	 7,5
     42,7747	    0,385641	 7,4	      0,3834	 5,3
     42,7766	    0,385301	 7,2	    0,380265	 6,7
     42,7786	    0,389398	 6,2	    0,378033	 8,3
     42,7805	     0,38833	 6,3	    0,379744	 9,3
     42,7825	    0,383717	10,5	    0,379577	 6,8
     42,7845	    0,381618	 7,4	     0,38035	 8,8
     42,7864	    0,380472	 7,1	    0,372558	 8,4
     42,7884	    0,381666	 6,8	    0,372052	 9,8
     42,7903	    0,380014	 9,7	    0,376427	 8,2
     42,7923	    0,379011	 9,4	    0,376953	10,4
     42,7942	    0,377327	 8,6	    0,369448	 9,8
     42,7962	    0,377092	 7,9	    0,368486	11,5
     42,7981	    0,379008	 7,3	    0,368594	11,6
     42,8001	     0,37666	 9,3	    0,368608	11,5
     42,8021	    0,370907	10,3	    0,371154	 9,1
      42,804	    0,371415	12,0	      0,3658	10,4
      42,806	    0,371364	 7,8	    0,366184	10,4
     42,8079	    0,371319	10,3	    0,364271	11,8
     42,8099	    0,368768	11,8	    0,363681	11,3
     42,8118	    0,367859	13,8	    0,365227	10,1
     42,8138	    0,364989	11,9	    0,362339	 8,4
     42,8157	    0,363448	12,1	    0,357156	12,3
     42,8177	    0,366806	11,2	     0,35521	12,7
     42,8196	    0,366015	13,8	    0,360147	10,3
     42,8216	     0,35879	13,9	    0,360615	10,2
     42,8236	    0,357945	14,5	    0,354082	12,9
     42,8255	    0,362781	11,5	    0,350593	11,4
     42,8275	    0,360083	14,1	    0,352865	12,9
     42,8294	    0,357467	15,4	    0,354613	12,4
     42,8314	    0,354121	15,7	    0,352472	10,8
     42,8333	    0,353334	14,6	    0,350857	10,2
     42,8353	    0,352385	14,6	    0,346273	13,5
     42,8372	    0,356772	15,4	     0,34421	13,1
     42,8392	    0,354113	14,9	    0,352206	12,6
     42,8412	    0,346687	16,8	    0,348654	11,7
     42,8431	    0,346396	16,8	    0,348366	13,3
     42,8451	    0,345257	14,9	    0,340497	14,7
      42,847	    0,349322	14,3	    0,340845	15,5
      42,849	    0,349495	13,4	    0,345008	13,4
     42,8509	    0,343044	16,8	    0,342435	15,6
     42,8529	    0,342186	15,5	    0,338202	14,5
     42,8548	     0,34382	15,5	    0,336226	14,9
     42,8568	    0,342004	13,1	    0,336294	17,5
     42,8587	    0,340303	16,2	    0,336338	17,0
     42,8607	    0,340746	15,5	    0,336955	14,8
     42,8627	    0,336741	15,8	    0,336742	14,1
     42,8646	    0,335807	14,0	    0,331259	18,1
     42,8666	    0,339833	15,3	    0,327967	17,5
     42,8685	    0,338856	17,4	    0,333154	18,3
     42,8705	    0,333422	18,7	    0,335226	16,4
     42,8724	    0,331073	18,6	    0,328869	16,0
     42,8744	    0,332905	16,1	    0,327792	15,4
     42,8763	    0,331865	15,9	    0,325276	15,4
     42,8783	     0,33203	17,4	    0,327119	17,5
     42,8803	    0,329162	18,7	    0,325151	15,8
     42,8822	    0,327055	21,7	    0,324757	15,8
     42,8842	    0,324939	19,6	    0,325865	14,8
     42,8861	    0,323482	19,1	    0,319368	18,1
     42,8881	    0,326642	18,9	    0,319609	17,3
       42,89	    0,324071	18,8	    0,323821	18,3
      42,892	    0,319539	20,4	    0,322196	16,2
     42,8939	    0,317528	21,6	    0,318938	17,2
     42,8959	     0,32226	18,6	    0,313254	18,6
     42,8979	    0,320644	19,2	    0,318616	16,4
     42,8998	    0,316529	22,5	     0,31602	20,1
     42,9018	    0,316323	20,6	    0,316398	15,8
     42,9037	     0,31426	20,7	    0,315534	17,9
     42,9057	    0,314111	20,4	    0,309486	20,7
     42,9076	    0,310906	18,4	    0,308318	21,7
     42,9096	    0,314984	19,1	    0,312522	20,4
     42,9115	    0,317418	18,6	    0,311173	20,7
     42,9135	      0,3098	20,7	    0,308313	21,1
     42,9154	    0,308456	23,5	    0,308415	19,8
     42,9174	    0,310594	19,3	    0,304766	23,7
     42,9194	    0,311928	18,2	    0,305387	22,2
     42,9213	    0,308939	21,7	    0,307556	20,3
     42,9233	    0,309245	23,0	    0,307244	19,4
     42,9252	     0,30484	21,2	    0,300581	22,1
     42,9272	    0,301825	23,5	    0,298942	22,0
     42,9291	    0,305683	20,7	    0,298265	19,8
     42,9311	    0,304762	22,1	     0,29936	21,0
      42,933	    0,299321	24,8	    0,301291	19,6
      42,935	    0,298058	26,1	    0,299129	19,1
      42,937	    0,299894	21,6	    0,294123	21,3
     42,9389	    0,298333	22,5	    0,293289	21,4
     42,9409	    0,299596	23,8	     0,29583	21,5
     42,9428	    0,298124	22,2	    0,295239	22,2
     42,9448	      0,2932	26,2	    0,294106	19,9
     42,9467	    0,291891	25,8	     0,29102	21,3
     42,9487	    0,293737	22,5	    0,287528	23,7
     42,9506	    0,292958	20,6	    0,288492	25,5
     42,9526	    0,293479	22,9	    0,288467	24,9
     42,9545	    0,291885	21,5	    0,292361	23,2
     42,9565	    0,287317	23,5	    0,290377	23,3
     42,9585	    0,285276	24,0	    0,285264	24,7
     42,9604	    0,290363	21,5	    0,284091	23,7
     42,9624	    0,290671	21,5	    0,287674	25,3
     42,9643	    0,288378	24,6	    0,288602	25,1
     42,9663	    0,286994	24,4	    0,287379	22,2
     42,9682	    0,282986	25,7	    0,285049	22,1
     42,9702	    0,279427	27,3	     0,28236	25,1
     42,9721	    0,287157	23,4	    0,280403	25,1
     42,9741	    0,286147	25,8	    0,283475	22,9
     42,9761	     0,28245	29,3	    0,281011	24,3
      42,978	    0,279932	26,0	    0,279611	21,8
       42,98	     0,27885	27,9	     0,27831	23,4
     42,9819	    0,279712	25,9	    0,271994	26,4
     42,9839	    0,282329	25,3	    0,273272	27,6
     42,9858	     0,28059	25,2	    0,276713	24,8
     42,9878	    0,277851	23,8	    0,276949	25,5
     42,9897	    0,272417	27,9	    0,276354	25,6
     42,9917	    0,271922	26,5	    0,272968	25,6
     42,9936	    0,269197	25,3	    0,270544	26,0
     42,9956	    0,273377	23,2	    0,269806	28,0
     42,9976	    0,273649	26,2	    0,268928	28,3
     42,9995	    0,267958	26,2	    0,272746	24,4
     43,0015	    0,268333	29,3	    0,272525	23,2
     43,0034	    0,269737	26,7	    0,267048	27,5
     43,0054	    0,268528	27,1	    0,266084	26,2
     43,0073	    0,271668	28,2	    0,267651	27,9
     43,0093	    0,270108	28,7	    0,267009	26,4
     43,0112	    0,262686	31,7	    0,266943	24,7
     43,0132	    0,262241	29,3	    0,265212	24,6
     43,0152	    0,262742	28,1	    0,260783	27,2
     43,0171	    0,262842	27,7	    0,259961	28,3
     43,0191	    0,264964	26,0	    0,262324	28,0
      43,021	    0,265664	25,5	    0,261589	28,2
      43,023	    0,257318	29,8	    0,263831	26,1
     43,0249	    0,259097	27,8	    0,263271	26,3
     43,0269	    0,260635	25,4	     0,25648	29,6
     43,0288	    0,260059	27,3	    0,254565	28,7
     43,0308	    0,262987	25,9	     0,25462	29,0
     43,0327	    0,259625	28,8	    0,258734	28,9
     43,0347	    0,258042	29,0	    0,258828	27,2
     43,0367	    0,254884	31,1	    0,256681	24,9
     43,0386	    0,253689	32,0	    0,255043	24,6
     43,0406	     0,25635	28,4	    0,249169	28,9
     43,0425	    0,254977	28,6	    0,248325	30,3
     43,0445	     0,25279	29,4	    0,252613	26,7
     43,0464	    0,253251	26,7	    0,254388	28,2
     43,0484	    0,246616	32,3	    0,252402	27,2
     43,0503	    0,247626	30,2	    0,248974	29,1
     43,0523	    0,250372	28,1	    0,249304	30,9
     43,0543	    0,248099	26,0	    0,246044	32,5
     43,0562	    0,250176	27,9	    0,243571	30,5
     43,0582	    0,248494	28,8	    0,250954	28,8
     43,0601	    0,243084	30,9	    0,250137	28,0
     43,0621	    0,242901	31,0	    0,244081	29,4
      43,064	     0,24817	28,0	    0,243293	30,3
      43,066	    0,246778	30,1	     0,24289	31,4
     43,0679	    0,247647	30,4	    0,241981	29,7
     43,0699	    0,245805	31,5	     0,24705	27,8
     43,0718	    0,240502	33,3	    0,246175	27,4
     43,0738	    0,238143	34,2	    0,241658	28,9
     43,0758	    0,238708	31,7	    0,240801	30,1
     43,0777	    0,241455	30,6	    0,237881	32,5
     43,0797	    0,239804	28,9	     0,23627	33,4
     43,0816	    0,240687	27,5	    0,241147	30,3
     43,0836	    0,235075	33,3	    0,238613	28,8
     43,0855	    0,235172	32,5	    0,240886	29,5
     43,0875	    0,235318	28,7	    0,236039	30,3
     43,0894	    0,236325	33,1	     0,23209	34,0
     43,0914	    0,240026	30,1	    0,232439	31,8
     43,0934	    0,238421	30,2	    0,236562	30,1
     43,0953	    0,232841	33,3	    0,234343	28,2
     43,0973	    0,232924	33,8	    0,235453	28,2
     43,0992	    0,229308	33,8	     0,23386	28,7
     43,1012	    0,229105	32,5	    0,229511	31,6
     43,1031	    0,233103	31,2	    0,228097	33,7
     43,1051	    0,232932	30,5	    0,231443	32,1
      43,107	    0,231805	33,6	    0,229337	34,0
      43,109	    0,232919	32,0	    0,232287	31,1
     43,1109	    0,228483	31,0	    0,231438	31,1
     43,1129	    0,229093	32,9	    0,232454	29,3
     43,1149	    0,230111	30,6	    0,223688	34,3
     43,1168	    0,229452	31,9	    0,225485	32,0
     43,1188	    0,228114	31,8	    0,226527	32,7
     43,1207	     0,22751	33,7	    0,225887	31,9
     43,1227	    0,225185	33,8	     0,22822	29,2
     43,1246	    0,221589	34,4	    0,229648	30,0
     43,1266	    0,218434	36,1	    0,222354	31,1
     43,1285	    0,224453	31,6	    0,220924	33,1
     43,1305	    0,224108	30,8	    0,218971	34,9
     43,1325	    0,224698	32,1	    0,219697	35,8
     43,1344	    0,224249	33,9	    0,225008	31,2
     43,1364	    0,218064	33,4	    0,225887	31,7
     43,1383	    0,216988	34,7	    0,220048	32,3
     43,1403	    0,217306	35,6	    0,221085	29,8
     43,1422	    0,220633	31,8	    0,217343	33,8
     43,1442	    0,217984	33,9	    0,215289	32,8
     43,1461	    0,219072	34,4	    0,217225	31,8
     43,1481	     0,21962	33,2	    0,215706	34,7
       43,15	     0,21367	37,7	    0,220681	32,0
      43,152	    0,216178	35,0	    0,215433	33,2
      43,154	    0,214634	36,0	     0,21532	35,2
     43,1559	    0,213835	33,7	    0,211837	37,0
     43,1579	    0,218201	31,1	    0,212079	36,8
     43,1598	    0,217607	31,5	     0,21225	35,8
     43,1618	    0,213314	33,0	    0,215803	32,1
     43,1637	     0,21205	35,1	    0,216329	31,4
     43,1657	    0,209599	35,4	    0,214918	31,4
     43,1676	    0,210007	36,6	    0,208071	34,6
     43,1696	    0,215044	33,6	    0,207863	33,5
     43,1716	    0,213513	34,4	    0,207129	34,0
     43,1735	    0,210559	35,1	    0,208454	34,2
     43,1755	     0,21074	34,0	    0,210944	31,0
     43,1774	    0,204209	36,9	    0,211717	31,9
     43,1794	    0,203424	34,7	    0,205025	33,7
     43,1813	    0,203358	36,7	    0,205521	34,4
     43,1833	    0,208173	32,7	    0,204143	37,3
     43,1852	    0,205429	33,6	    0,201981	34,9
     43,1872	    0,208583	34,0	    0,202332	35,2
     43,1891	    0,207592	35,5	     0,20669	33,1
     43,1911	    0,202484	37,8	    0,206759	32,7
     43,1931	    0,202679	37,4	    0,206517	33,2
      43,195	     0,20064	36,5	    0,208204	33,6
      43,197	    0,201409	35,0	    0,201132	37,5
     43,1989	    0,206228	33,4	    0,201126	36,3
     43,2009	    0,206948	32,0	    0,201454	36,7
     43,2028	    0,200203	33,9	    0,198959	37,1
     43,2048	     0,20084	35,1	    0,204187	33,6
     43,2067	    0,196157	36,6	    0,203192	31,7
     43,2087	    0,195551	38,5	    0,199212	33,6
     43,2107	    0,201766	35,1	    0,199349	35,2
     43,2126	     0,20088	37,3	    0,198636	36,1
     43,2146	    0,201057	36,8	    0,197226	36,8
     43,2165	    0,199347	35,4	     0,20197	33,2
     43,2185	     0,20016	33,2	    0,198709	35,6
     43,2204	    0,193981	37,6	    0,198024	32,6
     43,2224	    0,195112	37,1	      0,1985	35,5
     43,2243	    0,197241	36,8	    0,197844	33,1
     43,2263	    0,194225	35,8	    0,194942	38,3
     43,2282	    0,197578	34,4	    0,194232	36,2
     43,2302	    0,197125	35,3	    0,195628	35,9
     43,2322	    0,193197	37,4	    0,195265	35,5
     43,2341	    0,192484	37,6	    0,196728	31,6
     43,2361	    0,190823	39,5	    0,195456	34,8
      43,238	    0,188974	39,0	    0,193469	35,6
       43,24	    0,189149	37,5	    0,193078	35,3
     43,2419	    0,193825	34,4	    0,187193	39,8
     43,2439	    0,193864	34,7	    0,189351	38,5
     43,2458	    0,195368	34,1	    0,192033	36,3
     43,2478	    0,195208	36,7	    0,190506	36,9
     43,2498	    0,188423	40,2	    0,192809	34,3
     43,2517	     0,18816	40,8	    0,192745	33,1
     43,2537	    0,186861	39,3	    0,187405	34,8
     43,2556	    0,185213	38,3	    0,186766	36,3
     43,2576	    0,189079	35,3	    0,185069	37,9
     43,2595	    0,189663	35,3	    0,182683	40,6
     43,2615	    0,186598	36,9	    0,187273	37,7
     43,2634	    0,187902	34,8	    0,185509	36,9
     43,2654	    0,183093	38,1	    0,189135	35,1
     43,2673	    0,183586	40,3	    0,190722	34,4
     43,2693	    0,183742	37,4	     0,18452	37,2
     43,2713	    0,185646	38,7	    0,183613	37,0
     43,2732	    0,183415	39,3	    0,181161	38,7
     43,2752	    0,186438	36,6	    0,178684	41,2
     43,2771	     0,18673	35,8	    0,184782	36,9
     43,2791	    0,182007	38,1	    0,185162	38,7
      43,281	    0,183058	37,8	    0,188475	36,1
      43,283	    0,179193	39,1	    0,187525	35,3
     43,2849	    0,181412	36,1	    0,182937	36,4
     43,2869	    0,180397	37,1	     0,18145	35,9
     43,2889	    0,184115	36,1	    0,181027	38,3
     43,2908	    0,182954	37,0	    0,177203	40,5
     43,2928	    0,181033	36,1	    0,180766	38,9
     43,2947	     0,17873	39,2	     0,17817	41,2
     43,2967	    0,178524	37,6	    0,183799	36,6
     43,2986	    0,175364	38,8	    0,182183	36,9
     43,3006	    0,175861	40,0	    0,179941	36,9
     43,3025	    0,179062	35,4	    0,180042	35,5
     43,3045	    0,178812	38,4	    0,174369	38,4
     43,3064	    0,182444	35,9	    0,173254	38,8
     43,3084	    0,179775	38,8	     0,17536	37,8
     43,3104	    0,174004	41,6	    0,174893	41,4
     43,3123	    0,174628	40,4	    0,179949	37,0
     43,3143	    0,176208	37,7	    0,180075	38,2
     43,3162	    0,173989	39,8	    0,179022	37,9
     43,3182	    0,170777	39,3	    0,178871	36,0
     43,3201	    0,175778	36,0	    0,171587	40,5
     43,3221	    0,174191	38,9	    0,170436	38,2
      43,324	    0,176119	36,9	     0,17056	39,0
      43,326	    0,173791	38,1	     0,16947	41,4
      43,328	    0,170363	41,2	    0,174551	36,3
     43,3299	    0,170953	40,0	    0,174396	38,4
     43,3319	     0,16898	43,0	    0,176823	36,8
     43,3338	    0,167248	41,0	    0,175001	38,2
     43,3358	    0,172579	37,4	    0,170726	40,6
     43,3377	    0,170494	37,7	    0,170405	38,4
     43,3397	    0,172297	36,4	    0,166774	42,2
     43,3416	    0,173184	37,7	    0,166496	40,0
     43,3436	    0,166741	42,2	    0,168696	38,6
     43,3456	    0,168215	40,4	    0,167815	41,3
     43,3475	    0,171989	38,6	    0,170877	37,9
     43,3495	    0,165703	41,5	      0,1706	38,3
     43,3514	    0,165187	41,4	    0,167251	39,4
     43,3534	     0,16834	36,5	    0,170732	36,9
     43,3553	    0,165514	40,8	    0,166331	41,3
     43,3573	     0,17096	34,9	    0,163675	41,7
     43,3592	    0,170302	38,1	    0,166088	37,9
     43,3612	    0,167993	40,6	    0,162161	40,9
     43,3631	     0,16849	37,9	    0,167881	36,7
     43,3651	    0,162872	41,9	    0,168241	39,2
     43,3671	    0,163124	40,5	    0,165354	39,0
      43,369	    0,162418	40,1	    0,166053	38,5
      43,371	    0,161682	41,0	    0,168264	37,0
     43,3729	    0,167072	37,0	    0,160184	40,4
     43,3749	    0,166869	39,9	    0,160404	42,0
     43,3768	    0,165412	39,9	    0,160713	40,1
     43,3788	    0,164342	40,3	     0,16121	42,6
     43,3807	    0,156169	43,5	     0,16395	39,1
     43,3827	    0,160401	41,4	    0,162652	40,4
     43,3847	    0,159073	43,6	    0,165156	38,6
     43,3866	    0,158432	41,7	    0,163895	37,9
     43,3886	    0,157427	42,2	    0,160366	40,5
     43,3905	    0,161596	40,1	    0,162265	38,8
     43,3925	    0,160428	42,5	    0,156891	41,5
     43,3944	    0,162717	39,7	    0,154374	42,8
     43,3964	    0,161697	36,9	    0,155061	44,1
     43,3983	    0,159198	41,2	    0,158557	43,0
     43,4003	    0,159745	38,6	    0,159732	41,9
     43,4022	    0,156295	41,0	     0,16284	39,4
     43,4042	    0,157752	44,3	    0,161748	36,9
     43,4062	     0,15635	43,3	    0,162533	38,4
     43,4081	    0,154372	45,3	    0,161558	38,9
     43,4101	     0,15836	41,8	    0,155339	42,2
      43,412	    0,156633	39,4	    0,155108	43,0
      43,414	    0,160324	38,9	    0,153179	43,6
     43,4159	    0,158405	38,0	    0,151638	43,6
     43,4179	    0,152423	42,0	    0,156597	38,1
     43,4198	    0,156701	42,3	    0,153321	37,6
     43,4218	    0,151354	42,7	    0,157822	37,8
     43,4238	    0,151325	45,3	    0,158764	39,1
     43,4257	    0,153787	42,5	     0,15616	40,3
     43,4277	     0,15128	43,7	    0,155971	38,3
     43,4296	    0,155725	37,8	    0,150109	43,2
     43,4316	    0,154166	38,6	    0,149928	44,1
     43,4335	    0,154585	39,9	     0,15089	43,5
     43,4355	    0,157979	39,0	    0,150568	43,2
     43,4374	    0,156988	40,0	    0,155358	39,0
     43,4394	    0,150941	43,2	    0,154097	40,2
     43,4413	    0,150097	46,1	    0,153143	38,5
     43,4433	    0,147287	44,4	    0,156569	40,6
     43,4453	     0,15079	42,3	    0,151851	42,2
     43,4472	    0,149384	40,3	    0,153634	39,7
     43,4492	    0,153029	38,3	    0,146617	42,3
     43,4511	    0,154636	41,3	    0,147996	42,0
     43,4531	    0,151536	41,1	    0,147389	43,1
      43,455	    0,150758	41,0	    0,146383	44,2
      43,457	    0,151244	39,8	    0,147182	45,8
     43,4589	    0,145439	44,0	     0,15186	41,7
     43,4609	    0,149501	40,9	    0,149122	42,4
     43,4629	    0,146574	44,2	     0,15199	38,0
     43,4648	     0,14623	46,0	    0,151659	37,9
     43,4668	    0,147459	42,3	    0,150451	41,0
     43,4687	    0,145332	45,3	    0,151394	39,3
     43,4707	    0,149826	39,9	    0,144828	42,9
     43,4726	    0,151343	41,3	    0,145867	43,5
     43,4746	    0,147992	37,8	    0,146757	45,3
     43,4765	    0,150617	38,6	    0,143511	43,7
     43,4785	     0,14835	39,1	    0,147054	40,0
     43,4804	    0,144987	42,1	    0,146157	41,7
     43,4824	    0,143845	44,0	    0,148239	38,5
     43,4844	     0,14035	46,8	    0,147829	39,5
     43,4863	    0,143197	44,1	    0,149218	39,8
     43,4883	    0,143287	44,9	    0,148409	40,6
     43,4902	    0,142251	43,1	    0,142408	42,7
     43,4922	    0,147722	38,0	     0,14239	42,3
     43,4941	    0,145503	41,1	    0,141933	40,8
     43,4961	    0,147863	40,2	    0,140638	44,7
      43,498	    0,149312	40,9	    0,139854	46,8
        43,5	    0,148054	44,2	    0,137234	45,5

