X-Data [Hz]	Laser (M - Filtered) [m/s]	Phase [Deg]	Laser (M - Filtered) [m/s]	Phase [Deg]	
	003: [06-04-24 11:00]		008: [06-04-24 11:06]	
         110	  0,00665348	65,6	   0,0078114	61,6
     110,117	   0,0072863	65,7	   0,0075971	62,4
     110,235	   0,0081552	61,9	  0,00758534	61,9
     110,352	  0,00752644	61,5	  0,00759011	64,1
     110,469	  0,00785834	61,6	  0,00726063	67,9
     110,587	  0,00749398	59,5	   0,0070164	67,5
     110,704	   0,0081288	62,7	  0,00778992	62,0
     110,821	  0,00804272	61,6	  0,00738982	60,1
     110,938	  0,00791742	63,9	  0,00797053	60,1
     111,056	  0,00766668	64,2	   0,0076865	62,6
     111,173	   0,0081685	61,1	   0,0075955	69,5
      111,29	  0,00840705	65,3	  0,00758651	66,1
     111,408	  0,00789323	70,3	  0,00786398	58,9
     111,525	  0,00789484	66,6	  0,00814328	62,2
     111,642	  0,00809592	62,7	  0,00758843	69,1
      111,76	  0,00794131	65,3	   0,0083952	60,5
     111,877	  0,00767058	66,0	  0,00792217	60,8
     111,994	  0,00795332	61,5	  0,00816023	62,0
     112,111	  0,00808137	67,4	  0,00832544	62,0
     112,229	  0,00798303	65,7	  0,00761894	64,7
     112,346	  0,00849656	61,0	  0,00816095	66,8
     112,463	  0,00792161	62,7	  0,00794116	65,0
     112,581	  0,00816636	64,1	  0,00801958	61,7
     112,698	  0,00812826	61,6	  0,00765651	66,7
     112,815	  0,00799014	63,1	  0,00790215	61,7
     112,933	  0,00823309	68,6	  0,00842278	62,2
      113,05	    0,008346	64,6	  0,00805715	67,8
     113,167	  0,00850227	62,3	  0,00848518	59,6
     113,284	  0,00876932	63,0	  0,00817846	64,4
     113,402	  0,00860308	59,5	  0,00815282	61,7
     113,519	  0,00812713	64,3	  0,00837797	60,4
     113,636	  0,00826307	63,4	  0,00820608	61,0
     113,754	  0,00842308	62,1	   0,0087896	63,2
     113,871	  0,00819851	63,6	  0,00873404	62,3
     113,988	  0,00834913	65,2	  0,00823102	62,2
     114,106	  0,00856825	64,4	  0,00804772	63,8
     114,223	   0,0082034	63,4	  0,00831672	64,9
      114,34	   0,0083739	62,3	  0,00846111	66,2
     114,457	  0,00921896	63,0	   0,0088888	62,4
     114,575	  0,00900975	65,2	  0,00835777	67,6
     114,692	  0,00874824	66,6	  0,00837008	66,6
     114,809	  0,00888676	64,7	  0,00857369	62,1
     114,927	   0,0083507	65,9	  0,00818294	67,9
     115,044	  0,00866454	58,3	  0,00858822	65,9
     115,161	   0,0089287	64,8	  0,00856408	61,5
     115,279	  0,00915092	60,3	   0,0089116	64,9
     115,396	   0,0086188	63,3	  0,00847012	63,5
     115,513	  0,00914271	63,6	  0,00885626	58,4
     115,631	   0,0090137	60,9	  0,00923129	63,4
     115,748	  0,00875296	65,4	  0,00842088	65,1
     115,865	  0,00880967	65,2	  0,00930637	58,8
     115,982	  0,00935446	64,0	  0,00922807	64,0
       116,1	  0,00956181	62,8	  0,00931456	66,1
     116,217	   0,0086025	61,8	  0,00855811	65,2
     116,334	  0,00874391	63,5	  0,00896719	61,7
     116,452	  0,00950776	60,1	   0,0090554	66,0
     116,569	  0,00859003	60,4	  0,00853214	65,4
     116,686	  0,00941821	56,6	  0,00905453	65,5
     116,804	   0,0094906	61,0	  0,00900509	64,9
     116,921	  0,00958389	63,5	  0,00925055	69,1
     117,038	  0,00900411	63,5	  0,00955866	65,4
     117,155	  0,00950708	60,3	  0,00922542	58,9
     117,273	  0,00977855	60,1	  0,00896024	63,9
      117,39	    0,010115	62,1	   0,0100602	60,1
     117,507	  0,00932906	64,6	  0,00941944	59,4
     117,625	  0,00974687	61,3	  0,00934455	66,2
     117,742	  0,00965157	66,4	   0,0100915	61,1
     117,859	   0,0094043	59,8	  0,00964398	64,7
     117,977	   0,0105157	62,2	   0,0099204	60,1
     118,094	   0,0100511	59,8	  0,00953842	65,9
     118,211	  0,00974628	62,6	  0,00939405	60,3
     118,328	   0,0101873	62,9	  0,00999669	65,2
     118,446	  0,00949391	64,5	  0,00954769	60,8
     118,563	   0,0103263	63,2	  0,00971634	58,8
      118,68	   0,0106129	60,8	   0,0101764	67,0
     118,798	  0,00980563	64,5	  0,00965724	61,7
     118,915	   0,0107349	61,0	   0,0108068	62,9
     119,032	   0,0106324	64,2	   0,0104355	66,7
      119,15	    0,010572	61,8	   0,0102446	65,5
     119,267	   0,0106964	60,7	  0,00953496	64,8
     119,384	   0,0106694	60,9	   0,0100013	61,4
     119,501	   0,0105177	60,6	  0,00951461	59,9
     119,619	   0,0108361	63,5	  0,00978714	60,8
     119,736	   0,0106716	61,9	  0,00991554	62,5
     119,853	   0,0111962	63,8	  0,00995533	64,4
     119,971	   0,0101519	62,2	   0,0108107	66,4
     120,088	   0,0108246	58,9	   0,0109342	62,6
     120,205	   0,0108827	64,0	   0,0106266	60,3
     120,323	   0,0102604	61,3	   0,0101733	59,2
      120,44	   0,0112332	63,6	   0,0103013	60,7
     120,557	    0,011002	65,3	   0,0111165	62,7
     120,674	   0,0106041	58,2	     0,01048	60,9
     120,792	   0,0115672	62,8	   0,0111862	64,5
     120,909	   0,0106588	60,1	    0,011181	60,2
     121,026	   0,0115567	65,1	   0,0107939	63,3
     121,144	   0,0111721	60,3	   0,0107247	60,9
     121,261	   0,0108595	60,5	   0,0110112	59,5
     121,378	    0,011092	61,9	   0,0113925	60,5
     121,496	   0,0111539	62,2	   0,0100726	42,2
     121,613	   0,0113077	63,9	   0,0108807	61,2
      121,73	   0,0120422	63,9	   0,0111646	64,8
     121,848	   0,0120693	63,1	   0,0107512	58,6
     121,965	    0,012137	60,0	    0,011022	58,9
     122,082	   0,0120684	60,6	   0,0114929	58,3
     122,199	   0,0123693	62,6	   0,0118621	61,5
     122,317	   0,0122677	61,1	   0,0117375	60,5
     122,434	   0,0119797	63,5	   0,0114866	57,9
     122,551	   0,0117649	62,3	   0,0117096	61,3
     122,669	    0,011807	61,8	   0,0106392	60,6
     122,786	   0,0120983	60,6	   0,0121226	61,6
     122,903	   0,0126403	61,1	   0,0121502	62,1
     123,021	   0,0127932	63,3	   0,0115342	61,6
     123,138	   0,0118503	60,2	   0,0115018	65,3
     123,255	   0,0128416	62,3	   0,0124346	62,0
     123,372	   0,0126101	62,9	   0,0116012	59,2
      123,49	   0,0122976	60,0	   0,0125133	62,2
     123,607	   0,0127252	63,4	    0,012261	63,1
     123,724	   0,0127678	59,3	   0,0127273	60,5
     123,842	   0,0125163	61,1	   0,0123301	61,9
     123,959	    0,012621	62,4	   0,0129673	59,8
     124,076	   0,0130851	59,5	   0,0130319	65,3
     124,194	   0,0130181	58,3	   0,0124422	60,5
     124,311	   0,0125956	59,2	   0,0125502	59,9
     124,428	   0,0131887	64,3	   0,0128023	61,1
     124,545	    0,013393	62,7	   0,0130196	58,5
     124,663	   0,0135693	62,6	   0,0127841	60,6
      124,78	   0,0133269	62,1	   0,0127094	59,5
     124,897	   0,0138129	62,8	   0,0130758	62,8
     125,015	   0,0138019	64,0	   0,0133524	64,0
     125,132	   0,0137854	62,5	   0,0132235	59,4
     125,249	    0,013723	62,0	   0,0132511	60,1
     125,367	   0,0138595	59,5	   0,0138966	62,2
     125,484	   0,0142368	60,3	   0,0141054	62,5
     125,601	   0,0144362	63,0	   0,0142996	63,5
     125,718	   0,0142821	63,1	   0,0140467	60,1
     125,836	   0,0144414	59,9	    0,013704	59,5
     125,953	   0,0144545	62,9	   0,0143423	63,8
      126,07	   0,0144322	59,5	   0,0144701	63,2
     126,188	   0,0143572	61,4	   0,0140818	57,8
     126,305	   0,0148678	61,0	   0,0145299	61,4
     126,422	   0,0148822	62,8	   0,0144991	62,6
      126,54	   0,0146109	58,0	   0,0142962	57,5
     126,657	   0,0151189	63,2	   0,0149428	61,4
     126,774	    0,015177	61,0	   0,0146021	61,9
     126,891	   0,0153549	61,7	   0,0141376	58,5
     127,009	   0,0156477	62,8	   0,0150043	61,7
     127,126	   0,0156734	62,0	   0,0151103	63,6
     127,243	   0,0155554	58,9	   0,0151389	57,4
     127,361	   0,0154347	59,1	   0,0152233	60,9
     127,478	   0,0155863	59,5	   0,0150745	61,0
     127,595	   0,0156831	60,2	   0,0153433	59,4
     127,713	   0,0158342	62,0	   0,0153055	58,6
      127,83	   0,0161921	58,5	   0,0155406	58,9
     127,947	   0,0160537	60,3	   0,0158474	59,9
     128,065	    0,016266	59,3	     0,01576	59,0
     128,182	   0,0167564	63,1	   0,0159563	61,1
     128,299	   0,0169476	63,0	   0,0163471	62,3
     128,416	    0,016979	61,6	   0,0163569	56,9
     128,534	   0,0170439	63,9	   0,0164464	60,3
     128,651	   0,0168941	60,8	   0,0163751	60,0
     128,768	   0,0172985	60,6	   0,0167386	59,1
     128,886	   0,0173875	60,4	   0,0167802	63,9
     129,003	   0,0173516	61,5	   0,0169917	62,1
      129,12	   0,0175179	61,0	   0,0169919	59,5
     129,238	   0,0177587	61,5	    0,017055	62,8
     129,355	   0,0175649	59,4	    0,017256	58,8
     129,472	   0,0179156	61,3	   0,0170959	61,2
     129,589	   0,0181976	62,6	    0,017762	58,4
     129,707	   0,0181826	59,1	   0,0177424	63,4
     129,824	   0,0181711	59,8	   0,0179793	60,7
     129,941	   0,0185168	62,9	   0,0178035	62,2
     130,059	   0,0186525	59,0	   0,0182306	58,2
     130,176	   0,0187872	57,9	   0,0181106	62,5
     130,293	   0,0188421	58,9	   0,0183737	59,8
     130,411	   0,0189737	60,5	   0,0187638	62,2
     130,528	    0,019462	61,8	   0,0188121	62,0
     130,645	   0,0194908	62,0	   0,0188302	63,6
     130,762	   0,0197946	61,2	   0,0190813	61,8
      130,88	   0,0200165	61,3	   0,0193731	58,8
     130,997	   0,0202179	61,7	   0,0192436	62,0
     131,114	   0,0203552	62,2	   0,0194991	62,0
     131,232	   0,0202669	59,4	   0,0197314	59,7
     131,349	    0,020689	60,3	   0,0199918	61,5
     131,466	   0,0208592	60,6	   0,0201191	61,1
     131,584	   0,0212396	61,5	   0,0203248	61,6
     131,701	   0,0212317	58,9	   0,0207327	57,7
     131,818	   0,0216324	60,8	   0,0208995	60,5
     131,935	   0,0216978	59,5	   0,0210555	58,4
     132,053	   0,0219328	60,9	   0,0213366	58,9
      132,17	   0,0223495	60,7	   0,0213752	60,6
     132,287	   0,0222089	59,3	   0,0217833	59,0
     132,405	   0,0226267	60,3	   0,0219771	59,0
     132,522	   0,0230267	58,2	   0,0220249	61,0
     132,639	   0,0229846	59,3	   0,0223857	60,6
     132,757	   0,0233168	59,4	   0,0226585	62,0
     132,874	   0,0237154	60,1	   0,0228675	61,3
     132,991	   0,0239627	61,6	   0,0232287	60,8
     133,109	   0,0243299	61,9	   0,0231442	59,3
     133,226	   0,0244593	59,3	   0,0235429	61,5
     133,343	   0,0246813	58,6	   0,0239083	59,9
      133,46	   0,0250428	58,3	    0,024294	58,7
     133,578	   0,0254169	60,3	   0,0248181	58,5
     133,695	   0,0254506	59,3	   0,0247004	60,0
     133,812	   0,0260507	58,4	   0,0248641	61,2
      133,93	   0,0261797	59,6	   0,0251131	60,9
     134,047	   0,0267022	58,3	   0,0258251	58,9
     134,164	   0,0268669	60,6	   0,0258551	60,4
     134,282	   0,0272755	61,1	   0,0263742	58,2
     134,399	   0,0276846	58,4	   0,0264886	59,7
     134,516	   0,0279848	59,1	   0,0270772	57,7
     134,633	   0,0283504	59,5	   0,0270891	60,9
     134,751	   0,0287403	57,7	   0,0278819	59,7
     134,868	   0,0288305	60,5	   0,0278881	58,7
     134,985	   0,0297862	59,3	   0,0281748	61,5
     135,103	   0,0299358	58,3	   0,0286184	58,5
      135,22	   0,0302376	59,7	   0,0289534	58,8
     135,337	   0,0309165	60,5	   0,0295813	57,8
     135,455	    0,030983	60,9	   0,0302962	59,0
     135,572	   0,0315073	60,7	   0,0302588	58,7
     135,689	   0,0319297	60,4	   0,0308155	58,9
     135,806	   0,0325261	60,1	   0,0310325	60,4
     135,924	   0,0330269	60,3	   0,0315985	59,3
     136,041	   0,0336433	59,0	   0,0319976	61,1
     136,158	   0,0339933	59,6	   0,0330574	59,2
     136,276	   0,0344765	60,3	   0,0330313	58,3
     136,393	   0,0352995	59,9	   0,0337509	57,4
      136,51	   0,0356956	60,8	   0,0338001	59,1
     136,628	   0,0363708	59,7	   0,0343936	59,9
     136,745	   0,0370203	58,1	   0,0349917	57,3
     136,862	   0,0375212	59,0	   0,0356818	58,8
     136,979	   0,0379336	59,2	   0,0366716	59,2
     137,097	     0,03893	57,9	   0,0371333	57,7
     137,214	   0,0395127	59,8	   0,0379551	59,4
     137,331	   0,0399269	59,8	   0,0385628	57,8
     137,449	   0,0413685	56,9	   0,0390732	59,1
     137,566	   0,0417218	59,5	   0,0398765	58,3
     137,683	    0,042855	58,0	   0,0407287	58,4
     137,801	   0,0437784	57,7	   0,0415028	59,9
     137,918	   0,0445083	58,9	   0,0426643	57,1
     138,035	   0,0462135	58,0	   0,0439044	57,6
     138,152	   0,0469673	58,3	   0,0448254	57,1
      138,27	   0,0480376	57,8	    0,046071	59,4
     138,387	   0,0495106	57,5	    0,046521	60,4
     138,504	    0,050516	58,4	   0,0477179	59,6
     138,622	    0,051656	59,3	   0,0487162	59,6
     138,739	   0,0528789	59,0	   0,0499963	60,2
     138,856	   0,0541026	58,4	   0,0511232	59,7
     138,974	   0,0554651	59,6	   0,0529643	59,6
     139,091	   0,0571136	59,5	   0,0540169	59,0
     139,208	   0,0583618	60,1	   0,0555233	58,3
     139,326	   0,0598846	60,6	   0,0571725	58,4
     139,443	   0,0616609	58,7	   0,0576996	60,4
      139,56	   0,0630844	60,4	   0,0599872	59,7
     139,677	   0,0646389	60,9	   0,0617117	59,6
     139,795	   0,0668772	60,5	   0,0627405	61,1
     139,912	   0,0680336	61,3	   0,0647575	61,0
     140,029	   0,0705685	60,2	   0,0663064	61,1
     140,147	   0,0727518	61,6	   0,0685381	59,7
     140,264	   0,0748486	61,1	   0,0697035	61,0
     140,381	   0,0770133	61,2	   0,0725171	60,3
     140,499	   0,0796027	61,8	   0,0746858	61,8
     140,616	   0,0825225	60,2	   0,0765291	61,3
     140,733	    0,084738	62,5	   0,0792732	59,3
      140,85	   0,0875844	62,8	   0,0819892	61,9
     140,968	   0,0909311	61,7	   0,0840923	62,4
     141,085	   0,0936121	61,3	   0,0872052	61,5
     141,202	   0,0969288	62,4	   0,0896224	61,5
      141,32	    0,100257	63,2	   0,0927934	60,9
     141,437	     0,10369	62,1	   0,0957372	60,8
     141,554	    0,107469	62,7	   0,0989337	61,3
     141,672	    0,110836	63,1	    0,101905	61,5
     141,789	    0,114907	63,1	     0,10561	61,9
     141,906	     0,11864	62,8	     0,10823	63,1
     142,023	    0,122746	64,1	    0,113074	63,2
     142,141	    0,126626	64,5	    0,115972	62,5
     142,258	    0,130725	64,2	    0,120654	62,4
     142,375	    0,135292	63,4	    0,124077	61,8
     142,493	    0,139692	64,4	    0,127791	63,6
      142,61	    0,143801	64,6	    0,133129	63,2
     142,727	    0,148858	64,0	    0,136419	64,3
     142,845	    0,152547	65,5	    0,140739	65,2
     142,962	    0,157728	64,5	    0,144624	62,8
     143,079	    0,161147	65,9	    0,149349	63,5
     143,196	    0,166848	64,3	    0,152556	63,6
     143,314	    0,170438	65,7	    0,158863	63,1
     143,431	    0,174469	66,9	    0,162634	65,1
     143,548	    0,179889	66,2	    0,165574	65,9
     143,666	    0,184149	65,2	    0,171027	64,2
     143,783	    0,188262	66,6	    0,175418	64,8
       143,9	    0,191812	66,8	    0,179634	65,8
     144,018	    0,197055	68,0	    0,183736	64,1
     144,135	    0,201521	66,7	    0,187851	65,6
     144,252	    0,206196	68,6	    0,191897	66,5
      144,37	    0,211133	66,6	    0,195643	65,6
     144,487	     0,21544	68,8	     0,20001	65,6
     144,604	    0,218892	67,7	    0,204249	66,8
     144,721	    0,221779	69,0	    0,209692	67,3
     144,839	    0,226783	65,7	    0,214661	66,1
     144,956	    0,231224	66,5	    0,218868	64,9
     145,073	    0,237517	66,8	    0,220837	65,9
     145,191	    0,240651	69,5	    0,224629	68,0
     145,308	    0,242498	69,2	    0,231853	67,4
     145,425	    0,250165	67,0	    0,232813	65,6
     145,543	    0,250827	69,4	    0,238662	69,1
      145,66	    0,256137	66,5	    0,242053	63,4
     145,777	    0,260358	70,4	     0,24763	68,9
     145,894	    0,263811	65,8	    0,247741	64,7
     146,012	    0,266598	71,6	    0,257526	67,2
     146,129	    0,274424	66,7	    0,254429	68,8
     146,246	     0,27168	68,7	    0,261792	64,8
     146,364	    0,281414	70,4	    0,268279	67,5
     146,481	    0,285329	67,7	    0,267987	69,3
     146,598	    0,285315	68,9	    0,275047	68,2
     146,716	    0,288894	69,3	    0,303483	162,0
     146,833	    0,293042	69,8	     0,21575	-153,1
      146,95	    0,297276	70,0	    0,256936	-163,6
     147,067	    0,301654	69,5	    0,148534	-135,0
     147,185	    0,304596	70,5	    0,124967	-130,7
     147,302	    0,308188	69,7	    0,116155	-131,1
     147,419	      0,3116	71,3	    0,105769	-130,8
     147,537	    0,314744	69,9	    0,102039	-130,1
     147,654	    0,319119	68,8	   0,0967826	-128,6
     147,771	    0,322624	70,0	   0,0899558	-129,0
     147,889	    0,326648	70,5	   0,0877958	-130,7
     148,006	    0,329087	70,5	   0,0855008	-128,7
     148,123	    0,332617	71,1	   0,0807768	-128,9
      148,24	    0,336736	70,6	    0,079494	-128,7
     148,358	    0,339401	69,7	   0,0768094	-128,6
     148,475	    0,343353	70,0	   0,0735959	-128,3
     148,592	    0,346145	70,6	   0,0723132	-127,1
      148,71	    0,349787	70,6	   0,0699508	-128,6
     148,827	     0,35279	70,5	   0,0685947	-127,8
     148,944	     0,35672	70,1	   0,0669013	-127,0
     149,062	    0,359632	70,6	   0,0640483	-127,7
     149,179	    0,362633	71,3	   0,0632286	-128,2
     149,296	    0,366273	70,6	   0,0622703	-127,5
     149,413	    0,369727	70,8	   0,0610728	-126,9
     149,531	    0,372722	70,9	   0,0590077	-127,9
     149,648	    0,375607	71,2	   0,0576526	-127,1
     149,765	    0,379097	70,9	   0,0565113	-126,5
     149,883	    0,382513	70,8	   0,0555599	-126,9
         150	    0,385596	70,9	   0,0538631	-127,4
     150,117	    0,388811	71,2	   0,0533165	-127,5
     150,235	     0,39191	71,3	   0,0526198	-126,6
     150,352	    0,395091	71,5	    0,051799	-126,6
     150,469	      0,3984	70,3	   0,0506131	-127,4
     150,587	    0,401252	72,3	   0,0489922	-127,6
     150,704	    0,404684	71,4	   0,0485874	-126,9
     150,821	    0,407651	71,1	   0,0484396	-126,9
     150,938	    0,410758	72,4	   0,0467692	-127,1
     151,056	    0,413726	72,2	   0,0457447	-127,1
     151,173	     0,41675	72,4	   0,0460717	-127,5
      151,29	    0,420152	71,8	   0,0446036	-126,9
     151,408	    0,422819	72,7	   0,0446122	-127,0
     151,525	    0,426027	71,8	   0,0430665	-127,7
     151,642	    0,428647	72,5	   0,0432472	-128,3
      151,76	    0,431587	72,8	   0,0419892	-126,5
     151,877	    0,435144	72,2	   0,0414689	-127,8
     151,994	    0,438141	73,2	   0,0412441	-127,3
     152,111	    0,440843	74,2	   0,0411008	-127,0
     152,229	    0,443929	72,5	    0,039228	-126,9
     152,346	    0,446947	72,8	   0,0391175	-126,5
     152,463	     0,44981	73,5	   0,0392522	-126,3
     152,581	     0,45257	72,4	   0,0384764	-127,1
     152,698	    0,455514	73,2	    0,038031	-126,4
     152,815	    0,458207	74,0	   0,0377628	-128,5
     152,933	    0,461271	73,2	   0,0372753	-126,5
      153,05	    0,464465	73,8	   0,0371435	-126,3
     153,167	    0,467417	72,9	   0,0362917	-127,2
     153,284	     0,47022	74,1	   0,0356424	-126,8
     153,402	    0,473254	73,2	   0,0348791	-126,5
     153,519	    0,476332	73,5	   0,0341716	-127,3
     153,636	     0,47823	74,2	   0,0345665	-126,8
     153,754	    0,481546	73,9	   0,0334159	-126,9
     153,871	    0,484873	73,3	   0,0335152	-124,6
     153,988	    0,486861	74,2	   0,0336709	-125,2
     154,106	    0,490754	72,8	    0,032383	-127,2
     154,223	    0,492481	74,0	   0,0328498	-126,0
      154,34	    0,496216	74,6	   0,0313451	-127,6
     154,457	     0,49808	74,2	   0,0322137	-126,7
     154,575	    0,502249	74,2	   0,0310159	-125,8
     154,692	    0,504313	74,1	    0,031924	-125,8
     154,809	    0,506498	73,7	   0,0309418	-126,2
     154,927	    0,510929	73,0	   0,0301005	-125,5
     155,044	    0,513171	75,3	   0,0298432	-128,8
     155,161	    0,514596	75,8	    0,030375	-126,3
     155,279	    0,517162	74,5	    0,030128	-125,2
     155,396	    0,520511	74,5	   0,0298557	-123,9
     155,513	    0,523685	73,7	   0,0291864	-125,1
      155,63	    0,527394	74,3	   0,0286548	-124,9
     155,748	    0,529437	73,1	   0,0284512	-126,2
     155,865	    0,532511	73,2	   0,0281167	-125,5
     155,982	    0,534505	73,5	   0,0279288	-125,8
       156,1	    0,536004	74,0	   0,0277832	-125,8
     156,217	    0,538072	76,1	   0,0276796	-128,1
     156,334	    0,543828	77,5	   0,0272749	-125,3
     156,452	    0,548446	74,3	   0,0267781	-124,6
     156,569	    0,547944	75,6	   0,0273531	-126,4
     156,686	    0,549907	78,4	   0,0266624	-127,1
     156,804	    0,555749	75,9	   0,0259446	-127,7
     156,921	    0,556001	76,6	   0,0267718	-125,7
     157,038	    0,559955	76,7	   0,0255241	-126,9
     157,155	    0,562122	76,0	   0,0258912	-125,9
     157,273	    0,566317	75,7	   0,0249713	-124,9
      157,39	     0,56685	76,5	   0,0255996	-125,8
     157,507	      0,5715	74,9	   0,0255559	-125,3
     157,625	    0,574126	76,1	   0,0244267	-127,9
     157,742	    0,575286	77,5	   0,0249437	-126,0
     157,859	    0,578395	75,7	   0,0246288	-125,9
     157,977	    0,582049	75,5	    0,024059	-125,0
     158,094	     0,58456	75,5	   0,0237274	-126,2
     158,211	    0,587123	76,4	   0,0232599	-126,1
     158,328	    0,588913	77,4	   0,0235883	-126,0
     158,446	    0,591791	78,7	   0,0232244	-127,9
     158,563	    0,595003	76,3	   0,0233531	-126,6
      158,68	    0,597542	77,5	   0,0229663	-124,9
     158,798	    0,600821	76,6	   0,0225232	-126,7
     158,915	    0,603061	76,4	   0,0227819	-125,3
     159,032	    0,605949	77,5	   0,0230547	-124,8
      159,15	    0,607886	78,8	   0,0229801	-124,2
     159,267	    0,610961	78,5	   0,0222149	-128,7
     159,384	    0,613757	77,0	    0,022121	-124,9
     159,501	    0,615598	77,5	   0,0225277	-126,0
     159,619	    0,618729	77,8	   0,0220232	-126,1
     159,736	    0,621559	77,3	   0,0221081	-125,3
     159,853	    0,623795	78,4	   0,0214725	-127,1
     159,971	     0,62679	76,9	   0,0215321	-125,4
     160,088	    0,629402	79,6	   0,0215308	-127,5
     160,205	    0,631842	77,7	   0,0214673	-125,7
     160,323	    0,634578	78,3	   0,0210553	-128,0
      160,44	    0,636752	78,3	   0,0215611	-124,9
     160,557	    0,639681	78,7	    0,021304	-125,4
     160,674	    0,642882	77,2	   0,0208954	-125,5
     160,792	    0,644959	78,7	   0,0204636	-126,3
     160,909	    0,647768	78,6	   0,0203375	-126,9
     161,026	    0,649463	79,2	    0,020578	-124,9
     161,144	    0,652962	79,3	   0,0205941	-127,0
     161,261	    0,655388	79,4	   0,0206515	-124,7
     161,378	    0,657589	78,0	   0,0201726	-126,5
     161,496	    0,660532	78,7	   0,0199998	-126,3
     161,613	    0,663229	78,5	   0,0201111	-125,9
      161,73	    0,665986	78,2	   0,0199554	-127,2
     161,848	    0,668561	78,7	   0,0194683	-126,3
     161,965	     0,67129	79,4	   0,0194531	-124,3
     162,082	    0,673567	79,5	   0,0197444	-123,7
     162,199	     0,67604	80,0	   0,0194546	-125,1
     162,317	    0,678913	79,8	   0,0189229	-127,5
     162,434	    0,681574	79,2	   0,0191473	-124,6
     162,551	    0,684372	79,9	   0,0190647	-125,6
     162,669	    0,686512	78,4	    0,018606	-126,1
     162,786	    0,689102	79,9	   0,0190592	-124,5
     162,903	     0,69212	79,3	    0,018478	-126,0
     163,021	    0,694237	79,7	   0,0182236	-129,3
     163,138	    0,696905	80,4	   0,0186025	-126,4
     163,255	    0,699773	78,7	   0,0181913	-126,5
     163,372	    0,702076	80,8	   0,0181113	-125,7
      163,49	    0,704752	80,7	   0,0184504	-125,2
     163,607	    0,707146	80,2	   0,0179408	-125,6
     163,724	    0,709927	80,2	      0,0181	-123,6
     163,842	    0,712134	80,7	   0,0177912	-128,0
     163,959	    0,714937	79,6	   0,0177142	-127,1
     164,076	    0,717312	80,3	   0,0176171	-125,6
     164,194	    0,720056	80,1	    0,017686	-126,1
     164,311	    0,722727	81,2	   0,0173583	-127,6
     164,428	    0,725273	81,2	   0,0171153	-128,0
     164,545	    0,727862	81,6	   0,0172145	-127,8
     164,663	    0,730282	79,8	   0,0175719	-123,3
      164,78	    0,733207	80,0	   0,0173264	-126,4
     164,897	    0,735296	81,7	   0,0174561	-126,5
     165,015	    0,737837	81,2	    0,017035	-127,6
     165,132	    0,740867	81,1	   0,0171112	-125,1
     165,249	    0,743816	80,6	   0,0170834	-127,7
     165,367	    0,746285	80,1	   0,0167902	-128,1
     165,484	    0,748784	80,4	   0,0169672	-126,6
     165,601	    0,750826	81,8	   0,0166102	-127,9
     165,718	    0,754135	80,5	   0,0168276	-127,9
     165,836	    0,756382	80,8	   0,0164487	-127,0
     165,953	    0,758709	81,5	   0,0165492	-124,5
      166,07	    0,761111	81,0	   0,0164862	-125,8
     166,188	    0,763828	82,1	   0,0162861	-125,3
     166,305	    0,766455	82,1	   0,0162191	-128,8
     166,422	    0,768902	80,8	   0,0162058	-126,4
      166,54	    0,771245	82,2	   0,0162356	-126,8
     166,657	    0,774227	81,4	   0,0159707	-126,3
     166,774	    0,776855	82,0	   0,0159267	-124,6
     166,891	    0,779424	82,4	   0,0161146	-128,6
     167,009	    0,781473	82,7	    0,015743	-127,7
     167,126	    0,784103	82,6	   0,0157405	-125,6
     167,243	    0,786764	83,2	   0,0157679	-124,6
     167,361	    0,789147	83,6	   0,0157895	-125,0
     167,478	    0,791555	83,1	   0,0155802	-125,0
     167,595	     0,79526	80,7	   0,0154742	-125,8
     167,713	    0,797442	81,2	   0,0156104	-128,0
      167,83	    0,800104	81,9	   0,0152812	-128,2
     167,947	    0,802255	82,1	    0,015587	-124,4
     168,065	     0,80503	81,5	   0,0153293	-128,8
     168,182	     0,80777	82,1	   0,0153803	-126,1
     168,299	    0,810157	82,4	   0,0153369	-126,4
     168,416	     0,81302	82,4	   0,0151893	-125,4
     168,534	    0,815692	84,5	    0,015207	-126,2
     168,651	    0,817904	82,4	   0,0150869	-126,2
     168,768	    0,820524	82,7	   0,0151299	-124,6
     168,886	    0,823078	83,1	   0,0151731	-127,0
     169,003	    0,825651	82,9	   0,0150499	-126,5
      169,12	    0,828095	84,1	   0,0148068	-124,9
     169,238	    0,830292	82,7	   0,0149204	-125,5
     169,355	    0,833014	82,3	   0,0147058	-124,5
     169,472	    0,835556	82,0	   0,0147999	-126,3
     169,589	    0,838167	82,8	   0,0147729	-126,0
     169,707	     0,84081	83,4	   0,0145695	-127,0
     169,824	    0,843281	83,6	   0,0145389	-128,6
     169,941	    0,845958	82,6	   0,0144753	-126,1
     170,059	    0,848344	83,3	   0,0145686	-127,4
     170,176	    0,850735	82,9	   0,0146015	-125,7
     170,293	    0,853374	82,9	   0,0142428	-125,6
     170,411	    0,855624	85,2	   0,0141777	-127,7
     170,528	    0,858414	84,7	    0,014159	-125,0
     170,645	    0,860846	84,0	   0,0141843	-126,0
     170,762	    0,863604	83,0	   0,0141751	-124,4
      170,88	     0,86618	82,9	   0,0141877	-126,1
     170,997	    0,868909	82,4	   0,0141637	-126,5
     171,114	    0,871491	84,3	   0,0137758	-124,1
     171,232	     0,87399	84,5	   0,0140663	-127,5
     171,349	     0,87639	83,2	    0,013964	-126,7
     171,466	    0,879499	85,2	   0,0139671	-126,0
     171,584	    0,881542	84,5	   0,0139401	-126,0
     171,701	    0,884035	82,2	    0,013876	-124,7
     171,818	    0,886915	83,0	   0,0140367	-127,4
     171,935	    0,888945	85,2	   0,0138196	-125,2
     172,053	    0,892277	83,2	   0,0137912	-125,0
      172,17	    0,894522	84,2	     0,01365	-127,0
     172,287	      0,8969	82,9	   0,0139032	-129,3
     172,405	    0,899394	84,9	   0,0135007	-127,4
     172,522	    0,902159	84,5	     0,01354	-126,2
     172,639	    0,904885	83,5	   0,0134543	-124,8
     172,757	    0,907111	83,9	   0,0135854	-128,3
     172,874	    0,909741	85,7	   0,0135334	-124,8
     172,991	     0,91244	84,8	   0,0135621	-126,6
     173,109	    0,914971	84,4	   0,0139381	-127,6
     173,226	    0,917427	85,8	   0,0134416	-127,4
     173,343	    0,920006	85,1	   0,0130016	-126,6
      173,46	    0,922527	84,5	   0,0133753	-127,3
     173,578	    0,925065	83,7	   0,0134131	-126,1
     173,695	    0,927734	84,7	   0,0134783	-127,9
     173,812	    0,930331	84,6	    0,013257	-125,0
      173,93	    0,932937	84,4	   0,0132396	-126,3
     174,047	    0,935628	83,9	    0,013038	-124,7
     174,164	    0,938041	84,6	   0,0131047	-125,0
     174,282	    0,940728	85,3	   0,0131982	-126,6
     174,399	    0,943216	84,0	   0,0132725	-129,0
     174,516	    0,945896	84,8	   0,0127922	-125,4
     174,633	    0,948773	84,9	   0,0134216	-128,9
     174,751	    0,951267	85,7	   0,0131172	-128,0
     174,868	    0,953455	85,6	   0,0129618	-126,8
     174,985	    0,956227	85,5	   0,0130243	-126,9
     175,103	    0,958493	86,3	   0,0128004	-124,6
      175,22	    0,961295	85,8	   0,0131449	-128,5
     175,337	     0,96389	83,7	   0,0129236	-127,8
     175,455	    0,966169	85,4	   0,0127946	-127,9
     175,572	     0,96908	84,9	   0,0128698	-128,4
     175,689	    0,971542	85,1	   0,0129179	-125,6
     175,806	    0,974272	84,9	   0,0129355	-128,5
     175,924	    0,976948	86,4	   0,0128354	-128,4
     176,041	    0,979299	85,2	   0,0127229	-127,3
     176,158	    0,981453	86,6	   0,0122481	-125,2
     176,276	    0,984149	86,6	   0,0129071	-129,7
     176,393	    0,986933	86,8	   0,0129714	-130,0
      176,51	    0,989411	86,5	   0,0124958	-128,5
     176,628	    0,992306	85,7	   0,0124916	-126,4
     176,745	    0,994714	85,8	   0,0124949	-125,7
     176,862	    0,996783	87,5	   0,0125398	-129,6
     176,979	     1,00014	85,6	   0,0128505	-127,5
     177,097	     1,00244	85,7	   0,0124257	-127,4
     177,214	     1,00482	86,4	   0,0124124	-127,1
     177,331	     1,00739	87,0	   0,0122988	-125,1
     177,449	     1,01008	86,3	   0,0127299	-130,0
     177,566	      1,0127	85,6	   0,0126446	-129,0
     177,683	     1,01498	87,0	   0,0121907	-123,5
     177,801	     1,01786	86,3	   0,0123963	-128,5
     177,918	     1,02053	86,5	   0,0120851	-126,7
     178,035	       1,023	88,2	   0,0126824	-128,7
     178,152	     1,02563	86,8	   0,0121755	-126,1
      178,27	     1,02769	86,0	   0,0121198	-128,3
     178,387	     1,03054	86,4	   0,0123092	-128,7
     178,504	     1,03313	87,8	   0,0127653	-127,3
     178,622	     1,03544	86,9	   0,0125905	-128,2
     178,739	     1,03836	86,2	   0,0120086	-127,1
     178,856	     1,04053	87,1	   0,0122915	-126,6
     178,974	     1,04316	86,9	   0,0120728	-125,4
     179,091	     1,04592	86,5	    0,011823	-125,6
     179,208	     1,04876	87,3	   0,0115034	-125,3
     179,326	     1,05159	86,9	   0,0119422	-126,3
     179,443	       1,054	86,3	   0,0117143	-124,7
      179,56	     1,05698	85,6	   0,0120438	-126,9
     179,677	     1,05966	88,4	   0,0117517	-124,5
     179,795	     1,06202	87,2	   0,0121568	-127,7
     179,912	     1,06454	87,3	   0,0116227	-125,5
     180,029	      1,0678	88,0	   0,0123026	-127,0
     180,147	     1,07028	87,9	   0,0117898	-127,4
     180,264	     1,07259	87,0	   0,0120265	-128,4
     180,381	     1,07587	87,9	   0,0120178	-124,8
     180,499	     1,07808	88,9	   0,0118861	-127,0
     180,616	     1,08068	87,9	   0,0116494	-126,1
     180,733	     1,08319	88,1	   0,0117222	-129,9
      180,85	     1,08627	88,4	   0,0121572	-127,8
     180,968	     1,08921	87,6	   0,0116356	-126,1
     181,085	     1,09142	87,6	   0,0122147	-128,0
     181,202	     1,09424	88,4	   0,0118225	-128,5
      181,32	     1,09689	88,0	   0,0116416	-124,6
     181,437	     1,09913	89,6	     0,01133	-124,3
     181,554	      1,1018	88,3	   0,0120731	-129,5
     181,672	     1,10481	89,0	   0,0121976	-127,2
     181,789	     1,10736	87,2	   0,0119564	-128,4
     181,906	     1,10995	88,2	   0,0115486	-126,6
     182,023	     1,11296	87,4	   0,0120144	-127,6
     182,141	     1,11507	89,0	   0,0117935	-129,1
     182,258	      1,1183	88,3	   0,0117364	-128,1
     182,375	     1,12041	89,2	   0,0114849	-127,8
     182,493	      1,1235	88,4	   0,0116925	-128,2
      182,61	     1,12619	90,4	   0,0114312	-126,6
     182,727	     1,12904	89,0	   0,0118599	-129,2
     182,845	     1,13159	89,1	   0,0117433	-128,1
     182,962	     1,13465	88,9	   0,0121537	-127,7
     183,079	     1,13713	89,0	    0,010991	-122,5
     183,196	     1,13956	87,5	   0,0116719	-127,0
     183,314	     1,14191	88,7	   0,0116055	-126,4
     183,431	     1,14527	88,2	   0,0112633	-124,7
     183,548	     1,14729	89,1	   0,0111258	-128,0
     183,666	     1,15011	88,3	   0,0113229	-126,9
     183,783	     1,15296	89,9	   0,0119161	-128,0
       183,9	     1,15558	88,9	   0,0111864	-123,5
     184,018	     1,15811	89,4	   0,0109821	-127,8
     184,135	     1,16122	88,9	   0,0117434	-125,9
     184,252	     1,16416	89,5	   0,0117581	-129,4
      184,37	      1,1665	89,0	   0,0116276	-125,1
     184,487	     1,16891	89,8	   0,0113524	-126,3
     184,604	     1,17153	89,0	   0,0114381	-124,0
     184,721	     1,17417	89,7	   0,0118951	-126,3
     184,839	     1,17701	89,9	   0,0118385	-127,6
     184,956	     1,17966	89,3	   0,0110168	-126,3
     185,073	     1,18241	89,7	    0,011699	-126,5
     185,191	     1,18496	89,1	   0,0115403	-128,6
     185,308	     1,18835	88,9	   0,0109367	-126,6
     185,425	     1,19026	90,7	   0,0114774	-125,4
     185,543	     1,19332	89,6	   0,0110422	-127,9
      185,66	      1,1956	90,5	   0,0111636	-126,7
     185,777	     1,19844	90,6	   0,0107123	-126,3
     185,894	     1,20128	90,3	   0,0118709	-125,3
     186,012	     1,20389	89,1	      0,0111	-124,0
     186,129	     1,20657	91,3	   0,0106844	-127,9
     186,246	     1,20908	91,0	   0,0117098	-125,4
     186,364	     1,21213	89,3	   0,0110458	-126,0
     186,481	     1,21461	90,7	   0,0108929	-124,4
     186,598	     1,21691	90,8	   0,0110754	-128,7
     186,716	     1,21968	88,9	   0,0118234	-126,5
     186,833	     1,22248	89,8	   0,0110128	-126,2
      186,95	     1,22502	91,6	   0,0113291	-124,3
     187,067	     1,22741	91,9	   0,0116805	-128,6
     187,185	     1,23106	89,9	   0,0109328	-124,9
     187,302	     1,23288	91,9	   0,0108666	-125,0
     187,419	      1,2362	91,6	   0,0112414	-127,5
     187,537	     1,23801	90,7	   0,0114275	-126,1
     187,654	     1,24122	91,5	   0,0113079	-125,5
     187,771	     1,24337	90,9	   0,0114133	-126,3
     187,889	     1,24587	92,5	   0,0113012	-127,3
     188,006	      1,2492	92,3	    0,010815	-126,2
     188,123	     1,25044	94,0	    0,010551	-129,5
      188,24	     1,25228	96,3	   0,0106692	-127,5
     188,358	     1,25497	95,7	   0,0106049	-125,4
     188,475	     1,25703	97,4	   0,0116225	-126,2
     188,592	     1,25907	100,5	   0,0107155	-127,3
      188,71	     1,26049	101,9	    0,011508	-125,7
     188,827	     1,26318	102,6	   0,0110621	-126,1
     188,944	     1,26625	102,7	   0,0108154	-124,8
     189,062	     1,27069	99,5	   0,0111318	-128,0
     189,179	     1,27509	95,2	   0,0111327	-127,0
     189,296	     1,27756	96,6	   0,0106041	-127,2
     189,413	     1,28094	96,2	   0,0106449	-126,4
     189,531	     1,28401	95,3	   0,0110044	-129,8
     189,648	     1,28677	94,4	   0,0112271	-125,2
     189,765	     1,28949	95,3	   0,0108276	-125,6
     189,883	     1,29266	93,4	   0,0109655	-125,2
         190	     1,29552	93,1	   0,0110004	-126,5
     190,117	     1,29764	94,2	   0,0107921	-128,1
     190,235	     1,30056	94,3	   0,0105957	-128,5
     190,352	     1,30328	93,7	   0,0112162	-128,5
     190,469	      1,3062	94,3	   0,0108888	-125,9
     190,587	      1,3091	95,1	    0,010962	-126,6
     190,704	      1,3114	93,2	   0,0110989	-126,8
     190,821	     1,31452	92,5	   0,0111538	-127,4
     190,938	     1,31731	92,5	     0,01095	-126,9
     191,056	     1,32037	93,8	   0,0110273	-127,3
     191,173	     1,32265	94,3	    0,010745	-125,2
      191,29	     1,32529	93,5	    0,010884	-128,0
     191,408	      1,3284	93,1	   0,0108108	-127,1
     191,525	     1,33091	93,3	   0,0107216	-127,2
     191,642	     1,33378	93,5	   0,0107517	-127,4
      191,76	     1,33677	93,3	    0,010951	-124,2
     191,877	     1,33959	92,5	   0,0113538	-126,6
     191,994	     1,34198	92,1	   0,0109497	-126,0
     192,111	     1,34498	92,4	   0,0105132	-128,3
     192,229	     1,34769	95,5	   0,0109275	-122,7
     192,346	     1,35075	93,8	   0,0105919	-127,7
     192,463	     1,35329	93,5	   0,0110627	-126,2
     192,581	      1,3561	93,1	   0,0109999	-125,6
     192,698	     1,35863	95,3	   0,0102879	-125,9
     192,815	     1,36186	94,0	   0,0109395	-127,5
     192,933	      1,3649	92,9	   0,0111512	-126,1
      193,05	     1,36705	93,6	   0,0109364	-126,8
     193,167	     1,36999	93,2	   0,0110314	-125,8
     193,284	     1,37345	93,7	   0,0111273	-128,5
     193,402	     1,37543	93,3	   0,0110514	-128,4
     193,519	     1,37841	94,2	   0,0106003	-128,7
     193,636	     1,38144	93,1	   0,0107248	-126,2
     193,754	     1,38458	93,6	   0,0105938	-126,8
     193,871	     1,38742	93,6	   0,0105381	-125,5
     193,988	     1,38982	93,3	   0,0109999	-129,3
     194,106	     1,39344	93,4	     0,01023	-128,5
     194,223	     1,39575	94,0	   0,0109332	-126,5
      194,34	     1,39863	94,6	   0,0104671	-126,9
     194,457	     1,40168	94,0	   0,0106648	-126,7
     194,575	     1,40445	92,5	   0,0107797	-124,2
     194,692	     1,40747	93,2	   0,0110646	-126,2
     194,809	     1,41029	92,8	   0,0111058	-126,4
     194,927	     1,41289	94,0	   0,0108317	-125,4
     195,044	     1,41571	92,9	   0,0111448	-126,5
     195,161	     1,41858	93,2	   0,0113934	-126,0
     195,279	      1,4217	93,8	   0,0109024	-124,4
     195,396	     1,42446	94,0	   0,0110092	-129,7
     195,513	      1,4269	93,3	   0,0108969	-125,1
      195,63	      1,4305	94,1	   0,0107319	-123,8
     195,748	     1,43326	93,7	   0,0104348	-126,8
     195,865	     1,43629	94,3	   0,0103992	-125,7
     195,982	     1,43885	92,6	   0,0104133	-126,0
       196,1	      1,4416	95,6	   0,0107689	-125,4
     196,217	     1,44477	93,8	   0,0109069	-122,8
     196,334	     1,44796	93,7	   0,0107202	-126,9
     196,452	     1,45049	94,5	   0,0107861	-127,0
     196,569	     1,45266	94,3	   0,0113408	-125,4
     196,686	     1,45596	94,4	   0,0104372	-125,7
     196,804	      1,4586	93,5	   0,0107598	-124,6
     196,921	     1,46134	95,1	   0,0108504	-126,3
     197,038	     1,46486	94,2	   0,0109755	-127,6
     197,155	     1,46755	93,0	   0,0104506	-125,5
     197,273	      1,4703	94,2	   0,0111118	-123,4
      197,39	     1,47311	95,4	   0,0103882	-126,2
     197,507	     1,47585	94,3	   0,0111535	-126,4
     197,625	       1,479	94,5	   0,0109511	-126,6
     197,742	     1,48166	94,0	   0,0105941	-128,8
     197,859	     1,48442	95,0	   0,0104625	-125,0
     197,977	     1,48756	93,8	   0,0106588	-127,1
     198,094	     1,49022	95,1	   0,0109686	-124,9
     198,211	     1,49346	93,9	   0,0109361	-125,0
     198,328	     1,49629	94,9	   0,0105096	-126,1
     198,446	     1,49875	94,8	   0,0107592	-129,1
     198,563	     1,50175	94,0	   0,0110419	-126,1
      198,68	     1,50462	94,6	   0,0105983	-129,1
     198,798	     1,50764	95,5	   0,0105535	-127,8
     198,915	     1,51073	94,2	   0,0107291	-129,6
     199,032	     1,51348	95,4	   0,0104155	-128,3
      199,15	      1,5167	92,7	   0,0106232	-126,7
     199,267	     1,51983	95,4	   0,0106889	-125,2
     199,384	      1,5224	94,7	    0,011142	-124,1
     199,501	     1,52552	95,2	   0,0115092	-122,5
     199,619	     1,52883	92,9	    0,010848	-125,1
     199,736	     1,53155	94,9	   0,0109841	-123,6
     199,853	     1,53405	95,9	   0,0113397	-123,9
     199,971	     1,53732	94,9	   0,0112794	-124,5
     200,088	     1,53995	95,2	   0,0107578	-126,0
     200,205	     1,54325	95,2	   0,0111346	-124,2
     200,323	     1,54609	96,1	   0,0107395	-126,2
      200,44	     1,54946	95,3	   0,0112579	-125,0
     200,557	     1,55258	94,2	   0,0109729	-127,0
     200,674	     1,55545	96,0	   0,0115788	-121,9
     200,792	     1,55802	95,7	   0,0107232	-129,7
     200,909	     1,56095	95,3	   0,0109622	-126,3
     201,026	     1,56354	94,7	   0,0108368	-124,8
     201,144	     1,56683	96,0	    0,011124	-122,0
     201,261	     1,56986	94,1	   0,0111115	-125,9
     201,378	     1,57274	94,9	   0,0107773	-126,3
     201,496	     1,57549	95,2	   0,0110936	-125,9
     201,613	     1,57853	96,4	   0,0109259	-125,9
      201,73	     1,58144	96,1	   0,0113589	-123,2
     201,848	      1,5848	95,1	   0,0109781	-125,0
     201,965	     1,58761	94,4	   0,0106529	-127,9
     202,082	     1,59096	95,7	   0,0110549	-126,0
     202,199	     1,59378	94,7	   0,0109827	-126,2
     202,317	     1,59667	95,2	   0,0108853	-124,4
     202,434	     1,59974	94,5	   0,0110151	-125,8
     202,551	     1,60299	94,7	   0,0113077	-125,4
     202,669	     1,60536	94,4	   0,0110143	-127,4
     202,786	     1,60862	96,5	   0,0112611	-124,3
     202,903	     1,61163	94,6	   0,0109403	-127,8
     203,021	     1,61407	95,9	   0,0112558	-125,7
     203,138	     1,61724	96,3	   0,0110429	-121,0
     203,255	     1,62011	97,7	   0,0109262	-128,6
     203,372	     1,62356	94,7	   0,0112803	-124,2
      203,49	      1,6266	95,5	   0,0112173	-125,0
     203,607	     1,62948	93,9	   0,0109971	-124,0
     203,724	     1,63297	94,4	   0,0111163	-127,2
     203,842	     1,63552	95,4	   0,0109577	-128,3
     203,959	     1,63882	95,4	   0,0112424	-123,9
     204,076	     1,64192	95,9	   0,0113082	-125,2
     204,194	     1,64452	94,9	   0,0112809	-126,4
     204,311	     1,64794	96,0	   0,0112525	-125,2
     204,428	     1,65069	96,2	   0,0110344	-127,7
     204,545	     1,65406	95,4	   0,0109458	-126,1
     204,663	     1,65654	97,0	   0,0115294	-123,9
      204,78	     1,65978	96,3	   0,0115583	-123,9
     204,897	     1,66294	96,9	   0,0113229	-124,1
     205,015	     1,66613	96,9	   0,0113031	-124,6
     205,132	     1,66902	97,6	   0,0111938	-126,9
     205,249	     1,67191	98,5	   0,0110467	-127,5
     205,367	     1,67527	98,5	   0,0113628	-126,1
     205,484	     1,67837	96,0	    0,011197	-124,9
     205,601	     1,68183	96,4	   0,0110524	-126,8
     205,718	     1,68478	94,5	   0,0114469	-123,8
     205,836	     1,68792	97,0	   0,0110801	-123,9
     205,953	     1,69119	96,4	   0,0112909	-125,7
      206,07	      1,6939	98,0	   0,0114944	-122,8
     206,188	     1,69723	96,2	   0,0111121	-127,1
     206,305	     1,70008	96,2	   0,0114267	-122,3
     206,422	     1,70309	98,0	   0,0111573	-126,9
      206,54	     1,70748	96,1	   0,0114777	-124,1
     206,657	     1,71023	96,4	   0,0114771	-122,6
     206,774	     1,71362	98,3	   0,0112811	-126,6
     206,891	     1,71672	95,4	   0,0115141	-124,3
     207,009	     1,71977	97,5	   0,0117673	-122,1
     207,126	     1,72296	98,9	    0,011601	-126,1
     207,243	     1,72605	98,4	   0,0113601	-123,7
     207,361	     1,72925	98,8	   0,0113889	-126,0
     207,478	     1,73261	96,3	   0,0117325	-123,2
     207,595	     1,73553	97,5	   0,0114958	-125,9
     207,713	     1,73869	96,7	    0,011606	-125,6
      207,83	     1,74246	98,4	   0,0115816	-124,5
     207,947	     1,74484	98,9	   0,0115176	-122,7
     208,065	     1,74836	97,3	   0,0115422	-127,2
     208,182	     1,75132	99,2	   0,0114694	-124,6
     208,299	     1,75496	97,9	   0,0117803	-124,1
     208,416	     1,75835	97,8	   0,0117644	-125,8
     208,534	     1,76126	99,7	    0,011417	-129,5
     208,651	     1,76509	96,0	   0,0116074	-123,6
     208,768	     1,76784	98,5	     0,01172	-122,4
     208,886	      1,7707	97,4	   0,0116625	-127,9
     209,003	     1,77431	97,7	   0,0114996	-123,5
      209,12	     1,77743	97,9	   0,0117476	-124,3
     209,238	     1,78027	97,7	   0,0115903	-124,0
     209,355	     1,78352	97,8	   0,0117576	-125,0
     209,472	     1,78666	100,0	   0,0115277	-126,9
     209,589	      1,7898	96,8	   0,0118448	-123,1
     209,707	     1,79344	97,2	    0,011996	-121,3
     209,824	     1,79688	98,5	   0,0117082	-123,7
     209,941	         1,8	96,0	   0,0117806	-124,9
     210,059	     1,80344	97,5	    0,011706	-121,7
     210,176	     1,80671	98,5	   0,0116461	-125,4
     210,293	     1,81048	97,9	    0,011574	-127,0
     210,411	     1,81276	99,4	   0,0117452	-122,9
     210,528	     1,81708	98,6	   0,0118059	-123,9
     210,645	     1,82068	98,1	   0,0116478	-122,8
     210,762	     1,82327	100,2	   0,0116946	-124,4
      210,88	     1,82652	101,3	   0,0116926	-124,1
     210,997	     1,82966	99,8	   0,0118772	-125,2
     211,114	      1,8335	98,3	   0,0119865	-126,4
     211,232	     1,83713	99,5	   0,0118809	-124,7
     211,349	     1,83996	98,8	   0,0118883	-123,7
     211,466	     1,84396	95,9	   0,0117534	-123,2
     211,584	     1,84737	99,2	   0,0119373	-128,4
     211,701	     1,85033	98,8	   0,0119848	-125,5
     211,818	     1,85364	98,7	   0,0121214	-125,7
     211,935	     1,85755	96,3	   0,0121775	-126,8
     212,053	     1,86038	99,4	     0,01185	-124,0
      212,17	     1,86426	100,9	   0,0121753	-124,6
     212,287	     1,86735	99,9	   0,0121513	-126,2
     212,405	     1,87077	97,2	   0,0120389	-121,7
     212,522	     1,87438	97,4	   0,0119114	-122,8
     212,639	     1,87743	95,1	   0,0121719	-123,3
     212,757	     1,88097	99,8	   0,0122345	-124,6
     212,874	     1,88491	94,2	    0,012198	-127,0
     212,991	   0,0121055	-123,5	   0,0122414	-126,2
     213,109	   0,0118137	-122,6	   0,0119801	-122,6
     213,226	    0,012101	-125,1	   0,0124017	-124,3
     213,343	    0,012085	-124,7	   0,0123389	-124,6
      213,46	   0,0122001	-125,1	   0,0123682	-125,5
     213,578	   0,0124696	-125,5	   0,0124176	-124,3
     213,695	   0,0122233	-122,3	   0,0123931	-125,7
     213,812	   0,0123512	-124,7	   0,0123043	-126,0
      213,93	   0,0122788	-124,0	   0,0123054	-122,4
     214,047	   0,0124121	-122,8	   0,0124607	-123,7
     214,164	   0,0122729	-126,0	    0,012404	-123,2
     214,282	    0,012317	-123,5	   0,0126485	-125,0
     214,399	    0,012396	-124,3	   0,0121863	-122,6
     214,516	   0,0127355	-124,8	   0,0125599	-126,1
     214,633	   0,0123721	-122,2	   0,0125302	-123,8
     214,751	   0,0122728	-124,2	   0,0124282	-123,3
     214,868	   0,0124977	-126,0	   0,0123556	-123,4
     214,985	    0,012802	-126,2	   0,0126216	-126,8
     215,103	   0,0127109	-124,5	   0,0124938	-122,6
      215,22	   0,0125655	-125,1	   0,0126511	-122,5
     215,337	   0,0126373	-125,1	   0,0130095	-125,5
     215,455	   0,0125852	-125,4	    0,012755	-123,8
     215,572	   0,0129554	-125,0	   0,0125305	-123,2
     215,689	   0,0124098	-123,9	   0,0128832	-125,2
     215,806	   0,0127511	-124,3	   0,0129028	-125,6
     215,924	   0,0125593	-122,3	   0,0126001	-122,3
     216,041	    0,012834	-124,2	   0,0128748	-123,5
     216,158	   0,0127895	-124,4	   0,0132095	-124,1
     216,276	   0,0128054	-124,3	   0,0128179	-123,3
     216,393	   0,0128338	-122,8	   0,0131431	-124,2
      216,51	   0,0126562	-122,6	   0,0126448	-122,2
     216,628	   0,0133386	-124,5	   0,0129527	-124,5
     216,745	   0,0130943	-125,2	   0,0132757	-124,2
     216,862	   0,0129795	-122,8	   0,0129199	-123,7
     216,979	   0,0128191	-122,7	   0,0129457	-123,2
     217,097	   0,0129747	-124,2	   0,0131574	-125,1
     217,214	   0,0131884	-124,9	   0,0127909	-122,0
     217,331	   0,0129823	-123,9	   0,0132137	-121,7
     217,449	   0,0127545	-121,5	   0,0132303	-125,7
     217,566	   0,0127248	-121,5	   0,0132967	-125,4
     217,683	   0,0131763	-126,3	   0,0135501	-124,2
     217,801	    0,013156	-122,0	   0,0133661	-123,5
     217,918	   0,0133896	-122,6	   0,0132408	-123,6
     218,035	   0,0134077	-123,2	   0,0133408	-123,3
     218,152	   0,0137284	-124,5	   0,0133842	-123,7
      218,27	   0,0133387	-121,3	   0,0132757	-122,4
     218,387	   0,0136956	-122,4	   0,0134416	-123,4
     218,504	   0,0135792	-125,2	   0,0138038	-126,1
     218,622	   0,0135092	-124,5	   0,0136375	-124,2
     218,739	   0,0137785	-125,3	   0,0137172	-123,3
     218,856	   0,0141471	-122,4	   0,0135003	-123,1
     218,974	   0,0137737	-126,3	   0,0136882	-124,2
     219,091	   0,0131621	-123,8	   0,0137137	-124,4
     219,208	   0,0136968	-121,3	   0,0138145	-124,4
     219,326	   0,0137082	-122,9	   0,0137209	-122,3
     219,443	   0,0138028	-122,4	    0,013929	-123,8
      219,56	   0,0137205	-124,8	    0,014026	-123,8
     219,677	   0,0137207	-121,9	   0,0136988	-122,3
     219,795	   0,0140405	-125,1	   0,0135231	-123,4
     219,912	   0,0137189	-121,5	   0,0139146	-120,3
     220,029	   0,0139814	-124,2	   0,0140042	-123,5
     220,147	   0,0138356	-123,3	   0,0141131	-124,3
     220,264	   0,0140427	-126,6	   0,0139656	-122,5
     220,381	   0,0141472	-123,3	   0,0139927	-121,9
     220,499	   0,0139368	-122,4	   0,0142756	-124,3
     220,616	   0,0140067	-122,1	    0,014393	-122,6
     220,733	   0,0144731	-121,4	   0,0141079	-120,8
      220,85	   0,0140911	-121,3	   0,0140138	-122,7
     220,968	    0,014283	-122,8	   0,0145449	-124,9
     221,085	   0,0144695	-123,9	   0,0141844	-120,8
     221,202	   0,0144947	-122,6	   0,0144723	-123,9
      221,32	   0,0144564	-121,8	   0,0142989	-121,4
     221,437	   0,0145204	-123,0	   0,0146596	-122,4
     221,554	   0,0143551	-123,2	   0,0147328	-122,9
     221,672	   0,0146177	-123,8	   0,0147921	-123,9
     221,789	   0,0142604	-121,4	   0,0144928	-120,4
     221,906	   0,0150739	-123,0	   0,0145701	-122,3
     222,023	   0,0147809	-121,2	   0,0145507	-124,0
     222,141	   0,0146871	-121,3	   0,0151959	-123,9
     222,258	   0,0144391	-122,0	   0,0155259	-122,3
     222,375	    0,015264	-121,0	   0,0152446	-124,4
     222,493	   0,0143189	-123,0	   0,0148349	-120,4
      222,61	   0,0145594	-124,0	   0,0147372	-122,4
     222,727	   0,0152702	-124,2	   0,0153319	-124,2
     222,845	   0,0149783	-121,8	   0,0149219	-122,4
     222,962	   0,0149955	-122,4	   0,0158634	-120,5
     223,079	   0,0152801	-124,5	   0,0151375	-120,3
     223,196	    0,015084	-123,7	   0,0154453	-120,8
     223,314	    0,015384	-122,8	   0,0154428	-122,8
     223,431	   0,0147689	-120,6	    0,015408	-123,6
     223,548	   0,0155126	-123,6	   0,0156338	-122,3
     223,666	   0,0151769	-120,1	   0,0153549	-121,2
     223,783	   0,0154684	-118,8	   0,0149614	-121,2
       223,9	   0,0155088	-122,4	   0,0161843	-121,0
     224,018	   0,0154111	-120,9	   0,0153417	-122,5
     224,135	    0,016109	-122,8	   0,0155607	-120,9
     224,252	   0,0159851	-120,8	   0,0159136	-123,9
      224,37	   0,0157573	-122,2	   0,0158661	-121,0
     224,487	   0,0160476	-122,2	   0,0160964	-120,7
     224,604	   0,0157335	-122,7	   0,0159451	-121,7
     224,721	    0,016078	-119,8	   0,0159905	-121,4
     224,839	   0,0160758	-119,7	   0,0158939	-121,1
     224,956	   0,0158879	-122,3	   0,0161039	-122,5
     225,073	   0,0164237	-120,4	   0,0162749	-121,7
     225,191	   0,0166523	-124,0	   0,0159003	-122,2
     225,308	   0,0158686	-119,9	   0,0165333	-121,5
     225,425	   0,0166616	-121,7	   0,0169188	-122,5
     225,543	   0,0164025	-121,3	   0,0165867	-121,5
      225,66	   0,0170884	-119,5	   0,0165477	-118,5
     225,777	   0,0166913	-119,3	   0,0166149	-122,1
     225,894	   0,0168116	-122,5	   0,0169238	-120,0
     226,012	   0,0170854	-123,6	   0,0171091	-122,3
     226,129	   0,0168128	-121,2	   0,0170869	-121,5
     226,246	   0,0165592	-120,0	   0,0172445	-122,6
     226,364	   0,0173506	-120,1	   0,0175748	-121,6
     226,481	   0,0167421	-121,0	   0,0175985	-121,7
     226,598	   0,0168344	-119,8	   0,0177642	-120,9
     226,716	   0,0170322	-121,5	   0,0176932	-119,8
     226,833	   0,0171035	-120,4	   0,0172697	-119,6
      226,95	   0,0173501	-121,4	   0,0172965	-121,0
     227,067	   0,0177291	-121,4	   0,0173832	-120,2
     227,185	   0,0177985	-121,3	   0,0180676	-120,6
     227,302	   0,0177998	-120,1	   0,0175653	-121,3
     227,419	   0,0178623	-120,4	   0,0178818	-122,2
     227,537	    0,018432	-122,0	   0,0180444	-121,0
     227,654	   0,0177297	-120,9	   0,0181934	-120,9
     227,771	   0,0178691	-120,8	   0,0185568	-119,5
     227,889	   0,0178369	-121,4	   0,0182549	-118,7
     228,006	   0,0182117	-119,0	   0,0181272	-118,4
     228,123	   0,0186574	-119,9	    0,017759	-121,2
      228,24	   0,0181636	-120,1	   0,0180022	-122,1
     228,358	   0,0187831	-119,7	    0,018234	-120,9
     228,475	   0,0185873	-119,8	   0,0189306	-121,6
     228,592	   0,0189836	-121,5	   0,0186052	-120,3
      228,71	   0,0191723	-119,5	   0,0190939	-119,4
     228,827	   0,0184183	-119,1	   0,0186829	-120,0
     228,944	    0,019079	-118,5	   0,0193211	-118,5
     229,062	   0,0193814	-118,1	   0,0192215	-119,7
     229,179	    0,019168	-120,1	   0,0192801	-119,2
     229,296	   0,0191838	-119,3	   0,0194109	-118,9
     229,413	   0,0193767	-118,3	   0,0196937	-120,1
     229,531	   0,0194906	-120,4	    0,019303	-119,2
     229,648	   0,0199607	-119,6	   0,0199497	-121,0
     229,765	   0,0201667	-119,4	   0,0197629	-118,7
     229,883	   0,0195978	-119,9	   0,0199295	-118,0
         230	   0,0203344	-120,1	   0,0205037	-119,5

