X-Data [Hz]	Laser (M - Filtered) [m/s]	Phase [Deg]	Laser (M - Filtered) [m/s]	Phase [Deg]	
	002: [06-29-24 13:51]		003: [06-29-24 13:54]	
         134	   0,0119645	65,4	   0,0128716	59,5
     134,016	   0,0125762	62,7	   0,0140201	55,9
     134,031	   0,0125962	59,3	   0,0138177	62,4
     134,047	   0,0118989	62,8	   0,0139239	64,4
     134,063	   0,0116635	66,4	   0,0140361	65,0
     134,078	   0,0123118	61,4	   0,0138078	57,8
     134,094	   0,0125457	63,3	   0,0137436	56,5
     134,109	   0,0132268	58,2	   0,0143687	56,7
     134,125	   0,0124516	64,8	   0,0136475	64,5
     134,141	   0,0126774	55,5	   0,0135472	59,5
     134,156	    0,012417	57,9	   0,0141924	65,2
     134,172	    0,012639	55,3	   0,0141353	64,4
     134,188	   0,0123448	59,9	    0,013905	56,5
     134,203	   0,0128309	65,4	   0,0147633	62,9
     134,219	    0,012865	56,8	   0,0146258	65,6
     134,235	   0,0130646	60,8	   0,0147472	59,9
      134,25	   0,0131492	59,6	   0,0144814	65,4
     134,266	   0,0129682	58,7	   0,0140433	56,9
     134,282	   0,0126172	56,3	   0,0145777	57,6
     134,297	   0,0129691	58,6	   0,0143041	58,8
     134,313	   0,0131748	60,9	   0,0143996	55,2
     134,328	    0,012831	64,5	   0,0150141	60,8
     134,344	   0,0133097	66,6	   0,0146422	61,6
      134,36	   0,0133818	60,3	   0,0147173	58,9
     134,375	   0,0129059	60,0	   0,0144808	62,0
     134,391	   0,0128554	61,8	   0,0148373	59,1
     134,407	   0,0134116	63,5	   0,0147431	61,2
     134,422	   0,0136089	60,5	   0,0149845	62,6
     134,438	   0,0132308	59,3	   0,0153758	65,5
     134,454	   0,0132402	58,8	   0,0155537	64,3
     134,469	   0,0138315	58,8	    0,015059	65,3
     134,485	   0,0136896	55,7	   0,0153298	59,2
       134,5	   0,0134713	60,3	   0,0152019	63,5
     134,516	   0,0141223	56,0	   0,0150735	56,9
     134,532	   0,0138816	60,8	   0,0155662	58,0
     134,547	   0,0138547	58,8	   0,0158558	60,8
     134,563	   0,0138244	63,3	   0,0157583	61,3
     134,579	   0,0138404	64,3	   0,0158429	62,7
     134,594	   0,0143755	59,1	   0,0153692	58,0
      134,61	   0,0141083	60,3	   0,0152696	66,8
     134,626	   0,0140635	59,9	   0,0148553	65,4
     134,641	   0,0142261	61,5	   0,0150274	60,9
     134,657	   0,0146277	57,9	   0,0148836	61,7
     134,673	    0,014154	64,0	   0,0154489	60,7
     134,688	   0,0140611	60,0	   0,0157525	56,4
     134,704	   0,0141892	65,0	   0,0159586	58,8
     134,719	    0,014137	63,2	   0,0155771	64,2
     134,735	   0,0141679	63,5	   0,0159216	61,0
     134,751	   0,0142283	60,1	   0,0158111	64,3
     134,766	   0,0150287	60,6	   0,0156007	64,7
     134,782	   0,0149081	63,9	   0,0155764	62,1
     134,798	   0,0153213	62,2	   0,0159048	63,0
     134,813	   0,0147122	64,2	    0,015741	57,8
     134,829	   0,0149093	64,2	   0,0164685	62,7
     134,845	    0,015234	62,7	   0,0161653	60,9
      134,86	   0,0151919	62,3	   0,0163626	65,1
     134,876	   0,0153253	63,3	   0,0163094	65,9
     134,891	    0,015041	65,1	   0,0163435	59,4
     134,907	   0,0151084	66,0	   0,0167928	60,7
     134,923	   0,0154776	60,1	   0,0163065	60,3
     134,938	   0,0152776	59,0	   0,0167577	64,4
     134,954	     0,01523	57,5	   0,0167451	60,7
      134,97	   0,0154116	61,3	   0,0170464	67,9
     134,985	   0,0154443	63,1	   0,0170037	64,6
     135,001	   0,0154217	63,4	   0,0172433	60,4
     135,017	   0,0155321	58,9	   0,0172841	58,8
     135,032	     0,01558	59,6	   0,0169947	66,2
     135,048	   0,0152766	62,4	   0,0170514	65,3
     135,064	   0,0155448	65,5	   0,0171225	63,7
     135,079	   0,0156308	58,1	   0,0175298	61,2
     135,095	   0,0157313	60,0	   0,0177231	59,3
      135,11	   0,0156528	59,9	   0,0177981	63,1
     135,126	   0,0161025	64,5	   0,0175407	64,1
     135,142	   0,0152838	60,6	   0,0178979	61,6
     135,157	   0,0155527	59,5	   0,0179065	61,6
     135,173	   0,0155524	66,4	   0,0174108	61,0
     135,189	   0,0161556	60,5	   0,0176691	59,2
     135,204	   0,0156332	63,6	   0,0175837	66,1
      135,22	   0,0161862	64,6	   0,0174803	65,3
     135,236	   0,0162276	61,8	   0,0180654	60,0
     135,251	   0,0161574	57,0	    0,018365	61,3
     135,267	   0,0161287	55,4	   0,0180944	67,5
     135,283	   0,0159861	61,0	   0,0181146	66,7
     135,298	   0,0160433	63,1	   0,0187368	61,9
     135,314	   0,0166843	59,2	    0,019106	60,5
     135,329	   0,0167396	61,0	   0,0192543	62,8
     135,345	   0,0172165	65,2	    0,019072	64,9
     135,361	   0,0169329	64,2	    0,018869	63,1
     135,376	   0,0171085	64,0	    0,018726	58,6
     135,392	   0,0170678	60,2	   0,0187174	61,4
     135,408	   0,0175044	63,8	   0,0186371	63,5
     135,423	   0,0172383	62,8	   0,0186269	62,9
     135,439	   0,0170747	63,2	   0,0191175	62,3
     135,455	   0,0172669	62,1	   0,0186957	64,7
      135,47	   0,0175235	65,3	   0,0190991	67,0
     135,486	    0,017415	58,6	   0,0197879	61,2
     135,501	   0,0176312	61,9	   0,0197994	59,9
     135,517	   0,0176337	60,5	   0,0193371	68,3
     135,533	   0,0181332	63,3	    0,019568	65,7
     135,548	   0,0173412	62,1	   0,0196839	60,3
     135,564	   0,0171504	60,6	   0,0191548	59,7
      135,58	   0,0180496	59,8	   0,0192463	61,7
     135,595	   0,0179462	65,1	   0,0193991	60,4
     135,611	   0,0178683	59,6	   0,0200293	60,6
     135,627	   0,0181884	65,7	   0,0199145	65,6
     135,642	   0,0179703	66,1	   0,0198655	61,1
     135,658	   0,0179941	57,3	   0,0203294	62,1
     135,674	   0,0183557	58,1	    0,020207	66,2
     135,689	   0,0181877	62,9	   0,0204084	67,1
     135,705	   0,0182583	63,8	   0,0210448	63,6
      135,72	    0,018302	60,8	   0,0202015	65,1
     135,736	     0,01893	65,0	   0,0205589	59,7
     135,752	   0,0189415	65,4	   0,0210051	58,6
     135,767	   0,0189291	60,1	   0,0209151	58,9
     135,783	   0,0186572	62,5	    0,020847	61,5
     135,799	   0,0184724	65,3	   0,0212291	62,8
     135,814	   0,0192002	62,3	   0,0207309	63,8
      135,83	   0,0198154	64,1	   0,0214689	62,9
     135,846	    0,019191	62,2	   0,0218062	63,4
     135,861	   0,0191879	61,1	    0,021483	64,9
     135,877	   0,0198478	65,6	   0,0213564	63,7
     135,892	   0,0193184	62,1	   0,0212215	64,2
     135,908	   0,0196332	60,7	   0,0216532	66,9
     135,924	   0,0198949	64,2	   0,0224247	65,2
     135,939	   0,0201118	61,6	   0,0222955	61,1
     135,955	   0,0204555	59,1	   0,0218057	65,6
     135,971	   0,0205297	68,4	   0,0223686	65,0
     135,986	   0,0193618	62,5	   0,0221518	63,3
     136,002	    0,019283	63,3	   0,0218499	65,1
     136,018	   0,0195951	59,3	   0,0228456	64,4
     136,033	   0,0205893	61,1	   0,0232661	58,8
     136,049	   0,0213353	60,9	   0,0229927	66,5
     136,065	   0,0203082	64,9	   0,0225413	64,2
      136,08	   0,0199979	61,1	     0,02267	65,1
     136,096	   0,0202555	64,7	   0,0230953	65,1
     136,111	   0,0208093	66,2	    0,023393	64,1
     136,127	   0,0217532	63,0	   0,0235779	69,1
     136,143	   0,0209422	65,3	   0,0234059	65,9
     136,158	   0,0207523	61,9	   0,0229813	63,0
     136,174	   0,0210408	67,4	   0,0233371	65,8
      136,19	   0,0207598	66,2	   0,0244541	66,8
     136,205	   0,0220163	62,7	   0,0240839	65,0
     136,221	   0,0212502	66,0	   0,0234922	66,1
     136,237	   0,0210975	63,4	   0,0245043	63,8
     136,252	   0,0212154	64,5	   0,0242964	66,8
     136,268	   0,0222313	62,0	   0,0243401	59,4
     136,283	   0,0220511	58,7	     0,02462	64,3
     136,299	   0,0213258	62,5	   0,0249673	65,6
     136,315	   0,0226711	61,0	   0,0242816	64,8
      136,33	   0,0227247	65,0	   0,0251128	66,3
     136,346	   0,0218936	63,2	   0,0253216	65,3
     136,362	   0,0222375	64,1	   0,0250615	67,9
     136,377	      0,0229	62,6	   0,0258209	63,7
     136,393	   0,0229681	63,2	    0,025522	65,6
     136,409	   0,0225227	63,6	   0,0262009	59,2
     136,424	   0,0223361	63,3	   0,0257907	62,6
      136,44	   0,0232415	66,0	   0,0263584	65,9
     136,456	   0,0237416	61,4	   0,0259481	62,7
     136,471	   0,0228491	65,7	   0,0259513	68,5
     136,487	   0,0229602	63,0	   0,0270645	62,8
     136,502	   0,0235626	68,0	   0,0263675	69,6
     136,518	    0,023784	67,7	   0,0267146	60,3
     136,534	   0,0236285	63,5	   0,0268079	64,7
     136,549	   0,0234743	68,3	   0,0273172	64,6
     136,565	   0,0244523	68,7	    0,027663	68,2
     136,581	   0,0240276	67,9	   0,0278623	64,0
     136,596	   0,0239378	64,2	   0,0273429	62,9
     136,612	   0,0251338	65,6	    0,027857	68,1
     136,628	   0,0240298	64,9	    0,028239	67,4
     136,643	    0,024175	66,6	   0,0278012	65,7
     136,659	   0,0257456	62,8	   0,0288978	65,2
     136,674	   0,0242655	66,1	   0,0285843	65,4
      136,69	   0,0245537	60,5	   0,0288931	63,9
     136,706	   0,0254233	69,9	   0,0290881	71,7
     136,721	   0,0250082	64,8	   0,0294055	64,1
     136,737	   0,0251203	68,8	    0,029514	64,9
     136,753	    0,026135	62,2	   0,0290783	67,1
     136,768	   0,0249447	68,4	   0,0299067	67,8
     136,784	    0,026169	65,1	   0,0296952	67,1
       136,8	   0,0256052	65,1	   0,0305407	66,7
     136,815	   0,0257912	67,2	   0,0302652	65,0
     136,831	   0,0269893	65,4	    0,031173	66,7
     136,847	   0,0259745	62,9	   0,0310607	65,8
     136,862	   0,0271963	62,1	   0,0305767	64,1
     136,878	   0,0265867	63,9	   0,0312763	69,8
     136,893	    0,026285	66,6	   0,0315333	63,1
     136,909	   0,0278445	63,8	   0,0312824	69,6
     136,925	   0,0268085	63,9	   0,0322952	68,0
      136,94	   0,0275667	65,5	   0,0318332	67,0
     136,956	   0,0277081	63,9	   0,0322863	64,9
     136,972	   0,0273453	69,2	   0,0322208	68,4
     136,987	   0,0285707	64,4	   0,0330148	66,4
     137,003	    0,027985	66,5	   0,0326021	68,0
     137,019	   0,0281633	64,5	   0,0334018	69,8
     137,034	   0,0284487	65,8	   0,0335182	69,5
      137,05	   0,0286155	66,5	   0,0335678	66,5
     137,065	   0,0287832	62,4	   0,0346912	65,5
     137,081	   0,0286287	67,7	   0,0338093	69,9
     137,097	   0,0294723	65,9	    0,034581	67,3
     137,112	   0,0294952	67,5	   0,0351006	69,7
     137,128	   0,0294164	69,2	   0,0351638	66,1
     137,144	   0,0299861	67,6	   0,0357819	73,0
     137,159	   0,0298447	65,4	   0,0358775	68,4
     137,175	   0,0307884	65,4	   0,0355846	69,9
     137,191	   0,0305486	68,9	   0,0371097	70,3
     137,206	   0,0304892	66,5	   0,0361496	65,9
     137,222	   0,0315762	69,8	    0,036729	71,2
     137,238	   0,0300309	70,6	   0,0364808	67,9
     137,253	   0,0313546	67,1	   0,0377269	70,6
     137,269	   0,0308312	71,9	   0,0371202	71,7
     137,284	   0,0324387	67,6	   0,0389372	66,6
       137,3	   0,0324509	68,0	   0,0381643	72,9
     137,316	   0,0326735	66,6	   0,0389813	72,2
     137,331	   0,0321947	65,8	    0,039138	70,2
     137,347	   0,0331768	71,3	   0,0389281	69,9
     137,363	   0,0322332	69,5	   0,0393761	70,6
     137,378	    0,033595	67,9	   0,0402226	72,6
     137,394	   0,0335132	68,2	   0,0395853	67,1
      137,41	   0,0334671	68,2	   0,0410767	71,2
     137,425	   0,0345464	70,1	   0,0403567	72,9
     137,441	   0,0337245	72,5	   0,0415689	70,7
     137,456	   0,0354239	67,3	   0,0411803	70,1
     137,472	   0,0341013	71,8	   0,0429098	73,0
     137,488	   0,0359616	67,6	   0,0424021	69,1
     137,503	   0,0345308	69,5	   0,0434864	75,8
     137,519	   0,0353463	70,8	    0,043237	74,8
     137,535	   0,0364261	66,0	   0,0438126	76,3
      137,55	   0,0350902	71,2	   0,0433263	73,5
     137,566	   0,0367122	71,0	   0,0452029	71,3
     137,582	   0,0368136	70,6	   0,0450533	67,7
     137,597	   0,0365494	71,7	   0,0453878	75,9
     137,613	   0,0379235	70,4	   0,0452008	72,8
     137,629	   0,0373392	70,7	   0,0467158	68,2
     137,644	   0,0386918	72,0	   0,0465951	74,5
      137,66	   0,0374292	72,5	   0,0483427	71,6
     137,675	   0,0394762	68,1	   0,0484292	76,0
     137,691	    0,038478	68,8	   0,0479641	77,1
     137,707	   0,0398483	72,6	   0,0489523	70,1
     137,722	   0,0386394	72,3	   0,0497808	74,3
     137,738	   0,0405086	70,6	   0,0499411	73,9
     137,754	   0,0401544	71,6	   0,0500437	77,5
     137,769	   0,0404687	70,2	   0,0504341	74,4
     137,785	   0,0409372	69,2	   0,0517609	75,5
     137,801	   0,0404472	75,4	   0,0514505	73,0
     137,816	   0,0418166	72,3	   0,0527294	76,6
     137,832	   0,0420809	70,3	   0,0528606	75,8
     137,848	   0,0421769	72,4	   0,0534384	75,1
     137,863	   0,0426553	74,4	   0,0545584	74,7
     137,879	   0,0434813	70,0	   0,0545632	79,3
     137,894	   0,0436705	72,3	   0,0557524	78,3
      137,91	   0,0445844	73,5	   0,0562042	76,4
     137,926	   0,0442496	72,6	   0,0568286	78,5
     137,941	   0,0452816	72,1	   0,0566709	76,3
     137,957	   0,0446774	72,4	   0,0587604	73,3
     137,973	   0,0457119	72,7	   0,0596814	77,9
     137,988	   0,0466338	72,8	    0,060071	75,9
     138,004	   0,0469707	73,0	   0,0612236	83,1
      138,02	   0,0472453	73,9	   0,0610226	77,8
     138,035	    0,047639	75,3	   0,0622827	76,5
     138,051	   0,0483776	78,1	    0,063017	80,0
     138,066	     0,04895	72,8	   0,0644709	83,8
     138,082	   0,0485377	72,3	   0,0658317	78,3
     138,098	   0,0502492	77,8	   0,0648479	77,6
     138,113	   0,0503091	78,5	   0,0662489	82,0
     138,129	   0,0514094	71,0	   0,0680024	82,7
     138,145	   0,0511529	72,2	   0,0680438	82,0
      138,16	   0,0522395	76,3	   0,0697147	79,5
     138,176	   0,0530312	79,9	   0,0704293	85,6
     138,192	   0,0535903	73,1	     0,07265	87,0
     138,207	   0,0545676	74,6	   0,0724981	83,2
     138,223	   0,0544502	75,5	   0,0728555	81,6
     138,239	   0,0558229	79,0	   0,0750594	83,0
     138,254	   0,0562933	75,7	   0,0744949	88,1
      138,27	   0,0573757	78,9	   0,0758288	87,1
     138,285	   0,0571799	74,5	   0,0780689	82,6
     138,301	   0,0580066	79,0	   0,0785633	83,2
     138,317	   0,0587818	79,0	    0,081003	89,1
     138,332	   0,0595731	78,4	   0,0815722	87,1
     138,348	   0,0589101	79,7	   0,0820556	91,2
     138,364	   0,0613335	78,5	   0,0830512	84,9
     138,379	   0,0623266	79,6	    0,084872	88,0
     138,395	   0,0633437	82,4	   0,0868612	91,6
     138,411	   0,0645073	82,2	   0,0870401	92,5
     138,426	   0,0635305	81,3	   0,0888535	87,3
     138,442	   0,0651537	82,1	   0,0895222	89,8
     138,457	   0,0676097	79,9	   0,0908494	94,2
     138,473	   0,0681431	80,3	   0,0940992	90,1
     138,489	   0,0675338	83,5	    0,094501	98,2
     138,504	   0,0682812	81,5	   0,0941799	96,4
      138,52	   0,0702713	83,4	   0,0947043	97,3
     138,536	   0,0712062	84,0	   0,0981968	93,7
     138,551	   0,0714955	83,0	   0,0990049	92,8
     138,567	   0,0733903	84,2	    0,100473	96,5
     138,583	   0,0744361	87,2	    0,103085	98,9
     138,598	    0,074563	90,0	    0,103502	99,4
     138,614	   0,0777015	85,3	    0,104762	100,7
      138,63	   0,0796068	81,6	     0,10651	97,0
     138,645	   0,0791249	85,5	    0,106876	98,3
     138,661	   0,0786174	88,5	    0,109111	101,1
     138,676	   0,0793075	86,5	    0,109726	105,1
     138,692	   0,0823544	91,9	    0,111173	102,6
     138,708	   0,0853946	89,7	    0,113206	102,3
     138,723	   0,0860912	93,7	    0,113135	105,2
     138,739	   0,0868074	89,9	    0,115188	103,2
     138,755	    0,089344	90,0	    0,116977	103,6
      138,77	   0,0903603	89,2	    0,117244	103,2
     138,786	   0,0899365	90,8	    0,119966	109,0
     138,802	   0,0913542	95,5	    0,122365	107,3
     138,817	   0,0941259	93,7	    0,122585	110,7
     138,833	   0,0956726	97,6	    0,125054	109,3
     138,848	   0,0960656	98,9	    0,126017	109,2
     138,864	   0,0981871	97,5	    0,125907	110,0
      138,88	   0,0988709	97,6	    0,126999	112,4
     138,895	     0,10077	98,9	     0,13046	109,8
     138,911	    0,101044	103,4	    0,130627	111,1
     138,927	     0,10165	99,8	    0,130438	116,1
     138,942	    0,104397	97,9	    0,131036	117,6
     138,958	    0,106867	96,0	    0,133231	119,5
     138,974	    0,107262	102,9	    0,136176	116,7
     138,989	    0,108891	105,1	    0,137343	122,0
     139,005	    0,111717	102,4	    0,137074	122,3
     139,021	    0,112745	109,1	    0,137542	122,6
     139,036	    0,112879	105,8	    0,139255	119,9
     139,052	    0,115331	105,3	    0,139092	123,9
     139,067	    0,116193	106,3	     0,14034	124,4
     139,083	    0,116754	109,7	    0,141412	122,5
     139,099	    0,119456	115,7	    0,142181	125,6
     139,114	    0,121482	107,7	    0,143981	129,6
      139,13	    0,121989	115,2	     0,14409	128,0
     139,146	    0,122337	115,3	     0,14382	133,8
     139,161	    0,124105	113,0	    0,145294	130,2
     139,177	    0,127578	110,7	    0,147539	133,9
     139,193	    0,127978	116,4	    0,148004	134,6
     139,208	    0,127521	116,7	    0,146991	139,0
     139,224	    0,128575	121,6	     0,14711	139,0
     139,239	    0,131418	116,5	    0,148448	138,8
     139,255	    0,133858	117,5	    0,147353	141,0
     139,271	    0,134789	117,8	    0,146476	148,8
     139,286	    0,134911	121,2	    0,146495	148,6
     139,302	    0,135626	123,5	    0,147366	150,8
     139,318	    0,137343	121,4	    0,147567	149,3
     139,333	    0,139436	124,8	     0,14565	155,3
     139,349	     0,14053	123,6	    0,143818	158,1
     139,365	    0,140378	125,4	     0,14152	157,6
      139,38	    0,140981	125,5	    0,139856	165,7
     139,396	    0,140957	134,7	    0,138634	160,7
     139,412	    0,142751	130,4	    0,135312	165,8
     139,427	    0,145506	134,3	    0,132822	170,0
     139,443	    0,147495	131,5	    0,132169	168,6
     139,458	    0,147829	133,8	    0,130945	174,7
     139,474	    0,146568	134,2	    0,129004	173,6
      139,49	    0,146916	137,1	    0,125177	178,7
     139,505	    0,146212	139,8	    0,122187	184,0
     139,521	    0,148338	143,8	    0,120244	184,7
     139,537	    0,149503	142,1	    0,119675	187,9
     139,552	    0,151234	139,5	    0,118879	188,1
     139,568	    0,150832	147,2	    0,117242	180,4
     139,584	    0,150141	145,1	    0,115526	187,7
     139,599	     0,15161	142,0	    0,113164	185,3
     139,615	    0,153028	143,0	    0,112511	190,7
      139,63	    0,153586	146,5	    0,111365	187,1
     139,646	    0,153737	145,3	    0,109509	189,0
     139,662	    0,153911	148,3	    0,107122	191,0
     139,677	    0,152183	151,8	    0,104133	191,4
     139,693	     0,15064	157,9	    0,101447	192,4
     139,709	    0,149152	160,0	   0,0992684	192,2
     139,724	    0,148477	164,2	   0,0980097	194,5
      139,74	    0,147723	167,1	   0,0980127	196,9
     139,756	    0,147087	172,3	    0,096062	194,8
     139,771	    0,146908	168,0	   0,0940505	197,0
     139,787	    0,146939	167,8	   0,0913182	199,4
     139,803	     0,14607	173,4	    0,090914	-156,7
     139,818	    0,144683	175,9	   0,0903697	-156,9
     139,834	    0,143156	172,7	   0,0905801	-157,9
     139,849	    0,141107	173,4	   0,0903318	-157,4
     139,865	    0,138799	182,5	   0,0900421	-159,8
     139,881	    0,135633	183,1	   0,0882671	-157,2
     139,896	    0,132231	190,1	   0,0868023	-159,5
     139,912	    0,127232	189,9	   0,0858751	-161,5
     139,928	    0,123477	190,9	   0,0847038	-156,5
     139,943	    0,119568	193,1	   0,0840181	-154,3
     139,959	     0,11398	195,6	   0,0835989	-149,7
     139,975	    0,109894	196,3	   0,0823839	-154,8
      139,99	    0,106909	199,1	   0,0813154	-152,9
     140,006	    0,104719	195,7	   0,0798235	-153,5
     140,021	    0,103787	-159,4	   0,0790743	-154,2
     140,037	    0,102294	-158,8	   0,0788031	-156,7
     140,053	    0,100271	-163,7	   0,0784546	-156,3
     140,068	   0,0979656	-160,8	   0,0772754	-154,7
     140,084	   0,0945383	-157,8	   0,0751396	-145,7
       140,1	   0,0914276	-157,1	   0,0737415	-149,2
     140,115	   0,0900436	-157,6	   0,0729375	-148,7
     140,131	    0,090425	-157,5	   0,0723522	-144,6
     140,147	   0,0899378	-156,7	   0,0720764	-148,4
     140,162	   0,0880127	-156,9	   0,0721962	-147,8
     140,178	   0,0863448	-155,7	    0,072116	-145,0
     140,194	   0,0835952	-156,7	   0,0715697	-146,8
     140,209	    0,081319	-156,9	   0,0714364	-146,0
     140,225	   0,0800215	-153,3	   0,0708914	-145,8
      140,24	   0,0788391	-149,7	   0,0694917	-149,6
     140,256	   0,0789718	-152,6	   0,0677482	-148,0
     140,272	   0,0784802	-153,4	   0,0666881	-151,9
     140,287	   0,0781251	-153,5	   0,0663592	-146,9
     140,303	    0,076667	-152,1	   0,0664401	-145,3
     140,319	   0,0745963	-149,5	   0,0660838	-143,7
     140,334	    0,073224	-148,8	   0,0648735	-147,2
      140,35	   0,0714929	-149,2	   0,0630041	-149,6
     140,366	   0,0708771	-148,3	   0,0619944	-148,4
     140,381	    0,070999	-146,4	   0,0615951	-145,0
     140,397	   0,0708917	-146,9	   0,0611455	-144,1
     140,413	   0,0712806	-144,5	   0,0601994	-146,9
     140,428	    0,070352	-146,2	   0,0596618	-144,4
     140,444	   0,0683431	-148,0	   0,0599626	-145,1
     140,459	   0,0669033	-147,9	   0,0593039	-142,7
     140,475	   0,0654184	-145,6	   0,0586547	-146,2
     140,491	   0,0641996	-143,6	   0,0577538	-147,7
     140,506	   0,0630729	-149,0	   0,0570829	-142,5
     140,522	   0,0624799	-149,2	   0,0568144	-146,0
     140,538	    0,062566	-148,0	   0,0562646	-142,7
     140,553	   0,0633797	-146,2	   0,0552686	-145,9
     140,569	   0,0632256	-141,0	   0,0544476	-145,2
     140,585	   0,0622758	-144,5	   0,0541623	-145,1
       140,6	   0,0609665	-144,0	   0,0550351	-138,8
     140,616	   0,0595614	-141,9	   0,0560173	-137,9
     140,631	   0,0578784	-141,4	   0,0561872	-141,4
     140,647	   0,0566837	-144,5	   0,0555052	-143,2
     140,663	   0,0558786	-144,5	   0,0543984	-142,5
     140,678	   0,0557237	-144,2	   0,0525537	-138,0
     140,694	   0,0558246	-144,1	   0,0514934	-142,3
      140,71	   0,0556131	-143,4	   0,0509737	-143,0
     140,725	   0,0548483	-142,7	   0,0510267	-141,8
     140,741	   0,0547338	-138,0	   0,0507898	-138,7
     140,757	   0,0553735	-141,8	   0,0509092	-136,9
     140,772	   0,0553678	-145,7	   0,0510364	-140,3
     140,788	   0,0551615	-141,4	   0,0513673	-138,0
     140,804	    0,054195	-137,4	   0,0517672	-136,8
     140,819	    0,052117	-140,8	   0,0507951	-139,1
     140,835	   0,0505834	-142,4	   0,0494844	-142,7
      140,85	    0,050321	-140,7	   0,0483552	-137,7
     140,866	   0,0505726	-140,6	     0,04747	-140,6
     140,882	   0,0507052	-138,8	   0,0463627	-141,4
     140,897	   0,0502064	-142,2	   0,0462326	-142,6
     140,913	   0,0501007	-138,3	   0,0463993	-138,8
     140,929	   0,0500284	-139,1	   0,0456661	-137,5
     140,944	   0,0493047	-139,5	   0,0458158	-138,3
      140,96	   0,0476003	-137,1	   0,0468884	-136,3
     140,976	    0,047075	-133,5	    0,046354	-137,4
     140,991	   0,0458012	-135,6	   0,0457801	-141,6
     141,007	   0,0458272	-137,4	   0,0450732	-142,3
     141,022	   0,0458153	-139,0	   0,0439884	-138,5
     141,038	   0,0453169	-139,9	    0,042793	-140,3
     141,054	   0,0446033	-140,4	   0,0437363	-141,1
     141,069	   0,0451432	-139,1	   0,0439627	-133,3
     141,085	   0,0453901	-138,5	   0,0439666	-136,6
     141,101	   0,0437743	-139,3	   0,0437566	-139,6
     141,116	   0,0431526	-142,8	   0,0446719	-134,4
     141,132	    0,043622	-138,0	   0,0441454	-141,1
     141,148	   0,0444537	-136,8	   0,0423568	-136,0
     141,163	   0,0437596	-137,6	   0,0406522	-137,7
     141,179	   0,0433134	-136,4	   0,0410231	-136,9
     141,195	   0,0414874	-139,7	   0,0423215	-137,9
      141,21	   0,0416224	-135,9	   0,0422177	-134,6
     141,226	   0,0424879	-136,8	   0,0411681	-136,9
     141,241	   0,0408228	-138,3	   0,0406968	-137,7
     141,257	    0,039555	-136,9	   0,0391248	-138,3
     141,273	   0,0391794	-134,4	   0,0393245	-137,7
     141,288	   0,0397712	-141,9	   0,0405035	-134,7
     141,304	   0,0399266	-134,8	   0,0405426	-131,9
      141,32	   0,0398388	-133,2	   0,0394034	-137,5
     141,335	   0,0395717	-137,9	   0,0381998	-139,7
     141,351	   0,0401185	-133,4	   0,0373692	-136,6
     141,367	    0,038394	-134,7	    0,037812	-137,0
     141,382	   0,0382304	-133,9	   0,0374964	-136,2
     141,398	   0,0392803	-133,6	   0,0367494	-135,8
     141,413	   0,0391531	-137,0	   0,0381525	-133,4
     141,429	   0,0377654	-135,7	   0,0383031	-131,8
     141,445	   0,0373137	-137,4	    0,038466	-132,7
      141,46	   0,0379378	-138,6	   0,0385935	-134,2
     141,476	   0,0372238	-134,9	   0,0373705	-136,4
     141,492	   0,0358941	-135,8	   0,0362964	-138,5
     141,507	   0,0364486	-134,2	   0,0358493	-135,4
     141,523	   0,0372459	-134,6	   0,0367925	-136,1
     141,539	    0,035942	-139,0	   0,0365164	-131,7
     141,554	   0,0349379	-137,3	   0,0343122	-133,8
      141,57	   0,0352294	-137,4	   0,0355083	-134,5
     141,586	   0,0356612	-137,4	   0,0352169	-131,4
     141,601	   0,0352706	-138,0	   0,0346866	-133,0
     141,617	   0,0344722	-137,9	   0,0352175	-132,9
     141,632	   0,0356369	-131,5	   0,0340451	-138,4
     141,648	   0,0344806	-135,8	   0,0336849	-134,0
     141,664	   0,0331155	-136,3	   0,0343873	-133,8
     141,679	   0,0337525	-137,7	   0,0347256	-134,6
     141,695	   0,0339618	-129,1	   0,0328369	-134,1
     141,711	    0,034475	-132,1	   0,0333782	-137,1
     141,726	   0,0338752	-132,5	   0,0346255	-128,8
     141,742	   0,0333177	-133,4	   0,0331121	-138,5
     141,758	   0,0334668	-134,8	   0,0328882	-132,8
     141,773	   0,0328826	-133,7	   0,0328787	-131,8
     141,789	   0,0318501	-138,0	    0,032706	-133,1
     141,804	   0,0329897	-133,3	   0,0319908	-135,6
      141,82	   0,0332553	-136,6	   0,0326557	-132,9
     141,836	   0,0318124	-132,6	   0,0321791	-133,3
     141,851	   0,0323869	-136,4	   0,0310962	-135,7
     141,867	    0,031471	-132,2	   0,0309117	-130,2
     141,883	    0,032097	-132,1	    0,031424	-130,9
     141,898	   0,0313859	-133,7	   0,0316213	-131,4
     141,914	   0,0302943	-132,6	    0,029899	-135,5
      141,93	   0,0307663	-137,7	   0,0311755	-129,5
     141,945	   0,0320719	-130,7	   0,0306883	-135,2
     141,961	    0,030305	-134,8	   0,0299004	-132,9
     141,977	   0,0304168	-134,2	    0,030573	-131,1
     141,992	   0,0308706	-130,8	   0,0308342	-131,8
     142,008	   0,0308184	-131,3	   0,0289489	-134,8
     142,023	    0,028862	-133,8	     0,03056	-130,8
     142,039	   0,0298238	-135,0	   0,0301138	-132,4
     142,055	   0,0297126	-132,1	   0,0288621	-134,0
      142,07	   0,0302237	-131,4	   0,0287121	-133,7
     142,086	   0,0290466	-134,3	   0,0301533	-132,1
     142,102	   0,0289623	-135,8	   0,0282858	-133,8
     142,117	   0,0293633	-133,1	   0,0284646	-135,4
     142,133	   0,0286882	-131,7	   0,0292551	-133,3
     142,149	   0,0283362	-135,5	   0,0284546	-131,4
     142,164	   0,0296886	-133,4	   0,0289413	-132,8
      142,18	    0,027904	-129,4	   0,0289838	-130,2
     142,196	   0,0290321	-132,6	   0,0270314	-135,1
     142,211	   0,0277517	-132,3	   0,0290267	-130,2
     142,227	   0,0288746	-132,0	    0,027522	-134,8
     142,242	   0,0281531	-134,8	   0,0279168	-133,5
     142,258	    0,027506	-133,7	   0,0272118	-132,6
     142,274	   0,0283309	-131,8	    0,027776	-130,1
     142,289	   0,0278956	-132,5	   0,0280968	-129,1
     142,305	   0,0267103	-131,7	   0,0263123	-132,3
     142,321	   0,0278842	-131,9	   0,0275546	-130,2
     142,336	   0,0269193	-133,6	   0,0274601	-129,3
     142,352	   0,0268286	-134,6	   0,0271622	-134,8
     142,368	   0,0271938	-134,5	   0,0267272	-130,2
     142,383	   0,0263521	-131,5	   0,0266414	-132,6
     142,399	   0,0269816	-132,9	   0,0266754	-132,0
     142,414	   0,0259302	-133,5	   0,0265936	-130,7
      142,43	   0,0272682	-132,2	   0,0261323	-133,6
     142,446	   0,0262903	-134,6	   0,0263052	-129,9
     142,461	   0,0259568	-132,0	   0,0257962	-132,5
     142,477	   0,0266634	-131,5	   0,0249929	-134,5
     142,493	   0,0250398	-132,7	   0,0262392	-130,9
     142,508	   0,0260642	-132,1	   0,0250309	-128,7
     142,524	   0,0250452	-128,0	   0,0253886	-132,6
      142,54	   0,0254948	-129,0	   0,0251746	-131,3
     142,555	   0,0250879	-125,9	   0,0253689	-134,8
     142,571	   0,0252637	-130,6	   0,0251684	-130,1
     142,587	   0,0248519	-129,6	   0,0253595	-131,6
     142,602	   0,0254329	-128,3	   0,0251269	-130,4
     142,618	   0,0244321	-131,9	   0,0248908	-128,8
     142,633	   0,0252156	-130,7	   0,0247691	-130,2
     142,649	    0,024008	-133,8	   0,0246981	-131,4
     142,665	   0,0248134	-130,8	   0,0239021	-126,9
      142,68	   0,0244403	-128,0	   0,0240667	-132,6
     142,696	   0,0236246	-134,1	   0,0239686	-127,6
     142,712	   0,0244772	-129,2	   0,0234386	-133,9
     142,727	   0,0241276	-129,6	   0,0245032	-126,0
     142,743	   0,0239349	-131,3	   0,0237137	-129,1
     142,759	   0,0245966	-131,9	   0,0236665	-131,9
     142,774	   0,0233392	-131,7	   0,0237718	-132,6
      142,79	   0,0239562	-130,5	   0,0232148	-131,5
     142,805	   0,0231956	-129,1	   0,0241089	-127,7
     142,821	    0,023688	-129,9	   0,0235767	-132,3
     142,837	   0,0231129	-134,8	    0,022673	-133,5
     142,852	    0,023539	-127,1	   0,0236303	-127,9
     142,868	   0,0228431	-131,6	   0,0225684	-130,3
     142,884	   0,0234811	-128,4	   0,0229907	-129,3
     142,899	   0,0224512	-133,8	   0,0229497	-130,2
     142,915	   0,0232156	-134,3	   0,0227129	-131,5
     142,931	   0,0220265	-129,9	   0,0228007	-129,1
     142,946	   0,0233685	-130,7	   0,0224273	-129,8
     142,962	   0,0217908	-128,6	   0,0220249	-128,2
     142,978	   0,0229737	-130,4	   0,0225809	-130,4
     142,993	   0,0229014	-128,8	   0,0225359	-131,4
     143,009	   0,0215773	-133,4	   0,0225692	-126,0
     143,024	   0,0227691	-128,0	   0,0218378	-127,1
      143,04	   0,0216666	-128,0	   0,0224957	-133,6
     143,056	    0,022463	-132,9	   0,0214461	-130,6
     143,071	   0,0216357	-130,3	   0,0224852	-130,4
     143,087	   0,0221325	-130,3	   0,0219897	-130,4
     143,103	   0,0219148	-128,7	   0,0214078	-130,0
     143,118	   0,0212792	-127,6	   0,0219964	-127,7
     143,134	   0,0220545	-130,4	   0,0212964	-129,3
      143,15	   0,0210912	-128,3	   0,0218938	-130,6
     143,165	   0,0208077	-126,6	    0,021241	-129,6
     143,181	   0,0208333	-131,7	   0,0210334	-130,8
     143,196	   0,0214144	-130,5	   0,0217417	-128,9
     143,212	   0,0207464	-125,8	   0,0209447	-128,9
     143,228	   0,0211136	-133,2	   0,0210945	-129,5
     143,243	   0,0207141	-128,2	   0,0215355	-127,6
     143,259	   0,0213968	-133,4	   0,0204798	-130,0
     143,275	   0,0205697	-128,8	   0,0206474	-128,9
      143,29	   0,0205873	-129,1	   0,0211722	-129,6
     143,306	   0,0208255	-130,1	   0,0202683	-130,4
     143,322	   0,0205734	-128,4	   0,0207576	-132,9
     143,337	   0,0210322	-130,0	   0,0208359	-128,3
     143,353	   0,0192123	-133,6	   0,0208714	-130,4
     143,369	   0,0210034	-126,9	   0,0202647	-128,7
     143,384	   0,0202479	-131,6	   0,0205499	-128,1
       143,4	    0,020112	-129,4	   0,0195463	-130,3
     143,415	   0,0194404	-132,5	   0,0210093	-129,1
     143,431	   0,0201299	-132,2	   0,0196123	-130,4
     143,447	   0,0196667	-130,2	   0,0202515	-129,7
     143,462	   0,0207287	-131,4	   0,0202056	-130,5
     143,478	   0,0194943	-131,0	   0,0196853	-130,2
     143,494	   0,0198702	-131,6	   0,0199815	-131,4
     143,509	   0,0201976	-132,2	   0,0193786	-128,5
     143,525	    0,018563	-130,8	    0,019449	-127,7
     143,541	   0,0196992	-127,8	   0,0196117	-126,2
     143,556	   0,0191903	-128,1	   0,0197576	-131,8
     143,572	    0,019401	-131,5	   0,0192104	-130,4
     143,587	   0,0199582	-129,7	   0,0190278	-126,0
     143,603	    0,018466	-131,5	   0,0195112	-131,7
     143,619	   0,0188781	-129,7	   0,0193384	-130,8
     143,634	   0,0191205	-129,3	   0,0192748	-130,5
      143,65	   0,0184263	-128,6	   0,0187285	-129,4
     143,666	    0,019398	-127,8	    0,019608	-129,6
     143,681	   0,0187943	-129,6	   0,0183243	-133,7
     143,697	   0,0182191	-129,8	   0,0190728	-127,5
     143,713	   0,0189999	-129,2	       0,019	-130,8
     143,728	   0,0183517	-131,3	   0,0182681	-125,9
     143,744	   0,0186092	-131,5	   0,0189631	-128,8
      143,76	    0,018898	-127,0	   0,0191522	-130,8
     143,775	   0,0181977	-130,0	   0,0180576	-130,2
     143,791	   0,0182131	-127,6	   0,0190346	-127,6
     143,806	   0,0177067	-128,8	   0,0180743	-129,4
     143,822	   0,0184133	-129,9	   0,0178569	-129,7
     143,838	   0,0187273	-130,2	   0,0187839	-130,1
     143,853	   0,0180804	-128,8	   0,0183143	-124,1
     143,869	   0,0177589	-128,5	   0,0176771	-130,6
     143,885	   0,0183066	-130,9	   0,0189421	-126,0
       143,9	   0,0180743	-126,7	   0,0175941	-130,3
     143,916	   0,0176806	-128,6	   0,0175766	-127,4
     143,932	   0,0177893	-130,1	    0,017914	-126,7
     143,947	   0,0182441	-130,8	   0,0176027	-128,1
     143,963	    0,018074	-127,9	   0,0181489	-127,6
     143,979	   0,0179139	-127,2	   0,0183654	-127,4
     143,994	   0,0171547	-130,8	   0,0174609	-127,3
      144,01	   0,0177458	-127,5	   0,0173765	-128,0
     144,025	   0,0173469	-127,0	   0,0173094	-129,0
     144,041	   0,0170901	-128,5	   0,0181552	-129,6
     144,057	   0,0170689	-130,7	   0,0175185	-125,4
     144,072	   0,0177085	-128,1	   0,0171743	-128,0
     144,088	   0,0172436	-127,2	   0,0173168	-128,7
     144,104	   0,0177532	-128,2	    0,018037	-133,1
     144,119	   0,0181521	-125,3	    0,017319	-130,5
     144,135	   0,0168143	-126,0	   0,0167022	-127,3
     144,151	   0,0159342	-130,8	   0,0170547	-126,4
     144,166	   0,0167436	-126,5	   0,0170219	-126,9
     144,182	    0,016702	-126,3	   0,0172997	-127,2
     144,197	   0,0169775	-131,7	   0,0166389	-131,2
     144,213	   0,0167355	-127,8	   0,0167593	-129,1
     144,229	   0,0168292	-128,8	   0,0176134	-128,8
     144,244	   0,0167913	-130,6	   0,0169253	-126,8
      144,26	   0,0165641	-128,3	   0,0166644	-127,2
     144,276	   0,0167936	-125,6	   0,0161754	-126,3
     144,291	   0,0169987	-129,2	   0,0170131	-126,1
     144,307	   0,0164859	-127,2	   0,0163152	-129,7
     144,323	    0,016512	-130,8	   0,0155562	-126,9
     144,338	   0,0166219	-129,6	   0,0160786	-126,7
     144,354	   0,0157299	-131,0	   0,0170329	-129,7
      144,37	   0,0157012	-125,7	   0,0166866	-128,8
     144,385	   0,0162014	-127,2	   0,0167509	-125,7
     144,401	   0,0165736	-126,0	   0,0161721	-127,3
     144,416	   0,0156032	-129,1	   0,0164923	-130,3
     144,432	   0,0157493	-130,4	   0,0166697	-126,9
     144,448	   0,0160719	-129,6	   0,0159274	-129,7
     144,463	   0,0159643	-132,4	   0,0155639	-132,5
     144,479	   0,0162318	-129,4	   0,0157156	-131,3
     144,495	   0,0159222	-130,5	   0,0164384	-126,3
      144,51	   0,0152873	-129,5	    0,015893	-130,8
     144,526	   0,0155868	-129,2	    0,015078	-130,0
     144,542	    0,015752	-130,6	   0,0158543	-131,0
     144,557	   0,0156915	-129,7	   0,0157505	-128,8
     144,573	   0,0154341	-131,3	   0,0160695	-126,7
     144,588	   0,0157307	-131,1	   0,0157776	-130,1
     144,604	   0,0159845	-128,2	   0,0149224	-130,5
      144,62	   0,0158067	-128,7	   0,0152218	-128,5
     144,635	    0,015924	-130,6	   0,0152332	-129,2
     144,651	   0,0155709	-131,2	   0,0152567	-124,6
     144,667	   0,0155288	-125,5	   0,0157406	-127,9
     144,682	   0,0152815	-133,8	   0,0156634	-128,4
     144,698	   0,0155521	-132,1	   0,0155826	-129,8
     144,714	   0,0157916	-131,6	   0,0147108	-128,0
     144,729	   0,0158339	-129,2	   0,0148258	-126,2
     144,745	   0,0156673	-128,0	   0,0148628	-126,1
     144,761	   0,0151898	-133,3	   0,0149487	-127,7
     144,776	   0,0152444	-128,1	   0,0150499	-126,9
     144,792	   0,0149853	-126,5	   0,0149429	-126,7
     144,807	   0,0147316	-125,4	   0,0153872	-130,9
     144,823	   0,0143589	-130,9	   0,0154667	-130,4
     144,839	   0,0147288	-130,5	   0,0151986	-130,4
     144,854	   0,0148128	-131,9	   0,0145239	-126,6
      144,87	   0,0146496	-129,7	     0,01451	-122,0
     144,886	   0,0144272	-126,8	   0,0141182	-126,7
     144,901	   0,0142155	-128,5	   0,0143801	-126,8
     144,917	   0,0141684	-132,2	   0,0143085	-128,5
     144,933	   0,0139636	-125,3	   0,0138558	-130,2
     144,948	   0,0147259	-128,6	   0,0142375	-134,5
     144,964	   0,0146127	-130,3	   0,0143092	-133,1
     144,979	   0,0144527	-127,0	   0,0143223	-131,0
     144,995	   0,0144856	-128,7	   0,0142074	-130,6
     145,011	   0,0149126	-125,6	   0,0140002	-130,7
     145,026	   0,0146306	-127,4	   0,0143339	-126,8
     145,042	   0,0141063	-130,0	   0,0147005	-127,5
     145,058	   0,0139489	-127,5	   0,0147967	-127,1
     145,073	   0,0142242	-125,1	   0,0149203	-127,6
     145,089	   0,0142147	-133,0	   0,0145527	-129,5
     145,105	   0,0144546	-129,9	   0,0146729	-123,1
      145,12	   0,0141002	-129,2	   0,0145542	-126,5
     145,136	    0,013524	-130,3	   0,0141433	-127,9
     145,152	   0,0130448	-125,8	    0,013884	-129,6
     145,167	   0,0135914	-125,9	   0,0137145	-125,7
     145,183	   0,0140703	-125,4	    0,013907	-125,7
     145,198	   0,0140525	-125,7	   0,0136375	-130,4
     145,214	   0,0140749	-127,7	   0,0138896	-131,4
      145,23	   0,0143235	-129,6	   0,0138014	-130,2
     145,245	   0,0142918	-129,6	    0,013924	-128,5
     145,261	   0,0141924	-128,1	    0,014198	-129,2
     145,277	   0,0134658	-126,5	   0,0141215	-126,9
     145,292	   0,0130975	-129,0	   0,0141149	-123,1
     145,308	   0,0130194	-131,3	   0,0136055	-125,7
     145,324	   0,0136573	-125,7	   0,0133308	-126,1
     145,339	   0,0136875	-129,0	   0,0134964	-131,0
     145,355	   0,0142355	-127,8	   0,0135874	-132,2
      145,37	   0,0141517	-125,4	      0,0141	-130,8
     145,386	   0,0142192	-125,6	   0,0145157	-123,9
     145,402	   0,0134506	-131,2	   0,0144124	-128,9
     145,417	    0,013302	-127,1	   0,0138419	-127,0
     145,433	   0,0129341	-128,9	   0,0130953	-128,4
     145,449	    0,013491	-125,0	   0,0131805	-127,6
     145,464	   0,0135127	-129,9	   0,0132929	-128,2
      145,48	   0,0136225	-127,4	    0,013515	-131,1
     145,496	   0,0132957	-125,8	   0,0132893	-131,5
     145,511	   0,0130083	-128,5	   0,0135842	-128,7
     145,527	   0,0129756	-131,0	   0,0134742	-130,4
     145,543	   0,0130428	-129,0	   0,0134194	-129,3
     145,558	    0,013329	-129,3	   0,0130437	-127,4
     145,574	   0,0137232	-124,7	   0,0131221	-128,1
     145,589	   0,0135413	-129,4	   0,0135119	-128,6
     145,605	   0,0131064	-129,0	   0,0134187	-127,1
     145,621	   0,0130401	-123,0	   0,0136654	-126,6
     145,636	   0,0128937	-127,4	    0,013352	-125,6
     145,652	   0,0133213	-127,3	    0,013241	-124,1
     145,668	   0,0135255	-126,2	   0,0127173	-127,7
     145,683	   0,0132809	-128,9	   0,0128529	-127,9
     145,699	   0,0127123	-129,7	   0,0132152	-129,7
     145,715	   0,0128124	-127,5	   0,0132134	-124,0
      145,73	   0,0124166	-125,5	   0,0128665	-127,6
     145,746	   0,0131987	-126,4	   0,0127537	-125,1
     145,761	   0,0129185	-125,6	   0,0126868	-126,7
     145,777	   0,0122106	-129,0	   0,0126741	-129,9
     145,793	   0,0122476	-129,2	   0,0124393	-127,6
     145,808	   0,0123238	-131,3	   0,0123645	-127,6
     145,824	   0,0131523	-127,7	   0,0124001	-126,5
      145,84	   0,0128365	-129,8	   0,0124242	-124,2
     145,855	   0,0120921	-129,1	   0,0126418	-129,1
     145,871	   0,0126933	-126,8	   0,0126402	-125,3
     145,887	   0,0131094	-123,9	   0,0121464	-127,7
     145,902	   0,0131425	-129,4	   0,0120713	-127,9
     145,918	   0,0126225	-129,5	   0,0118162	-125,2
     145,934	   0,0122754	-126,7	   0,0127422	-124,5
     145,949	   0,0125729	-129,7	    0,013016	-125,5
     145,965	    0,012974	-126,7	   0,0123967	-123,9
      145,98	    0,012561	-129,5	   0,0120632	-126,0
     145,996	   0,0123921	-125,9	   0,0125605	-129,6
     146,012	   0,0123995	-123,2	   0,0127941	-130,2
     146,027	   0,0126694	-124,3	   0,0127522	-123,0
     146,043	   0,0125505	-131,3	   0,0122629	-127,0
     146,059	   0,0121104	-125,7	   0,0125045	-129,4
     146,074	   0,0125101	-128,0	   0,0129316	-126,9
      146,09	   0,0126109	-125,3	   0,0125763	-126,9
     146,106	   0,0120261	-130,4	    0,012198	-123,2
     146,121	   0,0118661	-129,3	   0,0122951	-126,0
     146,137	   0,0126427	-126,7	   0,0126294	-126,8
     146,152	   0,0122863	-126,5	   0,0122769	-122,4
     146,168	   0,0117377	-125,0	   0,0116827	-126,9
     146,184	   0,0115314	-125,5	   0,0121337	-122,3
     146,199	   0,0121588	-126,9	   0,0126655	-127,6
     146,215	    0,012596	-130,0	   0,0121015	-121,0
     146,231	   0,0118588	-125,1	   0,0120555	-128,1
     146,246	   0,0122524	-129,8	   0,0124139	-126,9
     146,262	   0,0120708	-131,5	   0,0121874	-128,8
     146,278	   0,0116885	-125,8	   0,0117692	-125,6
     146,293	    0,011743	-123,5	   0,0116277	-125,5
     146,309	   0,0121669	-125,6	   0,0118719	-130,4
     146,325	   0,0113382	-129,2	   0,0117219	-124,4
      146,34	   0,0115469	-128,1	    0,011804	-127,1
     146,356	   0,0118519	-124,4	   0,0124116	-128,3
     146,371	   0,0115313	-129,0	   0,0114074	-124,1
     146,387	   0,0113341	-127,1	   0,0111082	-130,3
     146,403	   0,0120888	-124,2	   0,0117984	-123,3
     146,418	   0,0116778	-130,2	   0,0119573	-124,5
     146,434	   0,0113169	-130,1	   0,0113676	-130,1
      146,45	   0,0118186	-122,7	    0,011659	-127,3
     146,465	   0,0115138	-125,0	   0,0122322	-127,0
     146,481	   0,0110996	-126,8	   0,0118278	-127,5
     146,497	   0,0116159	-125,6	   0,0116713	-126,4
     146,512	   0,0114828	-125,4	   0,0113884	-129,5
     146,528	   0,0115581	-125,0	   0,0113667	-129,0
     146,544	   0,0121169	-126,8	   0,0118144	-129,1
     146,559	   0,0117062	-126,9	   0,0122219	-124,1
     146,575	   0,0111055	-120,7	   0,0114648	-128,7
      146,59	   0,0112432	-129,7	   0,0113729	-128,9
     146,606	   0,0112199	-129,8	   0,0113559	-124,7
     146,622	   0,0113082	-124,5	   0,0112613	-127,7
     146,637	   0,0118276	-128,0	   0,0118055	-129,6
     146,653	   0,0107946	-127,8	   0,0117213	-125,8
     146,669	   0,0111199	-128,6	   0,0110409	-128,1
     146,684	   0,0114805	-129,1	   0,0112874	-125,5
       146,7	   0,0109435	-125,6	   0,0107669	-128,0
     146,716	   0,0112414	-125,3	   0,0109256	-127,6
     146,731	   0,0112337	-128,2	   0,0116432	-125,7
     146,747	   0,0113199	-130,0	   0,0108661	-128,8
     146,762	     0,01115	-124,7	   0,0107021	-127,1
     146,778	   0,0103032	-134,5	   0,0110433	-126,2
     146,794	   0,0113741	-129,2	   0,0107243	-129,9
     146,809	   0,0112499	-126,2	   0,0115897	-127,9
     146,825	   0,0109871	-126,3	   0,0111244	-128,3
     146,841	   0,0112847	-125,7	   0,0111104	-124,7
     146,856	    0,010587	-125,2	   0,0113169	-123,0
     146,872	   0,0108486	-126,9	   0,0106118	-126,7
     146,888	   0,0108894	-127,1	   0,0113459	-127,8
     146,903	   0,0106458	-123,2	   0,0106343	-127,7
     146,919	    0,011044	-127,7	   0,0106317	-126,7
     146,935	   0,0106088	-126,2	   0,0111284	-127,1
      146,95	   0,0111616	-124,6	   0,0109543	-124,7
     146,966	   0,0104005	-127,6	   0,0108532	-129,8
     146,981	   0,0109303	-125,2	   0,0106754	-123,5
     146,997	   0,0106934	-123,1	   0,0111123	-127,5
     147,013	   0,0104805	-126,9	   0,0106606	-129,5
     147,028	   0,0113397	-128,6	   0,0108059	-126,7
     147,044	   0,0101165	-128,6	   0,0109287	-131,0
      147,06	    0,010897	-128,2	   0,0103341	-122,8
     147,075	   0,0102515	-122,9	   0,0108785	-127,9
     147,091	   0,0109529	-128,8	   0,0102746	-127,3
     147,107	   0,0104341	-127,8	   0,0110492	-128,3
     147,122	   0,0106198	-125,3	   0,0108014	-127,5
     147,138	   0,0105361	-127,2	   0,0103608	-128,8
     147,153	   0,0106675	-123,0	   0,0103806	-124,7
     147,169	   0,0107043	-127,7	   0,0109538	-128,0
     147,185	   0,0103256	-124,0	   0,0110497	-125,2
       147,2	   0,0106454	-124,6	   0,0104345	-126,6
     147,216	    0,010185	-127,6	   0,0104619	-122,3
     147,232	   0,0105296	-127,2	   0,0104482	-126,1
     147,247	   0,0102984	-128,4	   0,0108032	-126,9
     147,263	   0,0110244	-125,7	   0,0101328	-125,1
     147,279	   0,0101386	-125,9	   0,0109001	-129,5
     147,294	    0,010485	-126,5	   0,0101279	-126,3
      147,31	   0,0097527	-128,4	   0,0106168	-124,0
     147,326	   0,0107809	-128,1	   0,0101631	-127,7
     147,341	  0,00979001	-126,7	   0,0106716	-129,9
     147,357	    0,010332	-126,1	  0,00982164	-130,3
     147,372	   0,0101973	-129,7	   0,0107141	-122,6
     147,388	   0,0103459	-127,7	  0,00982601	-132,2
     147,404	    0,010187	-127,6	   0,0103436	-124,8
     147,419	   0,0107116	-127,2	  0,00992226	-128,5
     147,435	   0,0103026	-125,6	   0,0103933	-127,5
     147,451	    0,010417	-129,1	  0,00999674	-123,8
     147,466	  0,00969829	-126,5	   0,0105868	-129,4
     147,482	   0,0104812	-128,3	  0,00976075	-127,4
     147,498	  0,00995421	-130,3	   0,0107228	-129,2
     147,513	   0,0105281	-125,4	  0,00996479	-130,8
     147,529	     0,00964	-125,5	   0,0103018	-125,0
     147,544	   0,0105386	-128,5	  0,00978712	-124,8
      147,56	  0,00975493	-127,3	   0,0105449	-126,2
     147,576	   0,0102022	-124,2	  0,00978136	-125,0
     147,591	   0,0097958	-128,0	   0,0102166	-128,6
     147,607	  0,00993517	-125,1	  0,00998002	-132,2
     147,623	   0,0100544	-124,8	  0,00970673	-120,8
     147,638	  0,00989071	-125,4	   0,0102447	-127,1
     147,654	  0,00997824	-128,8	  0,00972757	-134,3
      147,67	  0,00979678	-127,8	   0,0102367	-124,3
     147,685	   0,0101814	-124,3	  0,00970855	-130,0
     147,701	  0,00958426	-127,5	   0,0100267	-126,8
     147,717	   0,0100974	-125,8	   0,0097104	-128,2
     147,732	   0,0100308	-126,0	  0,00984146	-128,2
     147,748	   0,0100294	-126,5	  0,00976557	-125,0
     147,763	  0,00991502	-126,8	   0,0101508	-126,8
     147,779	  0,00981472	-128,0	  0,00970912	-126,3
     147,795	  0,00951624	-125,0	  0,00965044	-125,3
      147,81	  0,00980492	-134,2	   0,0101514	-125,0
     147,826	  0,00941094	-130,5	  0,00931688	-127,0
     147,842	  0,00990227	-128,4	   0,0102626	-125,0
     147,857	  0,00967466	-130,3	  0,00973958	-125,9
     147,873	  0,00984402	-127,6	  0,00988526	-121,5
     147,889	  0,00959157	-124,5	  0,00961524	-125,9
     147,904	  0,00995278	-126,0	  0,00904835	-125,3
      147,92	  0,00968636	-124,0	  0,00970253	-132,5
     147,935	  0,00962461	-129,6	  0,00956279	-125,9
     147,951	  0,00980241	-128,5	  0,00968128	-127,7
     147,967	  0,00953953	-126,0	   0,0102959	-125,2
     147,982	  0,00982493	-125,8	   0,0091947	-125,3
     147,998	  0,00972731	-127,7	  0,00981625	-128,0
     148,014	  0,00954762	-125,0	  0,00947163	-125,4
     148,029	  0,00996739	-129,8	  0,00958556	-122,9
     148,045	  0,00922222	-122,6	   0,0095986	-127,4
     148,061	  0,00965415	-126,1	  0,00954534	-123,3
     148,076	  0,00969895	-126,3	  0,00993613	-128,7
     148,092	  0,00933978	-127,7	  0,00948905	-127,0
     148,108	  0,00978866	-126,6	  0,00941934	-126,3
     148,123	  0,00969117	-129,2	  0,00985661	-123,9
     148,139	  0,00924542	-124,7	  0,00914731	-127,2
     148,154	  0,00968424	-128,6	  0,00942565	-125,4
      148,17	  0,00928597	-124,7	  0,00955874	-129,3
     148,186	  0,00934285	-129,0	  0,00896658	-126,8
     148,201	  0,00986994	-124,7	  0,00940438	-130,7
     148,217	  0,00940518	-126,1	  0,00933136	-126,6
     148,233	  0,00923415	-124,1	   0,0090651	-128,7
     148,248	  0,00945929	-127,9	  0,00969559	-125,8
     148,264	  0,00917773	-126,0	    0,009235	-125,1
      148,28	  0,00937572	-127,2	  0,00920798	-128,7
     148,295	  0,00929675	-128,2	  0,00956316	-122,2
     148,311	  0,00933037	-124,7	  0,00918627	-126,9
     148,326	  0,00908181	-129,3	  0,00911059	-122,4
     148,342	  0,00947629	-130,0	  0,00937291	-129,0
     148,358	  0,00891015	-124,5	   0,0092206	-123,7
     148,373	  0,00883889	-131,3	  0,00872644	-129,3
     148,389	  0,00967401	-128,5	  0,00944983	-124,5
     148,405	  0,00906755	-128,9	   0,0094948	-132,6
      148,42	  0,00880453	-127,2	  0,00889469	-123,5
     148,436	  0,00951398	-125,1	  0,00898413	-125,7
     148,452	  0,00888474	-129,0	   0,0094645	-124,5
     148,467	  0,00894214	-125,4	  0,00904584	-122,5
     148,483	  0,00901285	-128,7	  0,00877445	-127,0
     148,499	  0,00947741	-125,2	   0,0091948	-127,0
     148,514	  0,00879986	-128,4	  0,00921478	-125,8
      148,53	  0,00879499	-128,4	  0,00873788	-127,1
     148,545	   0,0092625	-127,5	  0,00955772	-124,3
     148,561	   0,0092033	-127,4	  0,00927852	-125,7
     148,577	  0,00862025	-124,8	  0,00872706	-127,5
     148,592	  0,00932579	-122,8	  0,00894298	-126,5
     148,608	  0,00945036	-127,8	   0,0091745	-128,4
     148,624	  0,00880211	-125,6	  0,00905807	-129,2
     148,639	  0,00859508	-127,4	  0,00873173	-129,4
     148,655	  0,00896295	-128,5	  0,00895404	-131,8
     148,671	  0,00863298	-126,8	  0,00926434	-126,9
     148,686	  0,00885708	-125,4	  0,00883356	-126,7
     148,702	  0,00861698	-128,8	  0,00855178	-125,8
     148,717	  0,00885244	-127,0	  0,00926769	-125,6
     148,733	  0,00935497	-124,2	  0,00910937	-122,7
     148,749	  0,00859107	-131,6	  0,00868069	-126,7
     148,764	  0,00851934	-127,1	  0,00873239	-128,7
      148,78	  0,00873815	-132,4	  0,00886767	-127,5
     148,796	  0,00878169	-123,7	  0,00901509	-128,2
     148,811	  0,00879302	-125,4	  0,00886673	-124,5
     148,827	  0,00840688	-129,8	  0,00855387	-124,8
     148,843	  0,00838881	-127,3	  0,00864852	-122,8
     148,858	  0,00916788	-125,9	  0,00874019	-128,8
     148,874	   0,0088965	-122,4	  0,00928383	-123,8
      148,89	   0,0084061	-126,5	  0,00828986	-127,9
     148,905	  0,00849708	-125,7	  0,00843305	-128,6
     148,921	  0,00911559	-123,7	   0,0087356	-125,7
     148,936	   0,0086346	-128,0	  0,00906496	-129,3
     148,952	  0,00857233	-123,8	  0,00848838	-128,4
     148,968	  0,00864644	-126,9	  0,00860631	-125,8
     148,983	  0,00839701	-125,5	  0,00841324	-122,8
     148,999	  0,00872526	-128,2	  0,00893601	-126,5
     149,015	  0,00899589	-123,4	  0,00882655	-129,2
      149,03	  0,00886866	-130,8	   0,0087176	-129,6
     149,046	   0,0082983	-124,8	  0,00829078	-125,1
     149,062	  0,00829942	-127,6	  0,00829126	-125,7
     149,077	  0,00827919	-133,1	   0,0086203	-131,5
     149,093	  0,00885179	-126,4	  0,00903186	-125,3
     149,109	  0,00903801	-128,9	  0,00851872	-124,5
     149,124	  0,00867873	-126,4	  0,00847235	-128,0
      149,14	  0,00825723	-126,3	  0,00831201	-122,7
     149,155	  0,00842445	-123,1	  0,00829549	-125,6
     149,171	  0,00844747	-128,5	  0,00858367	-127,2
     149,187	  0,00848133	-127,9	  0,00867712	-127,6
     149,202	  0,00873553	-128,0	  0,00853496	-128,5
     149,218	  0,00821749	-124,5	  0,00803528	-124,2
     149,234	  0,00827505	-124,9	  0,00820462	-126,4
     149,249	  0,00836438	-122,8	  0,00837809	-131,4
     149,265	  0,00818767	-128,6	  0,00862018	-129,1
     149,281	  0,00852066	-129,8	  0,00861379	-127,6
     149,296	  0,00839004	-124,2	  0,00870079	-125,2
     149,312	  0,00858662	-122,1	  0,00848935	-127,0
     149,327	  0,00816876	-130,8	  0,00790246	-130,0
     149,343	  0,00813875	-130,3	  0,00809273	-130,5
     149,359	  0,00800349	-126,4	  0,00830805	-122,1
     149,374	  0,00828328	-127,0	  0,00829553	-126,9
      149,39	  0,00837156	-128,8	  0,00803329	-127,1
     149,406	  0,00819222	-126,5	  0,00842931	-130,3
     149,421	  0,00884679	-123,8	  0,00859454	-124,1
     149,437	  0,00838912	-133,1	  0,00825467	-123,4
     149,453	  0,00805649	-125,9	  0,00825923	-127,0
     149,468	  0,00816968	-126,2	  0,00854378	-124,4
     149,484	   0,0081201	-127,9	  0,00803366	-126,8
       149,5	  0,00802171	-127,7	  0,00801213	-125,1
     149,515	  0,00799514	-123,9	  0,00847977	-127,9
     149,531	  0,00823288	-129,0	  0,00846947	-128,9
     149,546	  0,00832022	-127,6	  0,00826917	-123,8
     149,562	  0,00823044	-123,6	  0,00814383	-125,9
     149,578	  0,00834492	-125,4	  0,00838941	-122,6
     149,593	  0,00829174	-124,6	  0,00799583	-122,9
     149,609	  0,00812444	-124,9	  0,00808366	-128,9
     149,625	  0,00809711	-124,5	   0,0080325	-127,9
      149,64	  0,00829076	-125,1	  0,00807779	-128,0
     149,656	  0,00799839	-123,6	  0,00797844	-126,3
     149,672	  0,00838514	-121,4	  0,00798405	-126,9
     149,687	  0,00805855	-123,9	  0,00796338	-125,8
     149,703	  0,00786256	-131,1	  0,00792513	-125,9
     149,718	  0,00826254	-124,8	  0,00824182	-129,1
     149,734	  0,00819058	-125,4	  0,00801973	-123,5
      149,75	  0,00824234	-123,6	  0,00796281	-129,0
     149,765	  0,00832525	-124,7	  0,00810213	-124,6
     149,781	  0,00852544	-125,9	  0,00799166	-123,5
     149,797	  0,00800441	-132,2	  0,00806045	-122,7
     149,812	  0,00786698	-125,2	  0,00800294	-128,4
     149,828	  0,00797577	-127,0	  0,00808122	-121,3
     149,844	  0,00794252	-127,0	  0,00809009	-125,3
     149,859	  0,00787518	-132,4	  0,00787769	-123,5
     149,875	  0,00793677	-125,2	  0,00785406	-125,0
     149,891	  0,00778903	-125,0	  0,00783111	-126,5
     149,906	  0,00804619	-122,9	  0,00768848	-125,6
     149,922	  0,00783161	-126,3	  0,00786358	-127,5
     149,937	  0,00805226	-125,3	  0,00765329	-127,6
     149,953	  0,00800286	-126,0	  0,00791121	-124,8
     149,969	  0,00797723	-128,9	  0,00784184	-121,6
     149,984	   0,0077506	-132,3	  0,00779502	-124,0
         150	  0,00787484	-126,6	  0,00757445	-124,9

