X-Data [Hz]	Laser (M - Filtered) [m/s]	Phase [Deg]	Laser (M - Filtered) [m/s]	Phase [Deg]	
	002: [06-29-24 15:14]		003: [06-29-24 15:20]	
         134	   0,0139967	58,6	   0,0135251	60,2
     134,016	   0,0149459	56,6	   0,0133955	56,4
     134,031	   0,0148846	63,5	    0,013505	60,9
     134,047	    0,015222	58,4	   0,0137102	58,0
     134,063	   0,0146783	59,9	   0,0132255	62,6
     134,078	    0,014765	59,8	   0,0131365	62,2
     134,094	   0,0148988	61,3	   0,0133844	58,9
     134,109	   0,0148884	61,2	   0,0135193	61,6
     134,125	   0,0149151	61,3	   0,0134741	63,8
     134,141	   0,0152614	64,7	   0,0138658	60,2
     134,156	   0,0148655	65,1	   0,0137309	64,6
     134,172	   0,0147101	62,7	   0,0135618	61,4
     134,188	   0,0147748	61,4	   0,0140356	61,7
     134,203	   0,0149146	58,1	   0,0144848	57,5
     134,219	   0,0147401	60,3	   0,0147124	57,1
     134,235	   0,0150153	59,6	   0,0139801	58,9
      134,25	   0,0148527	61,3	   0,0138288	62,2
     134,266	   0,0151734	59,6	   0,0141133	60,4
     134,282	     0,01519	57,1	    0,014155	61,8
     134,297	   0,0158603	59,8	   0,0140171	64,3
     134,313	   0,0154429	60,8	   0,0139122	61,3
     134,328	    0,015367	59,6	   0,0141149	60,2
     134,344	   0,0156391	58,8	   0,0142793	58,1
      134,36	   0,0156647	61,5	   0,0142858	58,6
     134,375	   0,0156028	63,6	   0,0143675	59,2
     134,391	   0,0154454	57,2	   0,0145915	60,6
     134,407	   0,0153591	59,8	   0,0142576	61,2
     134,422	   0,0153986	62,8	   0,0141794	63,4
     134,438	   0,0159472	59,8	   0,0140328	62,3
     134,454	   0,0162898	60,6	   0,0149847	59,1
     134,469	   0,0159272	58,9	   0,0147305	60,5
     134,485	   0,0157316	64,6	   0,0147696	57,9
       134,5	   0,0156358	61,8	   0,0145132	63,7
     134,516	    0,015803	63,4	   0,0148722	61,4
     134,532	   0,0162439	56,5	   0,0146156	59,7
     134,547	   0,0165628	60,8	   0,0150228	61,4
     134,563	   0,0164823	57,5	     0,01462	60,1
     134,579	   0,0162118	61,4	   0,0146583	60,1
     134,594	   0,0158531	65,8	   0,0148378	60,2
      134,61	   0,0160796	62,2	   0,0153567	64,2
     134,626	   0,0165798	60,3	   0,0150376	60,7
     134,641	   0,0166194	59,1	   0,0147442	58,0
     134,657	    0,016985	62,0	   0,0151903	63,1
     134,673	   0,0165838	58,3	   0,0145945	63,5
     134,688	    0,016382	61,9	   0,0152126	63,6
     134,704	   0,0164574	59,0	   0,0154263	55,6
     134,719	   0,0166962	61,1	   0,0156619	57,8
     134,735	   0,0170114	58,7	    0,015345	62,5
     134,751	   0,0168472	59,1	   0,0153082	63,7
     134,766	    0,016949	58,3	    0,015561	59,0
     134,782	   0,0168211	60,2	   0,0153425	60,0
     134,798	   0,0171175	58,8	   0,0149174	63,6
     134,813	   0,0168702	62,1	   0,0155534	61,4
     134,829	   0,0169566	64,2	   0,0154999	59,9
     134,845	    0,017251	59,5	   0,0160161	61,5
      134,86	   0,0175498	60,9	   0,0158346	64,1
     134,876	   0,0169382	58,5	   0,0158842	62,6
     134,891	   0,0169752	63,5	   0,0159471	59,8
     134,907	   0,0173888	58,7	   0,0158951	64,1
     134,923	   0,0172918	61,0	   0,0159158	64,4
     134,938	   0,0170225	65,8	   0,0161975	55,7
     134,954	    0,017378	60,3	   0,0163841	60,0
      134,97	   0,0173431	58,6	    0,016078	58,1
     134,985	   0,0172927	62,2	   0,0161859	55,3
     135,001	   0,0173841	59,6	   0,0164187	58,7
     135,017	   0,0178793	59,2	   0,0159316	60,8
     135,032	   0,0178409	60,9	   0,0162722	57,8
     135,048	    0,017612	60,2	    0,016247	59,2
     135,064	   0,0177068	59,4	   0,0163049	58,7
     135,079	   0,0180146	61,2	   0,0167347	58,0
     135,095	   0,0178384	64,4	   0,0163187	63,2
      135,11	   0,0182184	59,0	   0,0165119	60,7
     135,126	   0,0180685	60,7	   0,0165717	59,9
     135,142	   0,0182615	60,9	   0,0167306	60,6
     135,157	   0,0183187	58,3	   0,0162435	58,2
     135,173	    0,018298	60,9	   0,0162781	60,0
     135,189	   0,0184086	62,3	   0,0169222	63,6
     135,204	   0,0183608	59,3	   0,0170529	60,3
      135,22	   0,0184101	62,3	   0,0165464	62,7
     135,236	   0,0178396	62,1	   0,0169803	59,5
     135,251	   0,0181629	59,8	   0,0166523	63,6
     135,267	   0,0184659	62,8	   0,0172324	63,5
     135,283	   0,0186075	59,7	   0,0171313	59,4
     135,298	     0,01894	61,5	   0,0170646	62,9
     135,314	   0,0183907	62,4	    0,017248	58,0
     135,329	   0,0192715	61,5	   0,0172346	61,1
     135,345	   0,0185026	64,2	   0,0173764	60,2
     135,361	   0,0188767	58,4	   0,0173609	62,3
     135,376	   0,0189562	61,9	   0,0172616	64,4
     135,392	   0,0193197	63,2	   0,0172281	61,3
     135,408	   0,0194151	60,9	   0,0171058	65,7
     135,423	   0,0189975	61,6	   0,0174637	59,4
     135,439	   0,0193022	61,6	   0,0174416	61,6
     135,455	   0,0194513	62,5	   0,0180267	61,5
      135,47	   0,0193982	59,8	   0,0176586	62,6
     135,486	   0,0193329	58,0	   0,0176637	63,2
     135,501	   0,0194233	62,3	   0,0177101	61,2
     135,517	    0,019277	61,3	   0,0178403	65,4
     135,533	   0,0186974	61,4	   0,0182221	60,5
     135,548	   0,0203481	60,5	   0,0180032	60,7
     135,564	   0,0195653	65,2	    0,017514	64,0
      135,58	    0,019654	59,6	   0,0180762	61,9
     135,595	   0,0201175	60,6	   0,0177413	60,6
     135,611	    0,019838	59,9	   0,0180748	63,6
     135,627	   0,0198683	64,2	   0,0183556	60,1
     135,642	   0,0204037	60,5	   0,0183836	61,0
     135,658	   0,0201882	62,7	   0,0180882	64,2
     135,674	   0,0201373	61,3	   0,0186386	61,8
     135,689	   0,0199164	62,7	   0,0180702	64,1
     135,705	   0,0200249	60,3	   0,0187757	60,7
      135,72	   0,0205926	61,7	   0,0185527	61,4
     135,736	    0,020093	60,4	   0,0184331	62,7
     135,752	   0,0207528	61,8	   0,0187276	64,7
     135,767	   0,0205434	61,1	     0,01898	57,4
     135,783	    0,020468	65,1	   0,0188399	63,5
     135,799	   0,0212087	57,5	   0,0191728	57,9
     135,814	   0,0206552	63,1	   0,0188695	64,6
      135,83	   0,0210925	63,3	   0,0190501	63,3
     135,846	   0,0204452	61,7	   0,0192129	61,0
     135,861	   0,0215557	58,9	   0,0189081	63,3
     135,877	   0,0210049	58,9	   0,0192977	59,5
     135,892	   0,0211476	63,3	   0,0187123	63,5
     135,908	   0,0217301	60,8	   0,0191366	63,7
     135,924	   0,0216941	66,9	    0,019386	60,8
     135,939	   0,0217861	58,7	   0,0194422	61,2
     135,955	   0,0212285	60,9	   0,0196624	64,3
     135,971	   0,0216521	65,0	   0,0194885	64,1
     135,986	   0,0216428	61,0	   0,0205507	59,0
     136,002	    0,021652	63,0	   0,0198936	60,5
     136,018	   0,0223009	61,1	   0,0197773	64,1
     136,033	   0,0216272	62,6	   0,0197889	59,5
     136,049	   0,0222081	63,2	   0,0201844	62,2
     136,065	   0,0218648	60,7	   0,0202616	62,0
      136,08	   0,0219678	62,0	   0,0202301	60,1
     136,096	   0,0224775	63,5	   0,0206304	63,4
     136,111	   0,0219095	60,9	   0,0203528	59,6
     136,127	   0,0224515	64,1	   0,0202208	60,7
     136,143	   0,0224224	62,1	   0,0200722	65,1
     136,158	   0,0220876	64,6	   0,0206112	60,3
     136,174	   0,0227455	65,1	   0,0204897	60,7
      136,19	   0,0227854	61,4	   0,0203557	63,7
     136,205	    0,023087	61,3	   0,0210568	62,4
     136,221	   0,0229599	62,8	   0,0211278	60,1
     136,237	   0,0235949	61,7	   0,0212542	64,0
     136,252	   0,0234554	58,9	   0,0206021	64,3
     136,268	   0,0230868	64,3	   0,0214307	62,2
     136,283	   0,0237053	64,6	   0,0206474	63,3
     136,299	   0,0236002	61,9	   0,0213052	63,5
     136,315	   0,0233313	64,9	   0,0212322	63,9
      136,33	   0,0240113	63,8	   0,0210974	61,2
     136,346	   0,0236439	61,1	   0,0218379	61,4
     136,362	   0,0240738	62,7	   0,0217167	64,0
     136,377	   0,0241469	63,5	   0,0217452	59,1
     136,393	   0,0245244	63,7	   0,0217446	60,8
     136,409	   0,0247152	62,4	   0,0218548	63,5
     136,424	   0,0247062	58,3	   0,0216703	64,4
      136,44	   0,0245277	64,6	     0,02206	61,0
     136,456	   0,0248802	64,7	   0,0218881	59,6
     136,471	    0,024522	60,6	   0,0217649	63,2
     136,487	    0,024662	59,8	   0,0221841	63,1
     136,502	   0,0248998	62,5	   0,0218363	63,0
     136,518	   0,0251005	66,3	   0,0222885	64,0
     136,534	   0,0248123	65,8	   0,0222771	61,0
     136,549	   0,0257074	63,1	   0,0221966	64,7
     136,565	   0,0252403	62,5	   0,0224152	64,9
     136,581	   0,0250457	66,9	    0,022348	64,6
     136,596	   0,0251644	65,5	   0,0229217	65,9
     136,612	   0,0256763	64,8	   0,0225943	62,5
     136,628	   0,0261268	62,2	   0,0230211	60,8
     136,643	   0,0261942	61,3	   0,0230126	61,8
     136,659	   0,0262109	63,0	   0,0229274	64,8
     136,674	   0,0260336	64,8	   0,0232837	62,2
      136,69	   0,0261799	69,6	    0,023292	60,4
     136,706	   0,0264894	64,3	   0,0237848	59,5
     136,721	   0,0264077	64,5	   0,0235328	62,9
     136,737	   0,0269737	61,6	   0,0237573	61,0
     136,753	   0,0268044	60,9	    0,023158	65,9
     136,768	   0,0269464	63,7	   0,0234998	64,2
     136,784	   0,0267594	64,8	   0,0236883	63,2
       136,8	   0,0271963	64,4	   0,0236618	65,3
     136,815	   0,0270709	63,1	   0,0243696	60,7
     136,831	   0,0271593	61,1	   0,0238632	64,1
     136,847	    0,027478	62,0	   0,0245007	61,3
     136,862	   0,0273416	66,4	     0,02428	65,1
     136,878	   0,0271589	64,3	   0,0246968	66,0
     136,893	   0,0274345	66,8	   0,0244654	67,9
     136,909	   0,0273508	66,7	   0,0246814	64,6
     136,925	   0,0278939	66,2	   0,0246166	65,9
      136,94	   0,0281875	67,4	   0,0247119	65,2
     136,956	   0,0287777	63,8	   0,0246153	63,8
     136,972	   0,0287674	65,6	   0,0249791	62,8
     136,987	   0,0286464	64,1	   0,0254001	62,9
     137,003	   0,0286634	63,5	   0,0254519	60,5
     137,019	   0,0294518	63,2	   0,0251568	61,1
     137,034	    0,029232	60,5	   0,0263663	61,4
      137,05	   0,0295234	63,8	    0,025828	62,8
     137,065	   0,0295414	63,3	    0,026094	62,5
     137,081	   0,0295643	66,3	   0,0261469	62,5
     137,097	   0,0292299	66,6	   0,0261361	63,1
     137,112	   0,0294074	67,5	   0,0262374	61,7
     137,128	   0,0304794	65,3	   0,0264674	60,3
     137,144	   0,0302057	64,8	   0,0261806	63,0
     137,159	   0,0308836	68,1	    0,026669	62,2
     137,175	    0,030037	66,1	   0,0267458	66,2
     137,191	   0,0303064	66,4	   0,0261013	65,2
     137,206	   0,0307175	67,3	   0,0269042	64,2
     137,222	    0,030984	67,7	   0,0267488	65,3
     137,238	   0,0312861	67,0	   0,0269722	63,7
     137,253	   0,0311555	66,8	   0,0269261	62,0
     137,269	   0,0304649	67,5	    0,027028	62,4
     137,284	    0,031196	65,8	   0,0277475	66,4
       137,3	   0,0312008	67,2	   0,0275955	63,0
     137,316	   0,0314002	66,6	   0,0273631	60,6
     137,331	   0,0317867	69,9	   0,0286456	60,0
     137,347	   0,0322708	68,8	   0,0286522	63,0
     137,363	   0,0326332	69,0	   0,0283671	64,9
     137,378	   0,0329785	62,8	   0,0278781	65,2
     137,394	   0,0333279	65,3	   0,0279805	62,8
      137,41	   0,0328954	65,3	   0,0280258	68,5
     137,425	   0,0332674	65,7	   0,0282785	64,9
     137,441	    0,034173	66,2	   0,0287311	65,9
     137,456	   0,0345608	62,4	   0,0291609	66,7
     137,472	   0,0343654	64,6	   0,0297842	64,9
     137,488	   0,0348446	66,4	   0,0295243	64,4
     137,503	   0,0345762	66,3	   0,0303004	65,1
     137,519	   0,0346783	65,9	   0,0301216	63,5
     137,535	   0,0355573	67,8	   0,0299256	61,6
      137,55	   0,0356302	67,9	   0,0297477	64,7
     137,566	   0,0355367	66,3	    0,029927	64,1
     137,582	   0,0360928	69,5	    0,030184	65,3
     137,597	   0,0360743	67,0	   0,0303806	68,4
     137,613	   0,0363024	66,6	   0,0301271	68,5
     137,629	   0,0364285	68,9	   0,0301417	67,3
     137,644	   0,0376933	68,1	   0,0306648	62,2
      137,66	   0,0368716	70,1	   0,0310633	62,3
     137,675	   0,0370999	67,9	   0,0312438	63,9
     137,691	   0,0375897	67,0	   0,0311098	68,7
     137,707	   0,0378492	67,0	    0,030992	69,7
     137,722	   0,0382028	64,4	   0,0309915	65,9
     137,738	   0,0374523	68,6	   0,0321481	62,4
     137,754	   0,0378365	66,9	   0,0319671	63,5
     137,769	   0,0380325	70,5	   0,0315807	66,2
     137,785	   0,0387736	66,6	   0,0314789	67,3
     137,801	   0,0392575	66,4	   0,0326944	66,8
     137,816	   0,0400345	66,0	    0,033077	64,1
     137,832	   0,0399414	68,8	   0,0333167	62,2
     137,848	   0,0400031	68,3	   0,0327843	67,5
     137,863	   0,0399197	70,5	    0,033316	67,1
     137,879	   0,0403682	66,9	   0,0334179	67,3
     137,894	   0,0412866	66,2	   0,0342445	65,8
      137,91	   0,0413213	66,2	   0,0346289	63,6
     137,926	   0,0406925	68,4	   0,0341082	69,4
     137,941	   0,0409056	67,5	   0,0348169	67,3
     137,957	   0,0422264	67,8	   0,0351264	65,3
     137,973	   0,0426121	71,3	   0,0349233	65,7
     137,988	   0,0429661	71,6	   0,0354649	66,4
     138,004	   0,0421352	71,6	   0,0357979	68,2
      138,02	   0,0435725	67,2	   0,0357141	67,3
     138,035	   0,0444882	66,4	   0,0361076	67,4
     138,051	   0,0450769	69,0	   0,0362036	66,5
     138,066	   0,0448054	66,6	   0,0364341	68,1
     138,082	   0,0442836	68,4	   0,0370722	64,5
     138,098	   0,0463963	67,7	    0,037363	64,8
     138,113	   0,0465146	69,8	   0,0370341	65,8
     138,129	   0,0459278	70,2	   0,0371027	68,6
     138,145	   0,0457875	68,2	   0,0382495	64,5
      138,16	   0,0477658	68,7	   0,0380124	68,7
     138,176	   0,0470667	71,7	   0,0378022	68,5
     138,192	   0,0480585	69,3	   0,0383504	65,7
     138,207	   0,0490375	70,1	   0,0383413	67,1
     138,223	   0,0485984	70,8	   0,0384685	68,7
     138,239	   0,0493289	68,5	   0,0389425	64,8
     138,254	   0,0492084	70,2	   0,0391075	68,5
      138,27	   0,0495479	74,9	   0,0394545	69,7
     138,285	   0,0506638	71,4	   0,0404193	64,5
     138,301	   0,0514463	69,1	   0,0402718	69,7
     138,317	   0,0511055	75,3	    0,040744	69,3
     138,332	   0,0525433	71,9	   0,0409021	66,3
     138,348	   0,0530859	68,9	   0,0409289	68,8
     138,364	   0,0532871	75,6	   0,0407114	71,5
     138,379	   0,0544105	72,9	    0,042049	64,9
     138,395	   0,0558627	72,9	   0,0423466	69,3
     138,411	   0,0555118	74,3	   0,0419007	69,1
     138,426	   0,0555365	70,1	   0,0423161	69,1
     138,442	   0,0559914	74,8	   0,0423674	73,0
     138,457	   0,0575486	72,8	   0,0435952	67,3
     138,473	   0,0572181	72,8	   0,0435101	69,3
     138,489	     0,05842	75,2	   0,0440143	70,8
     138,504	   0,0586281	72,5	   0,0448046	69,2
      138,52	   0,0583219	75,6	   0,0438457	71,2
     138,536	   0,0596182	74,8	   0,0452179	68,1
     138,551	   0,0598862	75,0	   0,0454719	71,1
     138,567	   0,0618848	73,7	   0,0461121	66,8
     138,583	   0,0613456	71,1	   0,0455752	72,0
     138,598	    0,063084	77,5	    0,046594	68,5
     138,614	   0,0636039	74,7	   0,0471058	70,8
      138,63	   0,0642912	74,5	   0,0472856	71,3
     138,645	   0,0638628	78,3	   0,0475811	69,4
     138,661	   0,0658724	77,2	   0,0477582	73,4
     138,676	    0,064894	76,6	   0,0494187	68,2
     138,692	   0,0671374	75,4	   0,0485565	72,2
     138,708	   0,0669952	79,0	   0,0504279	69,1
     138,723	   0,0685701	74,3	   0,0501355	72,4
     138,739	   0,0674966	79,1	   0,0515824	69,2
     138,755	   0,0696427	76,6	   0,0507506	74,6
      138,77	   0,0694685	81,1	    0,052564	69,4
     138,786	   0,0716402	78,2	   0,0518809	71,9
     138,802	   0,0722129	79,5	   0,0527379	71,2
     138,817	   0,0722776	80,6	   0,0526288	72,4
     138,833	   0,0738806	77,1	   0,0542426	69,6
     138,848	   0,0746265	76,4	   0,0535453	72,5
     138,864	   0,0737264	82,3	   0,0556982	71,6
      138,88	   0,0757119	78,4	   0,0547887	72,8
     138,895	   0,0764367	80,7	   0,0562497	71,6
     138,911	   0,0773279	79,3	   0,0556817	75,4
     138,927	   0,0793152	81,7	   0,0569758	72,7
     138,942	   0,0787438	81,2	   0,0582952	71,4
     138,958	   0,0803989	84,4	    0,057451	77,1
     138,974	   0,0821605	81,0	   0,0592331	72,4
     138,989	    0,081691	80,3	   0,0585179	75,5
     139,005	   0,0824414	85,4	   0,0591757	70,7
     139,021	   0,0844849	82,2	   0,0613365	74,5
     139,036	   0,0859719	84,6	   0,0611559	74,8
     139,052	   0,0861515	81,1	   0,0610913	77,9
     139,067	   0,0883008	82,8	    0,062305	72,5
     139,083	   0,0886672	84,0	   0,0623152	72,5
     139,099	   0,0882469	85,7	   0,0624614	77,0
     139,114	   0,0899645	85,8	    0,062896	72,0
      139,13	   0,0921256	85,9	   0,0648941	74,0
     139,146	   0,0945138	83,8	   0,0665869	73,0
     139,161	    0,095355	84,0	   0,0653232	72,9
     139,177	   0,0955218	83,8	   0,0664036	78,3
     139,193	   0,0955316	88,2	   0,0667299	75,4
     139,208	   0,0965632	87,5	   0,0686029	76,4
     139,224	    0,098951	89,5	   0,0669674	77,8
     139,239	    0,100835	88,8	   0,0698133	74,0
     139,255	    0,100105	85,3	   0,0706123	78,6
     139,271	    0,100388	91,8	   0,0703759	80,1
     139,286	    0,102246	87,3	   0,0711395	78,1
     139,302	    0,103722	87,8	   0,0728376	75,5
     139,318	    0,105901	90,2	   0,0735169	77,7
     139,333	    0,105133	89,4	    0,073348	78,4
     139,349	    0,106591	91,7	   0,0750919	78,1
     139,365	    0,109703	93,3	   0,0758479	79,7
      139,38	    0,109293	90,7	   0,0755494	79,1
     139,396	    0,111813	92,0	     0,07576	82,1
     139,412	    0,113649	93,5	    0,078313	78,1
     139,427	    0,115725	93,1	   0,0779024	80,2
     139,443	    0,113889	93,2	    0,078564	82,5
     139,458	    0,116128	96,0	   0,0796021	81,5
     139,474	    0,118173	96,6	   0,0799081	78,3
      139,49	    0,119063	94,6	   0,0828502	76,3
     139,505	    0,120607	95,6	   0,0825942	81,6
     139,521	    0,120153	99,4	   0,0832371	81,6
     139,537	    0,122139	95,9	   0,0850889	77,8
     139,552	    0,124959	96,9	   0,0866651	82,4
     139,568	    0,125624	96,8	    0,087218	82,1
     139,584	    0,125123	100,8	   0,0867108	81,8
     139,599	    0,128661	97,0	   0,0870465	81,6
     139,615	    0,128326	97,2	   0,0891139	83,6
      139,63	    0,128739	102,7	   0,0901061	83,9
     139,646	    0,130111	102,7	    0,092863	83,4
     139,662	    0,131398	100,8	    0,093345	83,6
     139,677	     0,13309	101,9	   0,0941894	83,5
     139,693	    0,135465	100,8	   0,0963517	87,0
     139,709	    0,137974	105,1	   0,0965672	86,3
     139,724	    0,137936	100,7	   0,0968905	86,5
      139,74	    0,137267	102,6	   0,0977368	87,0
     139,756	    0,137783	106,3	   0,0995243	85,2
     139,771	    0,140523	107,0	     0,10023	87,3
     139,787	    0,143952	103,9	    0,100076	90,2
     139,803	    0,144336	105,3	    0,101872	88,6
     139,818	     0,14452	103,6	    0,103041	88,5
     139,834	    0,145561	108,1	    0,103512	87,9
     139,849	    0,145863	109,3	    0,105704	88,8
     139,865	    0,147487	113,4	    0,105029	90,5
     139,881	    0,149625	111,3	    0,105563	90,9
     139,896	    0,151473	108,5	    0,107705	88,0
     139,912	    0,151071	109,3	    0,108897	87,7
     139,928	    0,151926	112,8	     0,11075	90,0
     139,943	    0,153945	111,8	    0,111748	92,0
     139,959	    0,156623	113,8	    0,112572	93,7
     139,975	    0,157444	114,0	    0,112588	90,0
      139,99	      0,1572	113,9	     0,11351	93,4
     140,006	      0,1567	110,9	    0,114322	92,7
     140,021	    0,157919	116,0	    0,114537	92,9
     140,037	    0,159671	114,4	    0,115667	90,2
     140,053	    0,161896	118,5	    0,118316	92,0
     140,068	    0,163384	118,4	    0,119867	97,3
     140,084	    0,164222	117,9	    0,120205	96,5
       140,1	      0,1642	120,6	    0,120869	96,3
     140,115	    0,166717	117,9	    0,122484	95,5
     140,131	    0,167274	117,0	    0,124164	96,3
     140,147	    0,166972	118,3	     0,12496	94,9
     140,162	     0,16631	119,6	    0,125121	100,2
     140,178	    0,167147	120,2	    0,126033	95,6
     140,194	     0,16827	122,5	    0,128655	102,1
     140,209	    0,170551	124,0	    0,128058	99,6
     140,225	    0,172777	122,7	    0,128975	98,6
      140,24	    0,173124	123,9	    0,131049	98,4
     140,256	    0,173069	125,0	     0,13159	100,2
     140,272	    0,175451	125,5	    0,133265	104,4
     140,287	    0,176122	127,0	    0,134515	103,8
     140,303	    0,176122	127,2	    0,135207	103,3
     140,319	    0,175498	125,2	    0,138202	106,1
     140,334	    0,176778	130,6	    0,138747	106,0
      140,35	    0,177859	128,1	    0,141156	104,3
     140,366	    0,177737	130,6	    0,143328	105,6
     140,381	    0,178428	134,2	    0,143775	106,6
     140,397	    0,178621	130,8	    0,145373	107,6
     140,413	    0,179882	133,6	    0,147371	107,0
     140,428	    0,180734	134,5	    0,147757	107,9
     140,444	    0,181301	133,7	    0,149234	107,4
     140,459	    0,181637	137,2	    0,149212	109,1
     140,475	    0,181281	138,7	    0,150143	111,4
     140,491	     0,18384	136,3	    0,151235	111,3
     140,506	    0,185684	139,8	    0,151872	110,7
     140,522	    0,186439	139,2	    0,153182	113,0
     140,538	    0,187729	141,5	    0,153895	113,3
     140,553	    0,186789	144,2	    0,155877	110,5
     140,569	    0,186161	145,2	    0,156823	110,8
     140,585	    0,185846	148,8	    0,157195	110,2
       140,6	    0,184994	151,5	    0,158078	113,0
     140,616	    0,185166	154,0	    0,158638	114,0
     140,631	     0,18637	153,8	    0,160368	114,5
     140,647	    0,187378	153,3	    0,162538	115,0
     140,663	    0,188198	154,8	    0,162935	114,9
     140,678	    0,187713	155,8	    0,165681	116,0
     140,694	    0,186612	158,8	    0,166394	118,9
      140,71	    0,184435	159,8	    0,166325	122,1
     140,725	    0,183655	161,9	    0,167441	120,2
     140,741	    0,180427	164,8	    0,170254	121,4
     140,757	    0,178107	170,3	    0,170488	118,3
     140,772	    0,175092	175,6	    0,171198	118,3
     140,788	    0,171695	180,7	     0,17123	120,4
     140,804	    0,164236	187,2	    0,169859	120,8
     140,819	    0,155339	190,3	    0,173001	122,4
     140,835	    0,145518	193,2	    0,172809	126,2
      140,85	    0,134354	198,0	    0,173594	125,7
     140,866	    0,126275	199,5	    0,174599	125,6
     140,882	    0,118343	-158,1	    0,175803	124,7
     140,897	    0,112047	-155,0	    0,177934	125,7
     140,913	    0,106647	-152,3	    0,178914	128,4
     140,929	    0,101258	-154,2	     0,17915	131,1
     140,944	     0,10021	-154,6	    0,179243	129,5
      140,96	    0,100545	-152,6	    0,179874	132,2
     140,976	    0,098974	-150,2	    0,181121	129,1
     140,991	   0,0960678	-152,2	    0,180859	132,8
     141,007	    0,094468	-149,5	    0,181312	132,9
     141,022	   0,0932196	-148,1	     0,18349	135,6
     141,038	   0,0915379	-149,8	    0,185023	135,5
     141,054	   0,0894598	-150,4	    0,185282	136,1
     141,069	   0,0882924	-152,6	    0,184841	135,1
     141,085	   0,0894752	-151,1	    0,184169	138,1
     141,101	   0,0888192	-148,8	    0,185656	139,0
     141,116	   0,0876308	-148,7	    0,185934	142,8
     141,132	   0,0874727	-147,2	    0,182604	143,0
     141,148	   0,0856986	-148,1	    0,179016	152,4
     141,163	    0,082577	-147,5	    0,175594	160,3
     141,179	   0,0821984	-144,8	    0,171187	160,9
     141,195	   0,0814781	-148,4	     0,16768	165,5
      141,21	   0,0802091	-146,8	    0,162376	172,5
     141,226	    0,080533	-147,9	    0,156535	177,3
     141,241	   0,0811372	-142,9	    0,152516	180,6
     141,257	   0,0782871	-145,0	    0,147103	178,8
     141,273	   0,0764906	-146,5	    0,143281	183,7
     141,288	    0,076134	-143,4	    0,140792	186,7
     141,304	   0,0747568	-143,8	     0,13753	189,9
      141,32	   0,0748204	-144,0	    0,133713	191,0
     141,335	   0,0756281	-146,5	    0,129649	194,8
     141,351	   0,0731201	-142,2	    0,128478	194,6
     141,367	   0,0708587	-143,8	    0,126188	193,5
     141,382	   0,0716983	-144,9	    0,122608	198,5
     141,398	   0,0713091	-140,2	    0,119197	199,0
     141,413	   0,0704556	-140,8	    0,117156	-159,1
     141,429	   0,0711959	-144,1	    0,115057	-159,7
     141,445	   0,0705111	-143,6	    0,114025	-159,2
      141,46	   0,0688458	-142,6	    0,110707	-160,1
     141,476	   0,0682359	-143,0	    0,108514	-159,8
     141,492	   0,0668979	-143,3	    0,107555	-155,4
     141,507	   0,0669006	-141,2	    0,105307	-155,2
     141,523	   0,0667309	-142,6	    0,104505	-156,8
     141,539	   0,0647417	-142,6	     0,10248	-153,0
     141,554	   0,0657739	-140,1	    0,100253	-155,6
      141,57	   0,0651966	-138,7	    0,100646	-152,1
     141,586	   0,0629078	-142,6	   0,0996811	-152,3
     141,601	   0,0636979	-137,0	   0,0984286	-152,7
     141,617	   0,0622078	-143,4	   0,0966547	-152,5
     141,632	   0,0617873	-141,1	   0,0945609	-153,3
     141,648	   0,0620725	-140,2	   0,0941165	-151,7
     141,664	   0,0607731	-142,7	   0,0918669	-151,2
     141,679	   0,0610973	-136,9	   0,0903627	-148,9
     141,695	   0,0600241	-142,5	   0,0908002	-148,9
     141,711	   0,0600516	-140,6	   0,0889683	-149,0
     141,726	   0,0588056	-140,0	   0,0875927	-147,5
     141,742	   0,0584912	-141,2	   0,0853545	-150,3
     141,758	    0,058166	-139,7	   0,0855616	-147,3
     141,773	   0,0574828	-138,4	   0,0853027	-149,4
     141,789	   0,0565083	-139,3	   0,0844391	-147,9
     141,804	   0,0565354	-137,9	   0,0817894	-146,9
      141,82	   0,0565857	-139,8	   0,0817363	-146,1
     141,836	   0,0559485	-137,8	   0,0810984	-147,9
     141,851	   0,0555475	-141,4	   0,0801925	-148,2
     141,867	   0,0551109	-136,6	   0,0793348	-144,1
     141,883	    0,055133	-138,9	   0,0786141	-146,2
     141,898	   0,0540471	-136,2	   0,0780398	-145,4
     141,914	   0,0536439	-136,7	   0,0761214	-147,5
      141,93	    0,053449	-135,9	   0,0756059	-143,0
     141,945	    0,052779	-137,3	   0,0753309	-142,2
     141,961	   0,0521325	-138,2	   0,0738965	-143,2
     141,977	   0,0521272	-134,8	   0,0735035	-144,2
     141,992	   0,0509006	-137,3	   0,0725812	-144,5
     142,008	   0,0518737	-137,1	   0,0722146	-144,1
     142,023	   0,0507973	-138,8	   0,0705364	-146,1
     142,039	   0,0509147	-135,1	   0,0709928	-141,1
     142,055	   0,0499145	-137,3	   0,0696437	-146,0
      142,07	   0,0499897	-135,7	   0,0693172	-142,4
     142,086	   0,0496161	-137,6	   0,0684623	-144,2
     142,102	   0,0496022	-139,4	   0,0679243	-140,6
     142,117	   0,0496277	-136,7	   0,0663109	-143,8
     142,133	   0,0476364	-135,8	   0,0654963	-138,6
     142,149	    0,048946	-134,5	    0,066216	-139,3
     142,164	   0,0480852	-137,7	   0,0649827	-140,9
      142,18	   0,0488919	-134,6	   0,0642122	-139,7
     142,196	   0,0471337	-136,2	    0,064368	-141,7
     142,211	    0,047461	-136,4	   0,0640439	-140,6
     142,227	   0,0466478	-135,3	   0,0621704	-139,3
     142,242	   0,0459763	-133,1	   0,0616717	-142,8
     142,258	   0,0470583	-135,2	   0,0617882	-140,1
     142,274	    0,045395	-136,5	   0,0607595	-141,1
     142,289	   0,0457035	-134,9	   0,0610904	-138,7
     142,305	   0,0450706	-134,3	   0,0603943	-139,9
     142,321	   0,0456748	-135,6	   0,0587329	-141,2
     142,336	   0,0444347	-136,4	   0,0587288	-137,7
     142,352	   0,0439233	-135,2	   0,0583606	-139,3
     142,368	   0,0443427	-136,2	   0,0583307	-141,2
     142,383	   0,0442663	-134,5	   0,0580062	-138,2
     142,399	   0,0444211	-134,8	   0,0567877	-141,4
     142,414	   0,0435086	-137,4	   0,0566541	-140,6
      142,43	   0,0425934	-132,4	   0,0574253	-136,6
     142,446	    0,043275	-134,4	   0,0556737	-139,3
     142,461	   0,0420775	-136,3	   0,0555719	-137,8
     142,477	   0,0424457	-133,4	   0,0549308	-139,5
     142,493	    0,041665	-135,5	   0,0543458	-140,9
     142,508	   0,0421688	-133,1	   0,0527419	-139,7
     142,524	   0,0411384	-132,6	   0,0538595	-134,7
      142,54	   0,0413523	-134,9	   0,0528299	-140,8
     142,555	   0,0413627	-131,9	   0,0517148	-138,7
     142,571	   0,0402911	-133,5	   0,0525455	-133,7
     142,587	   0,0401199	-135,8	   0,0515552	-137,8
     142,602	   0,0403456	-131,8	   0,0508519	-137,2
     142,618	   0,0397158	-133,8	   0,0511132	-132,9
     142,633	   0,0394776	-135,0	   0,0507775	-136,6
     142,649	   0,0397258	-132,6	   0,0509055	-138,8
     142,665	   0,0390504	-135,7	   0,0497361	-135,4
      142,68	   0,0390371	-133,4	   0,0484302	-133,5
     142,696	   0,0387026	-133,0	   0,0499914	-136,7
     142,712	   0,0387712	-133,3	   0,0486189	-136,7
     142,727	   0,0386607	-135,0	   0,0488371	-137,4
     142,743	   0,0377084	-133,1	    0,047877	-137,1
     142,759	   0,0374904	-133,1	   0,0479861	-137,7
     142,774	   0,0373426	-134,5	   0,0472784	-136,0
      142,79	    0,037226	-134,5	   0,0463997	-135,1
     142,805	   0,0369028	-131,6	   0,0467858	-133,8
     142,821	    0,036943	-131,2	    0,045539	-133,3
     142,837	   0,0368661	-133,5	   0,0462673	-136,3
     142,852	   0,0367236	-136,3	   0,0460303	-136,0
     142,868	   0,0361271	-133,4	   0,0448324	-136,6
     142,884	   0,0366198	-134,0	   0,0448532	-134,0
     142,899	   0,0358546	-133,7	   0,0450779	-134,4
     142,915	   0,0359794	-131,1	   0,0444537	-135,8
     142,931	   0,0355422	-132,0	   0,0448977	-136,4
     142,946	   0,0356414	-129,4	   0,0444961	-137,0
     142,962	    0,036398	-132,4	   0,0433376	-136,2
     142,978	   0,0347572	-131,9	   0,0437889	-134,7
     142,993	   0,0347991	-131,7	   0,0428693	-134,5
     143,009	    0,035207	-135,0	   0,0431755	-132,4
     143,024	   0,0351766	-131,0	   0,0423202	-132,7
      143,04	   0,0347468	-130,2	   0,0424929	-133,8
     143,056	   0,0338202	-132,7	   0,0416275	-135,4
     143,071	   0,0340343	-131,7	   0,0414812	-135,0
     143,087	   0,0339819	-131,6	   0,0412793	-135,0
     143,103	   0,0335932	-132,9	   0,0410473	-134,9
     143,118	      0,0346	-129,2	   0,0416632	-135,4
     143,134	   0,0330933	-132,8	   0,0409292	-133,5
      143,15	   0,0334427	-133,2	   0,0410144	-134,5
     143,165	   0,0333438	-132,9	   0,0404938	-132,7
     143,181	   0,0328408	-129,7	    0,040572	-132,5
     143,196	   0,0327911	-132,4	   0,0389138	-135,0
     143,212	   0,0324617	-132,8	   0,0396463	-135,7
     143,228	   0,0333148	-132,2	    0,039101	-133,2
     143,243	   0,0328916	-129,7	   0,0384419	-137,2
     143,259	   0,0324547	-133,3	   0,0391742	-132,3
     143,275	   0,0324174	-132,4	   0,0384026	-133,7
      143,29	   0,0321533	-132,5	   0,0389529	-130,6
     143,306	   0,0321687	-133,3	   0,0387638	-131,8
     143,322	   0,0324253	-134,2	   0,0378134	-132,6
     143,337	   0,0318404	-131,5	   0,0379885	-134,1
     143,353	   0,0322001	-131,6	   0,0372687	-133,4
     143,369	   0,0321045	-133,7	   0,0371759	-132,6
     143,384	   0,0320208	-132,7	   0,0367997	-133,1
       143,4	    0,031292	-130,4	   0,0367968	-134,3
     143,415	   0,0309173	-132,3	   0,0366618	-132,9
     143,431	   0,0310994	-131,7	   0,0369071	-135,6
     143,447	   0,0307458	-134,2	   0,0358183	-133,9
     143,462	   0,0307599	-132,0	   0,0357194	-131,6
     143,478	   0,0306147	-131,4	   0,0360233	-130,2
     143,494	    0,029977	-130,2	   0,0359699	-133,7
     143,509	    0,029776	-132,6	   0,0352845	-134,8
     143,525	   0,0296486	-130,7	   0,0352135	-131,7
     143,541	   0,0300268	-132,6	   0,0348945	-131,4
     143,556	   0,0295929	-130,2	   0,0354097	-131,9
     143,572	   0,0296764	-134,0	   0,0347744	-131,2
     143,587	   0,0298056	-132,8	   0,0345775	-133,1
     143,603	   0,0299871	-132,2	   0,0345357	-133,0
     143,619	   0,0295616	-128,9	   0,0338769	-131,4
     143,634	   0,0291596	-131,0	   0,0341835	-132,0
      143,65	   0,0288071	-132,6	   0,0337408	-133,6
     143,666	   0,0288351	-131,6	     0,03403	-132,2
     143,681	   0,0288591	-130,0	   0,0341584	-133,8
     143,697	   0,0283793	-133,3	   0,0333813	-133,9
     143,713	    0,028341	-133,0	   0,0328534	-131,3
     143,728	   0,0286282	-128,3	   0,0335754	-133,3
     143,744	   0,0284268	-128,4	   0,0330905	-130,5
      143,76	   0,0277148	-131,0	   0,0329843	-131,3
     143,775	   0,0280751	-130,3	   0,0331941	-130,3
     143,791	   0,0282348	-129,5	   0,0326299	-131,9
     143,806	   0,0282007	-131,1	   0,0324832	-132,6
     143,822	   0,0284445	-130,4	   0,0324662	-131,5
     143,838	   0,0280049	-132,5	   0,0317773	-135,3
     143,853	   0,0278496	-129,5	   0,0315532	-131,5
     143,869	   0,0281494	-129,4	   0,0313487	-131,5
     143,885	   0,0281218	-130,6	   0,0320025	-132,6
       143,9	   0,0274914	-130,2	   0,0316865	-131,5
     143,916	   0,0273947	-129,0	   0,0317245	-131,4
     143,932	   0,0277474	-129,6	   0,0316177	-129,8
     143,947	   0,0268492	-128,3	     0,03117	-130,6
     143,963	   0,0266842	-132,3	   0,0312293	-130,0
     143,979	    0,027273	-129,6	    0,031439	-132,0
     143,994	   0,0271841	-131,6	   0,0312079	-132,2
      144,01	   0,0272696	-131,2	   0,0311237	-131,8
     144,025	    0,027519	-129,7	   0,0305755	-130,2
     144,041	    0,027122	-129,5	   0,0305427	-129,9
     144,057	   0,0264172	-131,4	   0,0305931	-131,6
     144,072	   0,0265464	-130,9	    0,030085	-127,3
     144,088	   0,0264583	-126,0	   0,0300501	-129,9
     144,104	   0,0265386	-130,6	   0,0293561	-132,3
     144,119	   0,0266241	-129,5	   0,0300287	-131,2
     144,135	   0,0262806	-128,7	   0,0304303	-131,7
     144,151	    0,025817	-133,9	   0,0296288	-132,4
     144,166	   0,0257372	-130,1	   0,0290696	-129,7
     144,182	   0,0260305	-127,9	   0,0291831	-130,7
     144,197	   0,0256706	-130,3	   0,0295184	-129,5
     144,213	   0,0262736	-128,5	   0,0294924	-128,8
     144,229	   0,0255578	-130,4	   0,0288203	-128,9
     144,244	   0,0254869	-130,0	   0,0283374	-130,9
      144,26	   0,0251848	-128,5	   0,0283093	-130,3
     144,276	   0,0252426	-126,7	   0,0287145	-131,0
     144,291	   0,0252449	-130,9	    0,028593	-129,8
     144,307	   0,0251555	-129,7	   0,0282215	-133,2
     144,323	   0,0250334	-130,6	   0,0277766	-129,5
     144,338	   0,0249888	-131,1	   0,0282633	-129,3
     144,354	   0,0250422	-130,8	   0,0282864	-129,8
      144,37	   0,0246726	-130,4	   0,0276679	-130,2
     144,385	   0,0250879	-131,1	   0,0274651	-129,8
     144,401	   0,0249788	-128,3	   0,0276775	-130,9
     144,416	   0,0247764	-131,6	   0,0275788	-127,9
     144,432	   0,0241162	-131,3	   0,0274739	-129,4
     144,448	   0,0245665	-127,8	   0,0272331	-131,1
     144,463	   0,0247698	-129,7	   0,0275576	-128,0
     144,479	   0,0237974	-130,1	   0,0269453	-129,7
     144,495	   0,0238118	-129,2	   0,0271083	-131,9
      144,51	   0,0244131	-130,6	   0,0269874	-130,3
     144,526	   0,0240982	-131,4	   0,0266245	-129,4
     144,542	   0,0236191	-128,5	   0,0262415	-132,9
     144,557	   0,0242953	-128,0	   0,0263236	-131,5
     144,573	   0,0242914	-129,2	   0,0261861	-130,0
     144,588	   0,0228755	-128,3	   0,0254738	-131,8
     144,604	   0,0235844	-130,8	   0,0263055	-131,0
      144,62	   0,0239986	-128,2	   0,0262659	-133,2
     144,635	   0,0233601	-131,4	   0,0260212	-127,9
     144,651	   0,0231834	-129,4	   0,0257073	-133,8
     144,667	   0,0239771	-129,1	    0,025661	-126,6
     144,682	   0,0232811	-130,9	   0,0254306	-130,2
     144,698	    0,022901	-127,4	   0,0260145	-131,7
     144,714	   0,0232462	-128,3	   0,0252475	-129,4
     144,729	   0,0226488	-130,2	   0,0253346	-130,4
     144,745	   0,0230608	-128,2	    0,025629	-131,4
     144,761	   0,0233076	-128,8	   0,0250501	-127,5
     144,776	   0,0224378	-129,2	   0,0249889	-130,9
     144,792	   0,0229155	-127,2	   0,0252657	-127,8
     144,807	   0,0228328	-131,3	   0,0244223	-130,0
     144,823	   0,0220987	-129,4	   0,0244972	-128,5
     144,839	    0,022572	-131,6	   0,0246387	-127,1
     144,854	    0,022372	-130,4	   0,0246378	-131,7
      144,87	   0,0225271	-128,5	   0,0250368	-129,1
     144,886	   0,0221849	-128,6	   0,0240631	-130,2
     144,901	   0,0221214	-128,3	    0,024501	-127,8
     144,917	   0,0227722	-130,1	   0,0239261	-129,8
     144,933	   0,0221639	-124,9	   0,0239448	-129,8
     144,948	   0,0229327	-130,5	   0,0239593	-130,1
     144,964	   0,0218965	-129,3	   0,0238752	-126,6
     144,979	   0,0220974	-127,7	   0,0243453	-128,9
     144,995	   0,0220826	-130,5	   0,0232256	-128,9
     145,011	    0,021903	-126,7	   0,0237437	-130,7
     145,026	   0,0220901	-128,3	   0,0233783	-128,7
     145,042	   0,0215541	-128,5	   0,0239563	-128,5
     145,058	   0,0217908	-131,7	   0,0236712	-131,1
     145,073	   0,0208587	-128,3	   0,0237421	-128,9
     145,089	   0,0218581	-131,0	    0,023044	-130,3
     145,105	   0,0208356	-129,2	   0,0236424	-130,4
      145,12	   0,0221736	-128,7	   0,0225458	-130,0
     145,136	   0,0213614	-130,2	   0,0236266	-129,1
     145,152	   0,0213743	-127,3	   0,0231045	-128,2
     145,167	   0,0208677	-131,1	   0,0234452	-132,2
     145,183	   0,0217705	-128,8	    0,022532	-129,9
     145,198	    0,021134	-129,5	   0,0231343	-130,9
     145,214	   0,0215948	-127,9	   0,0225056	-128,5
      145,23	   0,0200896	-131,2	   0,0227996	-128,5
     145,245	   0,0214966	-126,5	   0,0226501	-127,6
     145,261	    0,020735	-129,9	   0,0227618	-127,1
     145,277	   0,0209168	-125,7	   0,0222076	-132,7
     145,292	   0,0206372	-131,3	   0,0226976	-128,5
     145,308	   0,0213074	-128,8	   0,0223597	-131,5
     145,324	   0,0200427	-128,0	   0,0223669	-125,3
     145,339	    0,020852	-128,5	   0,0224329	-127,6
     145,355	   0,0203655	-130,5	   0,0218269	-129,7
      145,37	   0,0205935	-128,1	   0,0218496	-127,9
     145,386	   0,0202076	-130,4	   0,0215802	-129,9
     145,402	   0,0198339	-131,8	   0,0219004	-126,7
     145,417	   0,0207702	-127,3	    0,021743	-133,8
     145,433	   0,0195945	-128,1	    0,021118	-127,8
     145,449	   0,0210589	-129,6	   0,0221484	-128,6
     145,464	   0,0197203	-129,3	   0,0215085	-129,7
      145,48	   0,0204771	-126,5	   0,0215338	-127,5
     145,496	   0,0203278	-129,6	   0,0216351	-130,8
     145,511	    0,019871	-132,2	   0,0208126	-127,2
     145,527	   0,0204951	-128,0	   0,0220139	-126,9
     145,543	    0,018952	-126,8	   0,0208233	-129,4
     145,558	   0,0201906	-129,1	   0,0209507	-128,2
     145,574	    0,019899	-127,8	   0,0221779	-128,8
     145,589	   0,0196695	-132,5	   0,0203847	-130,2
     145,605	   0,0200578	-125,1	   0,0203578	-129,8
     145,621	   0,0187976	-127,5	   0,0212275	-129,6
     145,636	   0,0199878	-128,7	   0,0208877	-129,0
     145,652	   0,0201233	-126,7	   0,0206538	-126,5
     145,668	   0,0187597	-127,8	   0,0213793	-126,1
     145,683	   0,0203786	-128,8	   0,0203984	-127,2
     145,699	   0,0199313	-125,9	    0,020455	-127,0
     145,715	   0,0189958	-130,4	   0,0213407	-127,0
      145,73	   0,0195684	-130,1	   0,0205469	-132,1
     145,746	   0,0195549	-132,1	   0,0196274	-125,0
     145,761	   0,0184884	-128,0	   0,0207448	-125,9
     145,777	   0,0192437	-131,3	   0,0207414	-126,2
     145,793	   0,0194724	-125,3	   0,0194676	-131,4
     145,808	   0,0188548	-130,0	    0,020343	-127,4
     145,824	   0,0184071	-129,9	   0,0207281	-125,8
      145,84	   0,0196296	-128,0	   0,0194247	-128,6
     145,855	   0,0191934	-130,1	   0,0194075	-128,7
     145,871	   0,0184219	-129,8	   0,0205684	-127,4
     145,887	   0,0188677	-126,1	   0,0200993	-127,5
     145,902	   0,0194339	-126,4	   0,0197373	-130,1
     145,918	   0,0185118	-124,7	   0,0186686	-128,0
     145,934	   0,0183889	-130,9	   0,0204091	-127,8
     145,949	   0,0190262	-127,9	   0,0197515	-129,3
     145,965	   0,0186826	-124,4	    0,019232	-131,2
      145,98	   0,0180064	-125,6	   0,0193247	-129,6
     145,996	    0,018026	-128,1	   0,0191112	-127,4
     146,012	   0,0185418	-128,7	   0,0197511	-130,3
     146,027	   0,0185379	-129,4	   0,0191574	-128,0
     146,043	   0,0184158	-127,7	   0,0187296	-127,8
     146,059	   0,0174934	-129,4	   0,0191745	-127,7
     146,074	   0,0181638	-130,0	   0,0194278	-127,5
      146,09	   0,0182924	-125,9	   0,0190579	-130,2
     146,106	   0,0187663	-128,6	   0,0187877	-128,1
     146,121	   0,0183151	-127,4	   0,0186643	-127,2
     146,137	   0,0176533	-127,5	   0,0187519	-125,1
     146,152	   0,0181058	-128,3	   0,0194995	-126,2
     146,168	   0,0183474	-128,1	   0,0182621	-130,6
     146,184	    0,018041	-128,7	    0,018714	-129,3
     146,199	   0,0179095	-128,7	   0,0181522	-129,5
     146,215	   0,0177719	-129,3	   0,0186377	-128,9
     146,231	   0,0171396	-126,3	   0,0192087	-129,5
     146,246	   0,0174712	-127,8	   0,0184433	-126,3
     146,262	    0,017685	-128,3	   0,0184049	-128,2
     146,278	   0,0183342	-128,7	   0,0175438	-129,4
     146,293	   0,0176478	-127,7	   0,0182728	-128,0
     146,309	   0,0172912	-126,2	   0,0181426	-131,4
     146,325	   0,0170286	-125,3	   0,0188138	-128,0
      146,34	   0,0174774	-127,8	   0,0185545	-128,1
     146,356	   0,0173914	-125,8	   0,0186634	-127,8
     146,371	   0,0177859	-128,9	   0,0180876	-126,6
     146,387	    0,017614	-130,1	   0,0177285	-128,6
     146,403	   0,0179354	-132,3	   0,0175517	-126,0
     146,418	   0,0175047	-128,8	   0,0174257	-129,5
     146,434	   0,0175737	-127,4	    0,017656	-125,1
      146,45	   0,0167449	-127,5	   0,0181305	-127,2
     146,465	   0,0167863	-124,0	   0,0180063	-126,9
     146,481	   0,0168553	-125,3	   0,0179218	-128,0
     146,497	   0,0166181	-128,4	   0,0180791	-130,5
     146,512	   0,0167948	-127,6	   0,0183147	-126,8
     146,528	   0,0171648	-125,4	   0,0174389	-128,5
     146,544	   0,0175935	-124,9	   0,0168874	-128,5
     146,559	    0,017432	-125,1	   0,0175187	-129,5
     146,575	   0,0173709	-126,6	   0,0167867	-127,6
      146,59	   0,0173158	-130,1	   0,0169617	-128,2
     146,606	    0,017058	-127,9	   0,0172669	-129,4
     146,622	    0,017077	-126,6	   0,0171524	-127,6
     146,637	   0,0167673	-126,7	   0,0171728	-127,6
     146,653	   0,0169398	-124,2	   0,0168636	-128,2
     146,669	    0,016962	-129,2	   0,0173934	-125,5
     146,684	   0,0165177	-129,6	   0,0168385	-124,8
       146,7	   0,0163297	-128,7	   0,0168028	-126,6
     146,716	   0,0162385	-126,5	   0,0174349	-127,5
     146,731	   0,0159192	-127,0	   0,0171353	-125,7
     146,747	   0,0161617	-126,2	   0,0171179	-127,5
     146,762	   0,0159185	-127,4	   0,0169556	-125,6
     146,778	   0,0158876	-126,6	   0,0167449	-128,8
     146,794	   0,0156337	-129,2	   0,0170517	-126,8
     146,809	   0,0159298	-127,9	   0,0169766	-126,0
     146,825	   0,0162868	-126,2	   0,0170446	-126,9
     146,841	   0,0158294	-126,9	   0,0168929	-126,2
     146,856	   0,0162453	-126,2	   0,0171144	-129,7
     146,872	   0,0159501	-124,2	   0,0171235	-126,7
     146,888	   0,0156628	-125,2	   0,0163134	-127,7
     146,903	   0,0161768	-126,3	   0,0166302	-127,6
     146,919	     0,01616	-126,6	   0,0166886	-128,6
     146,935	   0,0160467	-127,1	   0,0162531	-129,3
      146,95	   0,0159282	-126,5	   0,0157818	-126,7
     146,966	   0,0162623	-123,8	   0,0159457	-128,7
     146,981	    0,016366	-128,1	   0,0157533	-124,3
     146,997	   0,0162013	-130,9	   0,0157744	-125,9
     147,013	    0,015862	-128,4	   0,0160541	-126,5
     147,028	   0,0157538	-127,1	   0,0160332	-128,1
     147,044	   0,0162617	-130,1	   0,0159692	-127,6
      147,06	   0,0159521	-128,6	   0,0162322	-127,3
     147,075	   0,0155815	-131,1	   0,0167321	-127,9
     147,091	     0,01497	-127,6	   0,0163297	-129,0
     147,107	   0,0153103	-128,0	   0,0161571	-126,5
     147,122	   0,0156582	-126,3	    0,016049	-126,9
     147,138	   0,0158124	-127,7	   0,0160524	-129,7
     147,153	   0,0154871	-126,6	   0,0156455	-129,7
     147,169	   0,0158535	-126,1	   0,0156335	-126,6
     147,185	   0,0157412	-128,3	    0,015622	-129,4
       147,2	   0,0156399	-127,8	   0,0158204	-128,9
     147,216	   0,0150532	-131,4	   0,0165748	-127,4
     147,232	   0,0150202	-129,6	   0,0161315	-124,1
     147,247	   0,0152117	-130,2	   0,0154667	-128,9
     147,263	   0,0155793	-127,9	   0,0151455	-128,6
     147,279	   0,0152021	-128,0	   0,0152182	-126,5
     147,294	   0,0153526	-128,0	   0,0156772	-129,8
      147,31	   0,0148703	-128,1	   0,0160308	-129,8
     147,326	   0,0147871	-128,9	   0,0160581	-128,3
     147,341	   0,0148566	-128,2	   0,0153928	-128,4
     147,357	   0,0149788	-127,2	   0,0152101	-128,1
     147,372	   0,0151473	-129,7	   0,0150867	-124,9
     147,388	   0,0148122	-128,6	   0,0154631	-125,7
     147,404	   0,0145402	-128,3	   0,0154952	-127,8
     147,419	   0,0149979	-128,8	   0,0151787	-126,3
     147,435	   0,0151254	-127,9	   0,0148729	-126,6
     147,451	   0,0150794	-131,0	   0,0147685	-127,7
     147,466	   0,0150074	-125,1	   0,0155565	-129,6
     147,482	   0,0144992	-123,4	   0,0152795	-126,7
     147,498	   0,0150416	-128,1	   0,0153316	-127,2
     147,513	    0,015438	-130,0	   0,0146159	-129,7
     147,529	   0,0150492	-126,2	   0,0148186	-125,0
     147,544	   0,0145115	-127,8	   0,0153743	-130,1
      147,56	   0,0148088	-130,0	   0,0149412	-126,6
     147,576	   0,0151667	-128,3	    0,014617	-128,0
     147,591	   0,0145899	-126,3	   0,0144888	-131,0
     147,607	   0,0145027	-130,0	   0,0152901	-128,6
     147,623	   0,0150595	-128,0	   0,0148641	-126,7
     147,638	   0,0146835	-126,8	   0,0142881	-125,2
     147,654	   0,0143912	-129,3	   0,0146533	-128,0
      147,67	    0,014165	-125,9	   0,0148904	-128,0
     147,685	   0,0148123	-126,3	   0,0146075	-129,0
     147,701	   0,0141404	-128,3	    0,014243	-126,7
     147,717	   0,0143137	-125,4	    0,014706	-127,0
     147,732	   0,0149502	-125,6	   0,0146229	-129,9
     147,748	   0,0144354	-126,3	    0,014309	-130,1
     147,763	   0,0139419	-130,4	   0,0141278	-131,7
     147,779	   0,0146306	-127,8	   0,0146492	-133,1
     147,795	   0,0144947	-128,2	   0,0141742	-126,4
      147,81	   0,0138523	-130,2	   0,0142265	-129,8
     147,826	   0,0145843	-131,1	   0,0148939	-129,1
     147,842	    0,014299	-126,4	   0,0140817	-126,2
     147,857	   0,0141043	-132,2	   0,0140689	-126,0
     147,873	   0,0145124	-125,1	   0,0149252	-127,7
     147,889	   0,0140235	-130,0	   0,0139122	-126,6
     147,904	   0,0141986	-126,8	   0,0143745	-126,1
      147,92	   0,0141075	-129,7	    0,014644	-125,7
     147,935	   0,0140071	-127,9	   0,0139962	-129,8
     147,951	   0,0139208	-125,7	   0,0144352	-127,0
     147,967	   0,0144207	-127,5	   0,0142183	-127,1
     147,982	   0,0136786	-129,2	   0,0137366	-128,9
     147,998	   0,0143454	-125,5	   0,0141246	-125,8
     148,014	   0,0135189	-128,7	   0,0136775	-130,0
     148,029	   0,0139457	-126,0	   0,0137013	-126,5
     148,045	   0,0140421	-128,7	    0,013952	-127,0
     148,061	   0,0136886	-126,0	   0,0136181	-125,7
     148,076	   0,0142732	-126,0	   0,0140198	-129,0
     148,092	   0,0138752	-127,1	   0,0135336	-124,7
     148,108	   0,0140004	-127,8	   0,0139992	-127,4
     148,123	     0,01383	-126,3	   0,0136743	-127,5
     148,139	   0,0137076	-128,0	   0,0135078	-126,7
     148,154	   0,0141535	-130,0	   0,0140936	-124,5
      148,17	   0,0137276	-126,0	   0,0135249	-125,7
     148,186	   0,0139018	-126,2	   0,0137693	-126,8
     148,201	    0,013227	-125,9	   0,0131896	-126,9
     148,217	   0,0139411	-125,9	   0,0136165	-124,3
     148,233	   0,0134783	-128,4	   0,0134834	-130,3
     148,248	   0,0138849	-129,4	   0,0133238	-127,7
     148,264	   0,0137262	-124,7	   0,0136934	-125,6
      148,28	   0,0140155	-126,8	   0,0136755	-130,6
     148,295	   0,0136298	-126,1	   0,0136955	-125,9
     148,311	   0,0138557	-129,9	   0,0130264	-129,3
     148,326	   0,0131224	-130,1	   0,0133286	-125,4
     148,342	   0,0136444	-128,3	   0,0133627	-127,6
     148,358	   0,0134235	-128,6	   0,0137248	-125,7
     148,373	   0,0135223	-128,4	   0,0132711	-128,8
     148,389	   0,0132306	-128,1	   0,0133338	-132,0
     148,405	   0,0136899	-123,3	   0,0127725	-127,0
      148,42	   0,0129642	-128,2	   0,0133002	-127,9
     148,436	   0,0134761	-126,5	   0,0132052	-124,7
     148,452	   0,0131015	-130,2	   0,0131583	-130,9
     148,467	    0,013255	-130,2	    0,012917	-126,7
     148,483	   0,0129347	-126,3	   0,0131528	-127,6
     148,499	   0,0134783	-126,9	   0,0129667	-128,3
     148,514	   0,0132219	-125,5	   0,0133061	-125,4
      148,53	   0,0130664	-124,6	   0,0133481	-125,0
     148,545	   0,0135362	-128,1	   0,0128854	-128,7
     148,561	   0,0132823	-126,6	   0,0132292	-125,9
     148,577	   0,0131841	-128,7	   0,0128515	-128,0
     148,592	   0,0126485	-129,7	   0,0131536	-129,5
     148,608	   0,0132822	-125,9	   0,0125004	-126,6
     148,624	   0,0131686	-124,1	   0,0133174	-123,2
     148,639	   0,0127756	-126,1	   0,0131303	-126,8
     148,655	    0,013125	-125,5	   0,0129193	-129,7
     148,671	   0,0128217	-128,0	   0,0130998	-126,1
     148,686	   0,0133059	-126,4	   0,0124158	-125,2
     148,702	   0,0127086	-127,5	    0,013027	-122,2
     148,717	   0,0126715	-127,4	   0,0127858	-124,5
     148,733	   0,0129943	-124,9	   0,0128173	-127,7
     148,749	   0,0123212	-129,8	   0,0128841	-128,2
     148,764	   0,0129026	-126,8	   0,0125412	-128,1
      148,78	   0,0129555	-126,5	   0,0129315	-127,3
     148,796	   0,0129333	-128,8	   0,0122845	-128,3
     148,811	   0,0130685	-127,6	   0,0126848	-125,8
     148,827	   0,0125648	-126,4	   0,0126833	-129,8
     148,843	   0,0126861	-127,1	    0,012698	-125,0
     148,858	   0,0129008	-126,2	   0,0126335	-127,4
     148,874	    0,012528	-127,5	   0,0127989	-124,4
      148,89	   0,0126519	-131,2	   0,0124941	-127,8
     148,905	   0,0130351	-129,6	   0,0128562	-125,5
     148,921	   0,0125059	-128,2	   0,0125582	-131,4
     148,936	   0,0127716	-129,6	   0,0123452	-125,6
     148,952	   0,0127944	-124,8	   0,0126952	-126,6
     148,968	   0,0122317	-127,6	   0,0122998	-127,7
     148,983	   0,0129493	-127,6	   0,0122385	-126,2
     148,999	    0,012589	-129,8	   0,0126556	-123,9
     149,015	   0,0124313	-124,6	    0,012357	-129,4
      149,03	   0,0121959	-127,4	   0,0121449	-125,2
     149,046	   0,0125022	-128,2	   0,0125922	-129,7
     149,062	   0,0123136	-129,4	   0,0127119	-128,8
     149,077	   0,0119117	-124,1	   0,0123572	-124,2
     149,093	   0,0124314	-128,8	   0,0119909	-127,6
     149,109	   0,0126607	-128,9	   0,0124457	-124,9
     149,124	   0,0118726	-125,2	   0,0123915	-128,9
      149,14	   0,0123118	-126,6	   0,0120719	-126,0
     149,155	   0,0120807	-130,3	   0,0120847	-129,6
     149,171	   0,0125355	-125,2	    0,012647	-124,5
     149,187	   0,0122328	-127,7	   0,0119806	-129,8
     149,202	   0,0122016	-127,0	   0,0120665	-127,8
     149,218	   0,0123036	-129,8	   0,0124991	-124,2
     149,234	   0,0124652	-129,3	   0,0120943	-122,5
     149,249	   0,0118096	-128,8	   0,0118881	-127,0
     149,265	   0,0117852	-127,6	   0,0121885	-127,5
     149,281	   0,0124197	-126,3	   0,0120227	-124,5
     149,296	   0,0123706	-126,0	   0,0120527	-127,7
     149,312	   0,0117962	-130,0	   0,0119513	-128,0
     149,327	   0,0120825	-128,6	   0,0117547	-125,4
     149,343	   0,0118747	-125,7	   0,0120672	-126,9
     149,359	   0,0124836	-127,4	   0,0121718	-126,7
     149,374	   0,0118312	-129,0	   0,0118479	-124,3
      149,39	    0,011916	-125,9	   0,0115742	-126,8
     149,406	   0,0117172	-129,0	   0,0119517	-123,8
     149,421	   0,0117244	-128,7	   0,0118737	-126,0
     149,437	   0,0120323	-124,3	   0,0119837	-128,4
     149,453	   0,0117927	-128,8	    0,011799	-127,6
     149,468	   0,0115612	-129,4	   0,0115903	-127,0
     149,484	   0,0118998	-126,7	   0,0116012	-124,9
       149,5	   0,0119118	-125,2	   0,0119185	-128,3
     149,515	   0,0117596	-128,0	   0,0121543	-126,4
     149,531	   0,0118604	-126,6	   0,0117673	-124,8
     149,546	   0,0119046	-126,3	   0,0117035	-124,9
     149,562	   0,0117162	-128,0	   0,0114868	-127,5
     149,578	   0,0115206	-130,5	   0,0116234	-128,5
     149,593	   0,0115682	-128,8	   0,0115018	-132,2
     149,609	   0,0118604	-126,1	   0,0119763	-124,5
     149,625	   0,0117301	-123,3	   0,0114015	-125,8
      149,64	   0,0117016	-124,8	    0,011594	-130,1
     149,656	   0,0118295	-128,6	   0,0121596	-129,4
     149,672	    0,011554	-128,3	   0,0114396	-127,6
     149,687	   0,0114002	-124,9	   0,0118239	-125,6
     149,703	    0,011689	-124,8	   0,0111931	-129,2
     149,718	   0,0116551	-127,1	   0,0117253	-126,3
     149,734	   0,0113867	-126,7	   0,0110837	-124,4
      149,75	   0,0117157	-127,3	   0,0112617	-127,7
     149,765	   0,0118772	-126,3	   0,0114855	-125,4
     149,781	   0,0112228	-128,9	   0,0113806	-129,2
     149,797	   0,0116996	-126,3	   0,0114275	-129,8
     149,812	    0,011427	-125,5	   0,0113598	-128,5
     149,828	    0,011445	-127,4	   0,0115401	-125,7
     149,844	   0,0114706	-130,4	   0,0116982	-124,9
     149,859	   0,0113122	-128,7	   0,0115842	-128,8
     149,875	   0,0114486	-126,5	   0,0114336	-127,9
     149,891	   0,0113955	-127,9	   0,0115123	-127,0
     149,906	   0,0110595	-126,0	   0,0109896	-128,4
     149,922	    0,011391	-127,4	   0,0113276	-125,0
     149,937	   0,0112245	-128,3	   0,0113382	-128,5
     149,953	   0,0115374	-126,6	    0,011202	-126,6
     149,969	   0,0112413	-124,1	   0,0111828	-129,7
     149,984	   0,0111131	-126,5	   0,0111608	-128,2
         150	   0,0112615	-122,7	   0,0111777	-125,4

