X-Data [Hz]	Laser (M - Filtered) [m/s]	Phase [Deg]	Laser (M - Filtered) [m/s]	Phase [Deg]	
	002: [06-29-24 14:12]		003: [06-29-24 14:18]	
         134	   0,0250857	62,7	   0,0240257	61,8
     134,016	   0,0254551	61,4	   0,0237642	62,6
     134,031	   0,0255255	62,8	   0,0248574	61,3
     134,047	   0,0257379	62,7	   0,0241722	62,9
     134,063	   0,0258417	61,2	   0,0246285	62,5
     134,078	   0,0258169	61,4	   0,0246886	61,6
     134,094	   0,0260385	62,6	   0,0239463	61,9
     134,109	   0,0260426	60,0	   0,0245102	59,5
     134,125	   0,0259323	61,3	   0,0246072	58,9
     134,141	   0,0258592	59,4	   0,0246736	60,3
     134,156	   0,0261465	64,3	   0,0246783	58,9
     134,172	   0,0265379	59,7	   0,0251088	59,2
     134,188	   0,0263985	60,6	   0,0251941	59,1
     134,203	   0,0266158	61,4	   0,0248579	63,1
     134,219	   0,0265369	60,2	   0,0254147	62,4
     134,235	   0,0266021	60,6	    0,025259	61,8
      134,25	   0,0264473	61,3	   0,0251297	63,7
     134,266	   0,0261694	60,1	   0,0256151	64,6
     134,282	   0,0264842	60,2	    0,025648	62,9
     134,297	   0,0265287	62,3	   0,0253737	62,7
     134,313	   0,0264925	62,0	   0,0259705	60,1
     134,328	    0,027567	61,4	   0,0255243	61,9
     134,344	   0,0274312	61,8	   0,0258192	62,5
      134,36	    0,027405	60,3	   0,0262986	63,0
     134,375	   0,0271745	58,8	   0,0256701	63,6
     134,391	   0,0275216	61,0	   0,0257707	63,0
     134,407	   0,0275356	61,0	    0,025669	60,4
     134,422	   0,0281276	61,3	    0,026193	61,1
     134,438	   0,0277924	63,5	   0,0263407	59,5
     134,454	   0,0279119	63,8	   0,0266583	58,3
     134,469	   0,0274917	62,3	   0,0262034	59,4
     134,485	   0,0278918	59,9	   0,0259593	61,4
       134,5	   0,0282464	59,9	   0,0263886	61,7
     134,516	   0,0283654	59,7	   0,0266437	62,3
     134,532	   0,0282465	62,0	   0,0271706	59,5
     134,547	   0,0288925	62,4	   0,0272087	61,6
     134,563	   0,0286359	62,8	   0,0271634	59,9
     134,579	    0,028599	63,8	   0,0265318	59,8
     134,594	   0,0284531	60,3	   0,0269819	59,9
      134,61	   0,0287031	60,0	   0,0267183	63,2
     134,626	   0,0287709	59,1	   0,0272844	58,9
     134,641	   0,0290535	62,6	   0,0276235	59,5
     134,657	   0,0295013	62,1	   0,0269159	60,7
     134,673	   0,0295137	63,8	   0,0277421	60,8
     134,688	   0,0291588	60,3	   0,0276982	63,5
     134,704	    0,029297	61,5	   0,0279264	59,6
     134,719	   0,0298084	61,6	   0,0279864	60,3
     134,735	   0,0291776	64,9	   0,0275548	61,9
     134,751	   0,0294738	60,4	   0,0285529	61,9
     134,766	   0,0300257	59,4	   0,0280602	59,0
     134,782	   0,0297859	61,6	   0,0278168	61,7
     134,798	   0,0297257	61,9	   0,0289145	61,8
     134,813	   0,0295971	61,0	   0,0280855	61,6
     134,829	   0,0303299	62,3	   0,0285381	60,4
     134,845	   0,0297525	63,3	   0,0282649	60,8
      134,86	   0,0295778	62,9	   0,0281411	61,8
     134,876	   0,0308171	61,7	   0,0289304	60,6
     134,891	    0,030802	60,9	   0,0288193	61,5
     134,907	   0,0302184	61,7	   0,0287145	62,3
     134,923	   0,0308685	62,3	    0,029035	63,4
     134,938	   0,0309407	61,9	   0,0289087	61,0
     134,954	   0,0305686	63,2	   0,0293415	60,7
      134,97	   0,0314749	64,9	   0,0286013	61,4
     134,985	   0,0316866	61,4	   0,0295298	63,0
     135,001	   0,0310033	63,3	   0,0295966	61,5
     135,017	   0,0315694	61,9	   0,0290824	60,7
     135,032	   0,0313094	61,6	   0,0296433	61,8
     135,048	    0,031283	62,4	   0,0299085	60,7
     135,064	   0,0317655	61,0	   0,0296912	62,3
     135,079	   0,0316644	61,9	   0,0307755	62,9
     135,095	   0,0322694	61,9	   0,0300573	61,8
      135,11	   0,0319052	62,8	   0,0298052	62,6
     135,126	   0,0318935	59,8	   0,0301339	62,2
     135,142	   0,0321253	62,2	   0,0304695	60,5
     135,157	   0,0327176	62,3	   0,0298266	59,6
     135,173	   0,0324908	60,2	   0,0310793	61,9
     135,189	   0,0325488	61,8	   0,0305177	61,7
     135,204	   0,0325892	61,1	   0,0308154	60,7
      135,22	   0,0329221	61,4	   0,0312216	62,4
     135,236	   0,0331784	60,6	    0,031266	63,1
     135,251	   0,0330189	60,4	   0,0309084	60,4
     135,267	   0,0334098	62,8	   0,0304716	61,7
     135,283	   0,0328167	61,3	    0,031441	63,2
     135,298	   0,0336013	61,8	   0,0311518	60,8
     135,314	   0,0335777	64,1	   0,0315621	59,2
     135,329	   0,0334394	62,4	   0,0316518	63,2
     135,345	   0,0339731	63,3	   0,0319721	60,1
     135,361	   0,0337917	62,2	   0,0323396	62,9
     135,376	   0,0347331	61,7	   0,0321151	60,2
     135,392	   0,0341767	63,4	    0,032808	63,2
     135,408	   0,0342261	63,1	   0,0321121	60,6
     135,423	   0,0347854	65,0	   0,0325655	61,9
     135,439	   0,0343783	62,0	   0,0326326	62,1
     135,455	   0,0347092	62,4	   0,0326772	61,2
      135,47	   0,0349851	61,7	   0,0328082	63,9
     135,486	   0,0347117	61,4	   0,0329442	60,6
     135,501	   0,0354165	63,1	   0,0329001	64,0
     135,517	   0,0351917	62,9	   0,0339792	59,7
     135,533	   0,0350339	64,6	   0,0332122	62,1
     135,548	    0,035239	63,4	   0,0336676	60,4
     135,564	   0,0358818	62,5	   0,0331776	63,7
      135,58	   0,0359088	64,1	   0,0337667	61,1
     135,595	   0,0356726	63,4	   0,0341318	64,2
     135,611	   0,0359035	61,9	   0,0337421	59,4
     135,627	   0,0359149	61,7	   0,0342853	64,3
     135,642	   0,0361042	62,4	   0,0348358	60,3
     135,658	   0,0362012	65,4	   0,0342489	63,5
     135,674	   0,0366772	62,7	   0,0349264	62,9
     135,689	   0,0361553	64,0	    0,034363	62,6
     135,705	   0,0369705	65,0	   0,0349829	60,9
      135,72	   0,0366639	62,1	   0,0351148	64,4
     135,736	   0,0372868	64,2	   0,0348412	61,5
     135,752	   0,0372197	62,8	   0,0350661	61,5
     135,767	   0,0372628	64,4	   0,0354647	63,7
     135,783	   0,0377494	61,4	   0,0352008	60,7
     135,799	   0,0380023	64,3	   0,0351093	64,3
     135,814	   0,0377067	61,6	   0,0353411	62,2
      135,83	   0,0383265	63,5	   0,0360212	62,4
     135,846	   0,0386008	63,0	   0,0362052	63,1
     135,861	   0,0381381	63,1	   0,0361535	61,5
     135,877	   0,0388118	64,0	   0,0357146	63,9
     135,892	   0,0382572	61,9	   0,0360615	63,2
     135,908	   0,0390685	64,2	    0,036606	63,9
     135,924	   0,0391673	63,7	     0,03669	63,9
     135,939	   0,0397111	62,9	   0,0365239	62,8
     135,955	   0,0396791	64,8	   0,0370675	63,5
     135,971	   0,0398674	63,1	   0,0368675	63,7
     135,986	   0,0397475	63,6	   0,0369175	62,7
     136,002	   0,0401849	61,8	   0,0374359	64,5
     136,018	   0,0411003	64,9	   0,0379857	63,5
     136,033	   0,0405174	64,4	   0,0373977	62,9
     136,049	   0,0406486	63,3	   0,0376015	64,3
     136,065	   0,0415292	62,7	   0,0385517	63,3
      136,08	   0,0413565	64,7	    0,038509	65,2
     136,096	   0,0411519	62,8	   0,0384208	63,0
     136,111	   0,0422164	64,4	   0,0390649	61,5
     136,127	   0,0420186	63,7	    0,038803	61,0
     136,143	   0,0422779	63,3	   0,0384794	63,7
     136,158	   0,0415936	64,8	   0,0386818	63,8
     136,174	   0,0422561	64,2	   0,0390847	63,8
      136,19	   0,0428749	62,6	   0,0398854	64,4
     136,205	   0,0427421	64,2	   0,0388899	63,4
     136,221	   0,0433142	65,0	   0,0405608	64,0
     136,237	   0,0429756	63,3	   0,0395234	64,6
     136,252	   0,0431601	63,7	   0,0394245	64,7
     136,268	   0,0435254	65,3	   0,0407861	63,6
     136,283	   0,0436145	64,5	   0,0407191	63,9
     136,299	   0,0435107	63,7	   0,0403155	64,0
     136,315	   0,0438435	64,9	   0,0407906	62,5
      136,33	   0,0443318	66,5	   0,0409867	63,5
     136,346	   0,0438048	63,2	   0,0408254	65,5
     136,362	    0,044228	63,4	   0,0416132	65,3
     136,377	   0,0453266	65,7	   0,0413719	61,5
     136,393	   0,0459522	65,2	   0,0413668	64,6
     136,409	   0,0459153	61,8	   0,0420578	65,1
     136,424	   0,0460307	64,8	   0,0421414	63,3
      136,44	    0,045728	67,1	   0,0421541	63,4
     136,456	   0,0457976	63,4	   0,0419982	66,2
     136,471	   0,0464979	62,9	   0,0420624	65,4
     136,487	   0,0469715	66,2	   0,0426845	65,2
     136,502	   0,0461536	64,8	   0,0428327	63,7
     136,518	   0,0463398	65,4	   0,0434318	64,2
     136,534	   0,0463927	64,4	   0,0429347	63,7
     136,549	   0,0469701	65,4	   0,0435208	66,8
     136,565	   0,0469783	66,4	   0,0435924	66,9
     136,581	    0,047408	66,2	   0,0439067	63,4
     136,596	   0,0485194	65,2	   0,0443381	63,7
     136,612	   0,0483163	64,2	   0,0449066	64,6
     136,628	   0,0480692	65,4	   0,0449747	65,4
     136,643	   0,0482714	65,4	   0,0450397	66,3
     136,659	   0,0482617	66,7	   0,0446018	64,2
     136,674	   0,0487702	64,1	   0,0443994	65,0
      136,69	   0,0491282	65,1	   0,0452131	64,0
     136,706	   0,0504152	64,0	   0,0460347	64,5
     136,721	   0,0502403	66,8	   0,0465932	62,5
     136,737	   0,0492383	65,2	   0,0458717	66,5
     136,753	   0,0500606	65,4	   0,0460206	66,7
     136,768	   0,0505936	65,7	   0,0465582	64,5
     136,784	   0,0505701	65,9	   0,0466764	63,7
       136,8	   0,0513556	68,2	    0,046708	66,0
     136,815	    0,051588	64,2	   0,0467601	64,3
     136,831	   0,0524713	63,1	   0,0470836	66,1
     136,847	   0,0519684	65,4	   0,0481054	66,1
     136,862	   0,0530354	67,4	   0,0485256	64,5
     136,878	   0,0530001	67,0	   0,0486065	65,8
     136,893	   0,0523838	67,5	   0,0486471	64,8
     136,909	    0,052711	65,3	   0,0487356	66,2
     136,925	   0,0531931	67,6	    0,049047	64,7
      136,94	   0,0530426	67,6	   0,0492324	64,8
     136,956	   0,0535197	65,2	    0,049745	65,2
     136,972	   0,0536269	68,1	   0,0496527	63,9
     136,987	   0,0543254	65,4	   0,0498156	65,3
     137,003	   0,0543963	64,8	   0,0501128	65,1
     137,019	   0,0553542	66,1	   0,0502618	67,3
     137,034	   0,0558708	66,5	   0,0500519	66,5
      137,05	   0,0563332	66,3	    0,050283	66,1
     137,065	   0,0558034	67,2	   0,0509662	67,0
     137,081	   0,0556693	66,7	   0,0513955	67,6
     137,097	   0,0562171	67,2	   0,0511331	68,8
     137,112	   0,0569135	68,8	   0,0519419	67,9
     137,128	   0,0568182	68,1	   0,0523486	68,5
     137,144	   0,0572751	66,0	   0,0527679	66,7
     137,159	   0,0576015	67,1	   0,0534001	66,4
     137,175	   0,0576244	67,1	   0,0537285	65,8
     137,191	   0,0576647	68,1	   0,0537165	67,0
     137,206	    0,058423	68,2	   0,0533646	66,9
     137,222	   0,0595129	67,0	   0,0535515	67,3
     137,238	   0,0598184	67,9	   0,0535212	67,1
     137,253	    0,060682	68,2	   0,0542021	67,2
     137,269	   0,0607616	70,5	   0,0552973	69,3
     137,284	   0,0606724	68,7	   0,0552206	69,1
       137,3	   0,0615015	67,8	    0,055859	66,5
     137,316	   0,0616781	68,0	   0,0562213	68,2
     137,331	   0,0613477	66,6	   0,0567943	66,7
     137,347	   0,0619547	66,9	   0,0566095	68,8
     137,363	   0,0627192	67,7	   0,0566922	66,8
     137,378	   0,0630125	65,4	   0,0574462	67,4
     137,394	   0,0629294	67,4	   0,0586666	66,5
      137,41	   0,0629598	67,5	   0,0586589	66,5
     137,425	   0,0631878	68,4	   0,0586122	66,5
     137,441	   0,0640539	66,6	   0,0587709	67,4
     137,456	   0,0646437	67,5	   0,0594653	66,2
     137,472	   0,0643993	70,5	   0,0602325	66,2
     137,488	    0,065447	69,3	   0,0606339	67,6
     137,503	   0,0652545	70,3	   0,0608367	68,9
     137,519	   0,0666933	68,3	   0,0605591	67,7
     137,535	    0,066901	68,1	   0,0610405	68,9
      137,55	    0,067088	69,5	   0,0616371	67,1
     137,566	   0,0682966	67,7	   0,0625071	67,0
     137,582	       0,069	68,4	   0,0635348	67,2
     137,597	   0,0676505	70,3	   0,0632845	68,2
     137,613	   0,0681369	69,9	   0,0628629	69,9
     137,629	   0,0689365	70,6	   0,0638386	70,7
     137,644	   0,0705369	70,4	   0,0654002	69,4
      137,66	   0,0709272	68,6	   0,0649913	68,5
     137,675	   0,0713817	69,7	    0,065171	68,9
     137,691	   0,0713824	69,0	   0,0661759	67,2
     137,707	   0,0704108	69,5	   0,0671412	68,4
     137,722	   0,0726785	70,6	   0,0674137	68,4
     137,738	   0,0733067	71,5	   0,0676804	69,8
     137,754	   0,0734933	70,0	   0,0678817	70,8
     137,769	   0,0729516	69,8	   0,0692054	67,7
     137,785	   0,0746243	67,2	   0,0687797	69,0
     137,801	   0,0748063	68,8	   0,0688847	68,5
     137,816	   0,0746532	71,1	   0,0707122	68,6
     137,832	   0,0751884	70,8	   0,0701606	70,6
     137,848	   0,0767625	69,8	    0,070101	68,9
     137,863	   0,0780688	70,5	    0,071977	70,3
     137,879	   0,0780502	71,6	   0,0724524	70,9
     137,894	   0,0774862	72,0	    0,071877	71,8
      137,91	   0,0779963	70,8	   0,0733939	69,7
     137,926	   0,0789684	71,6	   0,0747723	69,8
     137,941	   0,0810627	70,7	   0,0737603	71,6
     137,957	   0,0812327	71,5	   0,0743027	70,9
     137,973	   0,0804444	72,7	   0,0757779	69,9
     137,988	   0,0821807	70,5	   0,0746798	70,9
     138,004	   0,0828706	72,2	   0,0757774	71,6
      138,02	   0,0826475	72,2	   0,0777387	72,4
     138,035	   0,0840673	73,5	   0,0775332	72,6
     138,051	   0,0850447	72,0	   0,0778334	71,0
     138,066	   0,0843151	73,6	   0,0780778	71,9
     138,082	   0,0858623	74,0	   0,0782939	71,3
     138,098	    0,087164	73,5	    0,080854	72,4
     138,113	    0,086824	72,0	   0,0813397	72,4
     138,129	   0,0872578	74,0	   0,0802919	74,3
     138,145	   0,0895819	72,1	    0,081813	71,1
      138,16	   0,0894172	73,1	   0,0819222	71,7
     138,176	   0,0910952	72,8	   0,0828025	72,6
     138,192	   0,0902898	74,7	   0,0852401	70,4
     138,207	   0,0912332	73,2	   0,0845834	72,6
     138,223	   0,0925771	74,4	   0,0838817	71,4
     138,239	   0,0930824	76,5	   0,0855258	72,3
     138,254	   0,0948691	73,9	   0,0865961	72,0
      138,27	    0,095452	73,1	    0,088141	73,7
     138,285	   0,0958476	74,7	   0,0870473	74,7
     138,301	   0,0971932	75,1	    0,088859	72,9
     138,317	   0,0981886	75,9	    0,089179	74,3
     138,332	   0,0984993	77,8	   0,0898499	73,0
     138,348	    0,100328	75,6	   0,0918428	72,7
     138,364	     0,10044	75,3	   0,0915376	75,3
     138,379	    0,100502	76,7	   0,0923253	73,9
     138,395	    0,103049	76,4	   0,0939402	74,9
     138,411	    0,102374	77,4	   0,0931993	75,6
     138,426	    0,103676	76,5	   0,0951364	72,0
     138,442	     0,10665	77,9	   0,0961331	75,4
     138,457	    0,105028	77,9	   0,0964537	76,0
     138,473	    0,106976	76,2	   0,0976783	73,6
     138,489	    0,107771	79,0	   0,0977257	76,0
     138,504	    0,108926	77,5	   0,0990444	73,9
      138,52	    0,108899	79,5	    0,100682	76,5
     138,536	    0,111514	77,4	    0,101006	75,0
     138,551	    0,111819	78,1	    0,102186	76,4
     138,567	     0,11276	81,4	    0,102851	75,7
     138,583	    0,112779	79,5	    0,104551	75,4
     138,598	    0,115201	81,6	    0,104665	76,9
     138,614	    0,115386	77,7	    0,104872	75,6
      138,63	    0,115877	80,1	    0,107457	77,7
     138,645	     0,11778	79,2	    0,106932	78,0
     138,661	    0,118658	80,4	    0,109038	78,0
     138,676	    0,120602	79,7	    0,109852	78,8
     138,692	    0,119779	79,8	    0,109641	79,6
     138,708	    0,121809	82,0	    0,110957	76,0
     138,723	    0,122552	81,1	    0,113307	78,7
     138,739	    0,124581	80,0	    0,112594	80,2
     138,755	    0,124514	81,6	    0,115245	79,6
      138,77	    0,127158	80,0	    0,114648	79,6
     138,786	    0,127707	80,7	    0,116571	78,6
     138,802	    0,126702	83,9	    0,118719	78,4
     138,817	    0,129997	80,0	    0,117594	80,5
     138,833	    0,128967	83,4	    0,121654	78,9
     138,848	    0,130691	82,8	     0,11985	81,1
     138,864	    0,133421	82,0	    0,122941	81,2
      138,88	    0,132753	83,3	    0,122179	81,9
     138,895	     0,13443	83,8	    0,124205	81,2
     138,911	    0,135407	83,8	    0,125988	81,5
     138,927	    0,135105	84,2	    0,126207	83,9
     138,942	    0,138417	87,1	    0,127232	80,4
     138,958	    0,139568	82,4	     0,12935	82,3
     138,974	    0,139347	86,1	    0,130628	80,8
     138,989	     0,14048	85,0	    0,129904	84,5
     139,005	    0,140897	87,3	     0,13285	80,9
     139,021	    0,143795	84,1	    0,131715	85,1
     139,036	     0,14466	85,0	    0,133546	83,8
     139,052	    0,144481	87,0	    0,134405	82,4
     139,067	    0,147561	83,9	    0,135478	83,4
     139,083	    0,148398	86,7	    0,138663	83,1
     139,099	    0,148641	86,4	    0,140492	83,6
     139,114	    0,148991	87,2	    0,141491	85,1
      139,13	    0,150621	88,2	    0,140792	83,7
     139,146	     0,15304	87,2	    0,140832	85,2
     139,161	    0,153865	87,4	    0,141957	86,4
     139,177	    0,153695	88,3	    0,143612	86,5
     139,193	    0,155172	87,6	    0,144719	86,0
     139,208	    0,157666	88,0	    0,146986	84,5
     139,224	    0,156897	89,7	    0,148985	85,5
     139,239	    0,157633	89,7	    0,148945	88,6
     139,255	    0,160502	88,1	    0,151227	89,4
     139,271	    0,160295	88,7	    0,151085	88,8
     139,286	    0,160628	90,5	    0,152243	88,8
     139,302	    0,163119	91,5	    0,154752	85,9
     139,318	    0,165766	88,1	    0,156043	87,1
     139,333	    0,164846	89,8	    0,154802	91,0
     139,349	    0,167824	91,4	    0,157038	89,3
     139,365	    0,168276	88,0	    0,157612	89,3
      139,38	    0,167705	91,6	    0,160721	88,7
     139,396	     0,16896	93,1	    0,161427	87,9
     139,412	    0,171483	91,6	    0,162862	89,9
     139,427	    0,172536	91,2	    0,162188	91,9
     139,443	    0,173171	92,6	    0,165098	89,9
     139,458	    0,173021	95,4	    0,165612	90,2
     139,474	    0,175704	93,5	    0,166421	91,9
      139,49	    0,177379	93,7	     0,16658	92,5
     139,505	    0,177915	95,7	    0,168067	91,3
     139,521	     0,18036	92,7	    0,169699	91,3
     139,537	    0,180891	93,5	    0,171731	92,0
     139,552	    0,179974	94,6	    0,171558	95,4
     139,568	    0,181731	97,5	    0,172492	94,3
     139,584	     0,18304	96,5	    0,173682	93,8
     139,599	    0,185179	94,3	    0,174681	92,3
     139,615	    0,185594	94,0	    0,177296	94,2
      139,63	    0,184884	97,3	    0,176683	94,9
     139,646	    0,185713	97,3	    0,178136	93,6
     139,662	    0,188299	96,6	    0,180654	92,4
     139,677	    0,189011	96,2	    0,181538	93,3
     139,693	    0,189179	98,3	    0,182741	95,5
     139,709	    0,191057	98,5	    0,182729	95,8
     139,724	    0,193459	96,8	     0,18333	94,9
      139,74	    0,192438	98,0	    0,186039	95,5
     139,756	    0,193295	98,4	    0,186754	96,0
     139,771	    0,195561	99,3	    0,186296	99,5
     139,787	    0,197187	99,6	    0,187187	96,7
     139,803	      0,1978	100,5	    0,188989	97,1
     139,818	    0,197418	99,0	     0,19052	96,1
     139,834	    0,198462	99,9	    0,192032	98,7
     139,849	    0,199441	101,6	    0,192564	99,5
     139,865	    0,201033	100,4	    0,193898	96,5
     139,881	     0,20273	102,3	    0,195523	98,7
     139,896	    0,202878	102,8	    0,196894	97,7
     139,912	      0,2037	103,3	    0,197596	99,3
     139,928	    0,204708	102,0	    0,197343	101,2
     139,943	     0,20599	101,3	    0,197811	103,3
     139,959	    0,206147	103,6	    0,198902	102,3
     139,975	    0,208805	101,5	    0,201076	99,3
      139,99	    0,209345	101,6	    0,202499	98,3
     140,006	    0,211273	102,8	    0,203609	98,9
     140,021	    0,212061	104,2	    0,205116	99,2
     140,037	    0,212712	103,0	    0,205673	100,2
     140,053	    0,213673	103,3	    0,205765	101,8
     140,068	    0,214686	103,2	     0,20726	104,1
     140,084	     0,21593	104,4	    0,207123	104,3
       140,1	    0,216572	102,8	    0,207329	105,8
     140,115	    0,217337	103,1	    0,208779	102,1
     140,131	    0,217954	103,3	    0,210919	103,1
     140,147	    0,219164	107,9	     0,21219	102,0
     140,162	    0,220404	104,0	    0,212214	103,0
     140,178	    0,220788	105,6	    0,213345	103,6
     140,194	    0,222225	106,7	    0,215973	104,1
     140,209	    0,222777	107,1	    0,215557	103,5
     140,225	     0,22345	107,8	     0,21631	105,7
      140,24	    0,224645	106,6	    0,217971	105,4
     140,256	    0,225684	106,6	    0,219181	105,9
     140,272	    0,225926	107,7	    0,219597	107,7
     140,287	    0,226948	107,7	    0,219913	107,8
     140,303	    0,226796	108,6	    0,220451	110,0
     140,319	    0,229015	109,1	     0,22067	107,8
     140,334	    0,229529	110,6	    0,222548	107,3
      140,35	    0,229126	108,0	    0,224069	106,1
     140,366	    0,230394	109,4	    0,224066	108,3
     140,381	    0,231548	109,5	    0,226316	107,5
     140,397	    0,232036	110,6	    0,225759	108,8
     140,413	    0,232903	111,4	    0,227245	110,2
     140,428	    0,233584	112,4	    0,228662	109,9
     140,444	     0,23486	112,5	    0,229435	111,6
     140,459	    0,235834	112,4	    0,230124	111,8
     140,475	    0,236619	112,9	    0,229627	110,2
     140,491	    0,237252	112,7	    0,230738	110,9
     140,506	    0,238387	114,7	     0,23202	111,1
     140,522	    0,239745	114,0	     0,23343	110,1
     140,538	    0,241819	115,8	    0,233263	112,6
     140,553	    0,242863	113,3	    0,233546	111,3
     140,569	    0,243041	114,0	    0,235007	112,5
     140,585	    0,244503	116,4	    0,237177	110,9
       140,6	    0,244113	116,6	     0,23738	113,2
     140,616	    0,244106	116,3	    0,237622	111,8
     140,631	    0,245257	117,9	    0,238088	112,3
     140,647	    0,245727	119,5	    0,238188	113,1
     140,663	    0,246425	118,3	    0,239998	113,2
     140,678	    0,247223	115,5	    0,239706	114,4
     140,694	    0,249091	116,6	    0,240899	115,3
      140,71	    0,250547	117,2	    0,241903	117,0
     140,725	    0,250935	117,1	    0,242405	118,5
     140,741	    0,251125	119,1	    0,244043	116,1
     140,757	    0,251789	119,4	    0,245007	112,2
     140,772	    0,252674	120,8	    0,246317	112,8
     140,788	     0,25413	120,1	    0,245806	114,5
     140,804	    0,254893	119,1	    0,246427	115,7
     140,819	    0,254925	119,4	    0,246539	117,1
     140,835	    0,255579	119,6	    0,247194	116,8
      140,85	    0,255913	118,9	    0,248358	117,1
     140,866	    0,256964	120,9	    0,248044	119,0
     140,882	    0,258229	124,3	    0,247142	122,0
     140,897	    0,258422	124,5	    0,243915	130,6
     140,913	     0,25926	123,8	    0,233767	148,9
     140,929	    0,259442	123,0	    0,219271	169,1
     140,944	    0,260118	125,1	    0,204712	182,2
      140,96	    0,260402	123,3	    0,190814	190,4
     140,976	    0,261085	124,6	    0,179489	193,0
     140,991	     0,26331	124,5	    0,174186	198,1
     141,007	     0,26404	123,3	     0,16787	-157,0
     141,022	    0,264305	123,8	    0,161455	-157,4
     141,038	    0,265209	126,0	     0,15769	-158,1
     141,054	    0,266319	126,2	    0,153501	-154,0
     141,069	    0,265687	126,4	    0,147658	-151,7
     141,085	    0,267078	126,0	    0,142022	-151,8
     141,101	    0,267988	127,2	    0,138345	-152,4
     141,116	    0,267598	129,9	    0,136784	-149,3
     141,132	     0,26758	129,0	    0,136012	-150,4
     141,148	    0,268364	129,6	    0,135708	-148,1
     141,163	    0,269854	127,0	    0,133781	-147,5
     141,179	    0,271464	128,9	    0,129978	-150,2
     141,195	    0,271866	130,7	    0,129672	-149,0
      141,21	    0,272623	127,6	     0,12887	-146,6
     141,226	    0,272629	130,7	    0,124846	-144,6
     141,241	    0,272592	132,3	    0,121293	-147,7
     141,257	    0,273771	133,7	    0,120814	-146,8
     141,273	     0,27461	131,7	    0,119656	-146,2
     141,288	    0,274478	133,6	    0,116048	-145,8
     141,304	    0,275934	133,6	    0,115332	-146,0
      141,32	    0,276546	133,7	    0,113904	-142,7
     141,335	    0,275618	133,2	    0,111835	-145,1
     141,351	    0,277175	136,1	    0,110834	-145,6
     141,367	    0,277349	134,0	    0,109895	-143,7
     141,382	     0,27746	136,5	    0,111214	-143,3
     141,398	    0,279001	136,9	    0,108855	-145,3
     141,413	    0,279176	138,1	     0,10578	-143,9
     141,429	    0,280341	137,7	    0,104642	-142,7
     141,445	    0,280135	137,6	     0,10503	-143,7
      141,46	    0,280973	139,2	    0,102816	-142,5
     141,476	    0,281105	139,3	    0,102032	-141,7
     141,492	     0,28112	141,4	     0,10044	-142,6
     141,507	     0,28162	141,5	   0,0999543	-141,4
     141,523	    0,281934	141,5	   0,0994735	-141,8
     141,539	    0,281942	144,6	   0,0968944	-141,7
     141,554	    0,282828	143,3	   0,0995471	-140,6
      141,57	    0,282366	145,1	   0,0968405	-141,4
     141,586	    0,281465	147,5	   0,0942853	-141,2
     141,601	    0,282623	149,7	   0,0949316	-139,9
     141,617	    0,283061	150,1	   0,0917882	-142,7
     141,632	    0,282198	150,4	   0,0917451	-140,4
     141,648	    0,284219	152,4	   0,0933085	-139,3
     141,664	    0,283739	153,5	   0,0916401	-138,8
     141,679	    0,283675	154,0	   0,0906404	-139,4
     141,695	    0,283379	156,4	   0,0897983	-139,4
     141,711	    0,283375	158,8	    0,089701	-139,3
     141,726	    0,281577	161,9	   0,0885153	-138,2
     141,742	    0,279834	165,6	   0,0877894	-138,9
     141,758	    0,274301	173,3	   0,0867386	-137,2
     141,773	     0,26709	184,9	   0,0866384	-139,0
     141,789	    0,241391	199,8	   0,0849444	-137,1
     141,804	    0,170886	-132,6	   0,0856173	-139,4
      141,82	   0,0463297	-114,9	   0,0844538	-136,2
     141,836	   0,0820844	-139,4	   0,0840854	-137,6
     141,851	   0,0706414	-133,6	   0,0827089	-138,8
     141,867	   0,0734097	-137,9	   0,0815561	-138,2
     141,883	   0,0718011	-133,6	   0,0820398	-137,1
     141,898	   0,0719335	-135,9	   0,0814472	-137,7
     141,914	    0,071849	-134,6	   0,0793343	-138,5
      141,93	   0,0698867	-137,9	   0,0791485	-137,9
     141,945	   0,0714744	-135,3	   0,0792384	-136,6
     141,961	   0,0692526	-135,0	   0,0784477	-137,9
     141,977	   0,0703092	-135,5	   0,0778033	-137,3
     141,992	   0,0687625	-133,5	   0,0768073	-137,6
     142,008	   0,0688323	-134,8	   0,0771706	-136,7
     142,023	   0,0695729	-136,8	   0,0745993	-137,6
     142,039	   0,0668676	-135,3	   0,0760726	-135,4
     142,055	   0,0681822	-135,0	   0,0740844	-136,2
      142,07	   0,0676895	-135,8	    0,075763	-134,8
     142,086	   0,0674461	-134,9	    0,074376	-137,3
     142,102	   0,0659475	-133,3	   0,0728231	-135,6
     142,117	   0,0665836	-136,5	   0,0732417	-137,1
     142,133	   0,0657391	-134,7	   0,0730167	-136,9
     142,149	   0,0660037	-135,1	   0,0708812	-137,3
     142,164	   0,0646785	-133,3	   0,0725024	-135,9
      142,18	   0,0645544	-134,3	   0,0710315	-135,4
     142,196	   0,0647416	-133,9	   0,0712504	-136,2
     142,211	   0,0645216	-135,3	    0,070483	-136,7
     142,227	   0,0633842	-134,1	   0,0697475	-134,7
     142,242	   0,0628696	-135,7	   0,0704939	-134,5
     142,258	   0,0641133	-134,1	   0,0688389	-134,5
     142,274	   0,0615012	-133,8	   0,0679119	-134,9
     142,289	    0,063296	-134,4	   0,0694286	-134,4
     142,305	   0,0619262	-131,7	   0,0675734	-135,1
     142,321	   0,0610633	-135,4	    0,066345	-133,1
     142,336	    0,062873	-131,7	   0,0676398	-134,7
     142,352	   0,0600043	-136,0	   0,0659319	-135,9
     142,368	   0,0610684	-133,6	   0,0662416	-133,1
     142,383	   0,0607118	-133,0	   0,0656435	-135,4
     142,399	    0,060083	-134,0	   0,0653861	-134,1
     142,414	   0,0599919	-133,5	   0,0643329	-133,3
      142,43	   0,0590787	-134,9	   0,0647369	-133,6
     142,446	   0,0592194	-134,2	   0,0645907	-133,3
     142,461	   0,0585592	-133,2	   0,0634666	-134,9
     142,477	   0,0583649	-134,7	    0,064034	-133,5
     142,493	   0,0584503	-133,6	   0,0632981	-135,2
     142,508	   0,0577444	-132,5	   0,0626395	-133,0
     142,524	   0,0576112	-133,3	   0,0621301	-132,7
      142,54	    0,056406	-132,8	   0,0614017	-131,3
     142,555	    0,056823	-132,2	   0,0620245	-135,3
     142,571	   0,0570158	-132,9	   0,0614764	-133,8
     142,587	   0,0562208	-131,4	   0,0615961	-133,8
     142,602	   0,0560402	-132,5	   0,0611838	-133,7
     142,618	   0,0568232	-133,9	   0,0603374	-134,9
     142,633	   0,0561675	-133,3	   0,0596498	-132,2
     142,649	   0,0555961	-132,3	   0,0607693	-131,8
     142,665	   0,0544277	-132,0	   0,0591324	-135,3
      142,68	   0,0547168	-132,1	   0,0592762	-132,3
     142,696	   0,0554185	-131,2	   0,0592139	-133,7
     142,712	   0,0551401	-133,8	    0,058769	-134,3
     142,727	   0,0542261	-133,0	   0,0583977	-131,9
     142,743	   0,0540853	-133,7	   0,0570517	-134,1
     142,759	   0,0539757	-131,5	   0,0575658	-131,2
     142,774	   0,0531027	-133,7	   0,0572064	-132,3
      142,79	   0,0538156	-132,7	   0,0567362	-134,5
     142,805	    0,053337	-132,0	   0,0564155	-132,9
     142,821	    0,052014	-131,7	   0,0561889	-132,7
     142,837	   0,0524528	-133,2	   0,0554154	-132,8
     142,852	   0,0522143	-133,2	   0,0550425	-132,4
     142,868	   0,0519877	-131,9	   0,0559586	-132,6
     142,884	   0,0520023	-132,6	   0,0554175	-133,2
     142,899	   0,0525306	-131,4	   0,0548766	-134,7
     142,915	   0,0505675	-134,1	     0,05417	-134,0
     142,931	   0,0505475	-134,1	   0,0544766	-132,5
     142,946	   0,0512022	-131,0	   0,0542079	-133,0
     142,962	   0,0502945	-132,6	   0,0531783	-132,0
     142,978	    0,050474	-131,7	   0,0529101	-131,6
     142,993	   0,0498914	-133,1	   0,0533434	-132,3
     143,009	   0,0500629	-130,9	   0,0522552	-132,2
     143,024	   0,0499966	-131,3	   0,0533015	-132,0
      143,04	   0,0495978	-130,7	   0,0523197	-132,6
     143,056	   0,0488581	-131,5	   0,0527164	-133,3
     143,071	   0,0494239	-129,9	   0,0517595	-132,2
     143,087	    0,048769	-130,4	   0,0507877	-133,5
     143,103	   0,0485872	-130,1	   0,0514053	-131,2
     143,118	   0,0480288	-131,1	   0,0516506	-131,3
     143,134	   0,0484609	-129,7	   0,0510805	-132,3
      143,15	    0,048264	-132,3	   0,0512858	-132,0
     143,165	   0,0478695	-131,6	   0,0510914	-133,4
     143,181	   0,0464946	-133,7	   0,0496468	-132,9
     143,196	   0,0473746	-131,1	   0,0495883	-131,0
     143,212	   0,0475148	-130,8	   0,0495471	-130,4
     143,228	   0,0465202	-130,7	   0,0492108	-131,2
     143,243	   0,0460996	-130,5	   0,0489611	-131,3
     143,259	    0,045883	-131,4	   0,0491511	-131,3
     143,275	   0,0458589	-130,7	   0,0494915	-130,1
      143,29	   0,0462189	-132,3	   0,0492241	-130,6
     143,306	   0,0462259	-132,1	   0,0484311	-133,2
     143,322	   0,0459232	-130,1	   0,0474586	-131,5
     143,337	   0,0455595	-131,7	   0,0473003	-131,4
     143,353	   0,0459194	-132,3	   0,0472861	-130,6
     143,369	   0,0460359	-131,2	   0,0472904	-131,2
     143,384	   0,0453071	-129,6	   0,0473925	-132,5
       143,4	   0,0444541	-130,3	   0,0468391	-131,0
     143,415	   0,0448167	-129,2	   0,0464008	-131,3
     143,431	   0,0443185	-129,6	    0,046777	-129,3
     143,447	    0,044442	-130,2	   0,0467908	-129,9
     143,462	   0,0438242	-130,8	   0,0469859	-127,3
     143,478	   0,0438253	-130,6	   0,0461345	-130,0
     143,494	   0,0441805	-131,1	   0,0457373	-129,6
     143,509	   0,0439706	-130,5	   0,0459417	-130,3
     143,525	   0,0433564	-129,5	   0,0456555	-129,8
     143,541	   0,0431606	-129,5	   0,0455687	-130,0
     143,556	   0,0430274	-128,7	   0,0453222	-129,5
     143,572	   0,0426956	-130,2	   0,0455763	-130,3
     143,587	   0,0428369	-130,8	   0,0452346	-130,9
     143,603	   0,0422755	-130,3	   0,0443249	-130,1
     143,619	   0,0424965	-129,6	   0,0443268	-129,4
     143,634	   0,0423465	-129,0	   0,0442577	-129,0
      143,65	   0,0424158	-130,1	   0,0438509	-129,6
     143,666	    0,042519	-129,4	   0,0437077	-128,4
     143,681	   0,0429579	-130,8	   0,0434437	-130,0
     143,697	   0,0423955	-130,2	   0,0434295	-129,8
     143,713	    0,042227	-129,0	   0,0438776	-130,5
     143,728	   0,0419439	-131,9	   0,0423476	-131,0
     143,744	   0,0417772	-130,6	   0,0424105	-129,3
      143,76	   0,0417326	-131,5	   0,0423568	-132,2
     143,775	   0,0419582	-130,4	   0,0424295	-129,7
     143,791	   0,0409556	-130,1	   0,0424528	-129,4
     143,806	   0,0404907	-129,4	   0,0425088	-131,7
     143,822	   0,0406879	-129,7	   0,0423573	-131,8
     143,838	   0,0403058	-130,7	    0,041796	-130,3
     143,853	   0,0400772	-130,4	   0,0413584	-131,0
     143,869	   0,0401487	-126,5	   0,0411709	-130,6
     143,885	   0,0397743	-130,4	   0,0413682	-129,4
       143,9	    0,039749	-129,8	   0,0415772	-126,5
     143,916	   0,0400928	-132,4	   0,0416582	-129,9
     143,932	   0,0395384	-130,2	   0,0413135	-129,2
     143,947	   0,0392761	-131,8	   0,0412196	-131,7
     143,963	   0,0394342	-128,9	   0,0408123	-131,1
     143,979	   0,0390437	-129,1	   0,0403463	-129,0
     143,994	   0,0390755	-128,4	    0,039796	-131,9
      144,01	    0,039185	-129,0	    0,039637	-129,2
     144,025	   0,0386628	-128,8	   0,0398285	-128,8
     144,041	   0,0386623	-130,3	   0,0397017	-129,2
     144,057	    0,038487	-132,4	   0,0396377	-130,2
     144,072	   0,0379769	-129,8	   0,0394059	-131,1
     144,088	   0,0377453	-128,6	   0,0394242	-132,6
     144,104	    0,037946	-130,0	   0,0391012	-127,6
     144,119	   0,0380417	-129,4	   0,0392705	-128,1
     144,135	   0,0376464	-128,7	   0,0391459	-129,4
     144,151	   0,0373791	-130,2	   0,0391415	-131,2
     144,166	    0,037611	-128,9	   0,0388262	-129,3
     144,182	   0,0375759	-127,5	   0,0382936	-127,8
     144,197	   0,0371994	-127,8	   0,0387857	-129,7
     144,213	   0,0373858	-130,8	   0,0386223	-130,3
     144,229	   0,0370298	-130,1	   0,0377348	-130,0
     144,244	   0,0369056	-127,8	   0,0377114	-129,0
      144,26	   0,0367776	-129,7	   0,0379074	-130,3
     144,276	   0,0370736	-130,0	   0,0376123	-130,4
     144,291	   0,0366032	-128,6	   0,0372753	-127,2
     144,307	   0,0366609	-128,3	   0,0372855	-129,5
     144,323	   0,0364387	-131,1	   0,0373067	-128,5
     144,338	   0,0363218	-130,3	   0,0372659	-127,2
     144,354	   0,0358499	-129,5	   0,0374307	-131,1
      144,37	   0,0359516	-128,4	   0,0361463	-128,0
     144,385	    0,035949	-129,2	    0,036393	-130,2
     144,401	   0,0357939	-131,5	   0,0367815	-128,8
     144,416	   0,0352323	-129,4	   0,0372931	-129,2
     144,432	   0,0354816	-130,9	   0,0361984	-128,4
     144,448	   0,0357992	-128,8	   0,0362261	-128,8
     144,463	   0,0353421	-130,9	   0,0365065	-130,6
     144,479	   0,0344579	-130,4	   0,0358418	-129,5
     144,495	    0,035197	-129,1	    0,035719	-129,0
      144,51	    0,035254	-129,6	   0,0355427	-129,0
     144,526	   0,0341941	-127,8	   0,0357007	-128,6
     144,542	   0,0348983	-129,7	   0,0358782	-128,5
     144,557	   0,0351414	-127,9	   0,0350373	-129,0
     144,573	   0,0340611	-129,5	   0,0356121	-129,5
     144,588	   0,0346689	-129,6	    0,035485	-130,9
     144,604	   0,0345554	-127,3	   0,0348813	-127,9
      144,62	   0,0343349	-129,6	   0,0349037	-130,1
     144,635	   0,0334039	-127,9	   0,0344428	-129,8
     144,651	   0,0346602	-130,4	   0,0345526	-129,0
     144,667	    0,033557	-130,1	   0,0355172	-130,0
     144,682	   0,0333609	-129,1	   0,0348899	-126,6
     144,698	   0,0333491	-126,8	   0,0345928	-130,3
     144,714	   0,0331976	-128,6	   0,0348136	-129,9
     144,729	   0,0337462	-126,5	   0,0339739	-128,7
     144,745	   0,0336685	-129,3	    0,033767	-127,2
     144,761	    0,032549	-129,9	   0,0344406	-128,3
     144,776	   0,0332688	-128,4	   0,0331462	-129,5
     144,792	   0,0330671	-129,0	   0,0336646	-130,5
     144,807	   0,0327701	-127,5	    0,034115	-129,7
     144,823	   0,0327302	-128,0	    0,033004	-126,7
     144,839	   0,0327834	-127,4	   0,0339539	-129,7
     144,854	   0,0327909	-130,6	   0,0328008	-128,0
      144,87	   0,0321553	-128,4	   0,0328687	-129,7
     144,886	   0,0327402	-128,2	   0,0335826	-127,7
     144,901	   0,0325964	-128,8	   0,0325983	-128,9
     144,917	   0,0319262	-129,5	   0,0327969	-130,5
     144,933	   0,0322761	-126,3	   0,0323945	-129,4
     144,948	   0,0317495	-128,2	   0,0328535	-127,4
     144,964	   0,0320097	-129,4	   0,0329482	-130,7
     144,979	   0,0318953	-129,1	   0,0323348	-129,4
     144,995	    0,031309	-127,7	   0,0334717	-127,1
     145,011	   0,0326243	-127,9	   0,0317061	-129,1
     145,026	   0,0306382	-130,6	   0,0326714	-129,3
     145,042	    0,031722	-129,0	    0,032393	-129,5
     145,058	   0,0311073	-127,8	   0,0317398	-129,6
     145,073	   0,0320086	-127,9	    0,032075	-130,9
     145,089	   0,0308732	-127,1	   0,0319223	-130,2
     145,105	   0,0317835	-129,1	   0,0318182	-128,0
      145,12	   0,0302961	-129,1	   0,0318748	-129,8
     145,136	   0,0315471	-129,0	   0,0319948	-129,4
     145,152	   0,0303966	-129,1	   0,0310752	-128,4
     145,167	   0,0310372	-128,8	   0,0319263	-127,8
     145,183	   0,0305329	-130,8	   0,0312812	-127,0
     145,198	   0,0310467	-126,3	   0,0310876	-129,6
     145,214	   0,0301186	-128,9	   0,0310222	-129,0
      145,23	   0,0313448	-127,3	   0,0311043	-127,6
     145,245	   0,0298795	-128,3	   0,0311654	-129,4
     145,261	   0,0308179	-126,1	   0,0302975	-130,5
     145,277	    0,029944	-131,5	   0,0315126	-130,3
     145,292	    0,030419	-128,5	   0,0298336	-125,8
     145,308	   0,0292188	-128,4	   0,0315025	-129,0
     145,324	   0,0309745	-129,8	   0,0293993	-126,4
     145,339	   0,0291631	-127,9	   0,0312937	-127,8
     145,355	    0,030082	-129,2	   0,0297569	-126,2
      145,37	   0,0294185	-128,5	   0,0302008	-129,5
     145,386	   0,0295805	-127,7	   0,0303502	-127,8
     145,402	   0,0300662	-128,6	   0,0295157	-128,6
     145,417	   0,0289828	-127,6	   0,0301275	-129,1
     145,433	    0,030156	-127,4	   0,0291132	-128,2
     145,449	   0,0287776	-130,2	   0,0302067	-128,7
     145,464	   0,0294102	-129,3	   0,0291972	-128,3
      145,48	   0,0296896	-128,5	   0,0294835	-128,6
     145,496	    0,028352	-128,9	   0,0296055	-127,5
     145,511	   0,0296574	-127,8	   0,0290195	-126,3
     145,527	   0,0283611	-129,1	   0,0294478	-127,6
     145,543	   0,0286788	-127,6	   0,0292015	-129,2
     145,558	   0,0291477	-127,7	   0,0292539	-128,1
     145,574	   0,0282727	-127,6	    0,029565	-126,6
     145,589	   0,0295096	-127,2	    0,028775	-128,3
     145,605	   0,0284024	-129,4	   0,0294705	-127,5
     145,621	   0,0280572	-129,1	   0,0288234	-128,7
     145,636	   0,0295886	-127,8	    0,028489	-129,1
     145,652	   0,0279712	-128,6	   0,0288336	-129,4
     145,668	   0,0285142	-128,5	    0,028691	-129,5
     145,683	     0,02836	-129,1	   0,0280986	-128,9
     145,699	   0,0281862	-128,0	   0,0290391	-127,3
     145,715	   0,0284564	-128,7	   0,0282986	-131,4
      145,73	   0,0279641	-128,4	   0,0277162	-127,0
     145,746	   0,0281525	-126,3	   0,0288084	-127,7
     145,761	   0,0276744	-128,6	   0,0283052	-129,4
     145,777	    0,027798	-126,2	   0,0277416	-127,6
     145,793	   0,0275921	-125,3	   0,0284438	-127,6
     145,808	   0,0277474	-128,5	   0,0278854	-130,5
     145,824	   0,0283339	-130,3	   0,0277788	-128,3
      145,84	   0,0274613	-128,4	    0,028099	-125,3
     145,855	   0,0270085	-127,6	   0,0284586	-126,8
     145,871	   0,0277661	-128,5	   0,0274195	-126,7
     145,887	   0,0275993	-128,5	    0,027264	-126,4
     145,902	   0,0271327	-128,0	    0,027782	-126,6
     145,918	    0,027036	-129,7	   0,0274842	-126,7
     145,934	   0,0269865	-127,5	   0,0271341	-128,2
     145,949	   0,0275341	-127,4	   0,0274699	-128,6
     145,965	   0,0268786	-126,4	    0,027669	-128,9
      145,98	    0,026823	-127,2	   0,0272833	-128,3
     145,996	   0,0270748	-127,1	   0,0268827	-126,7
     146,012	   0,0272309	-126,3	    0,027165	-127,4
     146,027	   0,0267437	-129,5	    0,027474	-127,1
     146,043	   0,0263613	-128,1	   0,0267475	-128,0
     146,059	   0,0263867	-128,8	    0,026456	-127,6
     146,074	    0,027017	-128,8	   0,0274046	-129,6
      146,09	   0,0263775	-127,3	   0,0270391	-125,0
     146,106	   0,0257633	-127,7	   0,0263011	-129,1
     146,121	   0,0257776	-128,9	   0,0264979	-127,0
     146,137	   0,0262883	-127,7	   0,0262225	-129,6
     146,152	   0,0264011	-128,4	   0,0272062	-128,3
     146,168	   0,0262454	-127,9	   0,0273837	-128,2
     146,184	    0,025487	-126,4	   0,0263113	-126,8
     146,199	   0,0255736	-127,9	   0,0260846	-127,8
     146,215	   0,0260142	-128,8	   0,0259847	-127,0
     146,231	    0,026257	-127,8	   0,0261067	-126,4
     146,246	   0,0262175	-126,6	    0,026361	-127,2
     146,262	   0,0257677	-127,8	   0,0269786	-128,6
     146,278	   0,0257827	-128,6	   0,0259368	-127,6
     146,293	   0,0253403	-127,6	   0,0255392	-127,1
     146,309	   0,0251396	-127,6	   0,0256958	-125,8
     146,325	   0,0258361	-128,1	   0,0258446	-128,9
      146,34	   0,0260268	-127,6	   0,0256776	-124,9
     146,356	   0,0254365	-126,0	   0,0257698	-129,2
     146,371	   0,0255904	-127,1	   0,0263281	-128,3
     146,387	   0,0252774	-125,7	   0,0261115	-127,7
     146,403	   0,0251399	-126,2	    0,025673	-125,9
     146,418	    0,024741	-129,5	   0,0252424	-129,4
     146,434	    0,024841	-129,7	   0,0253786	-128,7
      146,45	   0,0246144	-128,2	    0,025141	-126,2
     146,465	     0,02465	-126,2	    0,025044	-127,0
     146,481	   0,0251319	-126,0	    0,025213	-125,9
     146,497	    0,025068	-127,9	   0,0254429	-128,5
     146,512	   0,0252565	-126,0	    0,025574	-127,6
     146,528	   0,0246413	-125,9	   0,0257418	-127,9
     146,544	   0,0245257	-126,7	   0,0255796	-129,2
     146,559	   0,0248601	-126,9	   0,0255825	-125,7
     146,575	   0,0242187	-127,9	   0,0250329	-128,2
      146,59	   0,0244359	-128,9	   0,0254036	-129,6
     146,606	   0,0242659	-128,6	   0,0251582	-128,3
     146,622	   0,0241029	-129,2	   0,0247363	-128,6
     146,637	   0,0242223	-128,8	    0,025032	-127,4
     146,653	   0,0246062	-127,9	   0,0244488	-130,0
     146,669	   0,0245001	-129,2	    0,024722	-129,0
     146,684	    0,024586	-129,1	   0,0243946	-125,1
       146,7	   0,0242152	-129,4	   0,0241854	-127,8
     146,716	   0,0239735	-131,0	   0,0241537	-127,7
     146,731	   0,0243469	-127,8	   0,0236823	-126,9
     146,747	    0,023922	-127,3	   0,0237346	-126,2
     146,762	   0,0237811	-126,9	   0,0239648	-126,5
     146,778	   0,0237246	-126,9	   0,0237168	-126,7
     146,794	   0,0235939	-125,6	   0,0235613	-128,2
     146,809	   0,0235323	-124,8	   0,0234184	-127,3
     146,825	   0,0235126	-129,3	   0,0236335	-126,6
     146,841	   0,0230085	-131,1	   0,0237196	-126,1
     146,856	   0,0235477	-129,1	    0,023994	-125,4
     146,872	   0,0232955	-126,0	   0,0238281	-126,5
     146,888	   0,0233794	-125,8	   0,0236351	-126,8
     146,903	   0,0228824	-125,6	   0,0237819	-129,1
     146,919	   0,0226404	-127,8	    0,023966	-125,9
     146,935	   0,0231382	-127,3	   0,0239128	-126,7
      146,95	    0,023158	-127,0	   0,0242375	-126,2
     146,966	   0,0231875	-128,6	   0,0242168	-126,6
     146,981	    0,023332	-129,0	   0,0240032	-128,4
     146,997	   0,0234137	-126,9	   0,0240137	-127,1
     147,013	   0,0236582	-126,4	   0,0238001	-126,2
     147,028	    0,023583	-127,5	   0,0232054	-126,7
     147,044	   0,0235848	-127,8	   0,0228905	-129,3
      147,06	   0,0234829	-128,3	   0,0227582	-127,4
     147,075	   0,0229103	-125,8	   0,0229118	-128,5
     147,091	   0,0225308	-127,0	   0,0231409	-126,3
     147,107	   0,0225317	-125,9	   0,0237186	-128,6
     147,122	   0,0223285	-127,2	   0,0232389	-126,3
     147,138	   0,0225057	-126,7	   0,0233003	-128,4
     147,153	   0,0228321	-128,3	   0,0231139	-126,7
     147,169	   0,0230321	-125,7	   0,0231594	-127,4
     147,185	   0,0228899	-129,4	   0,0228167	-128,6
       147,2	   0,0229193	-127,9	   0,0227686	-128,7
     147,216	   0,0228824	-128,4	   0,0230293	-127,5
     147,232	   0,0225598	-128,8	    0,022951	-126,1
     147,247	   0,0223026	-126,6	   0,0229037	-128,1
     147,263	   0,0220216	-127,2	   0,0225094	-126,9
     147,279	   0,0224402	-128,4	   0,0223174	-127,3
     147,294	   0,0226702	-127,4	   0,0225245	-125,0
      147,31	   0,0228633	-125,9	   0,0230631	-128,0
     147,326	   0,0221593	-126,5	   0,0226722	-128,5
     147,341	   0,0217532	-127,8	   0,0226902	-125,9
     147,357	    0,021928	-129,8	   0,0217852	-126,7
     147,372	   0,0228377	-125,7	   0,0220805	-125,7
     147,388	   0,0222635	-126,9	   0,0226838	-124,9
     147,404	   0,0223619	-128,3	   0,0225715	-130,9
     147,419	   0,0217329	-126,8	   0,0223938	-125,2
     147,435	    0,021913	-129,8	    0,022228	-128,3
     147,451	   0,0226325	-129,6	    0,021897	-126,8
     147,466	   0,0223804	-126,7	   0,0223152	-128,6
     147,482	    0,021844	-126,9	   0,0222128	-129,6
     147,498	   0,0214392	-126,9	   0,0216049	-126,3
     147,513	   0,0217189	-128,2	   0,0218664	-129,2
     147,529	   0,0221398	-128,1	   0,0224255	-128,1
     147,544	   0,0215859	-127,1	   0,0217678	-129,0
      147,56	   0,0211072	-128,6	   0,0216721	-126,3
     147,576	   0,0212808	-126,6	   0,0217599	-128,4
     147,591	   0,0216881	-128,1	   0,0220251	-125,8
     147,607	   0,0220737	-128,2	    0,021799	-128,5
     147,623	   0,0216389	-124,1	   0,0208936	-127,0
     147,638	   0,0217572	-126,6	   0,0216083	-125,2
     147,654	   0,0220092	-127,2	   0,0220738	-126,9
      147,67	   0,0211394	-126,6	   0,0213591	-126,9
     147,685	   0,0205603	-127,0	   0,0216914	-127,6
     147,701	   0,0214864	-128,6	   0,0220168	-128,5
     147,717	   0,0213102	-127,3	   0,0214743	-128,5
     147,732	   0,0209556	-127,9	   0,0210292	-127,3
     147,748	   0,0210569	-126,7	   0,0216541	-127,1
     147,763	   0,0212474	-125,7	   0,0214124	-128,6
     147,779	   0,0206547	-129,3	   0,0212184	-124,6
     147,795	   0,0211345	-127,1	   0,0212099	-127,1
      147,81	   0,0212002	-125,6	   0,0210969	-127,8
     147,826	     0,02071	-126,2	   0,0211766	-127,9
     147,842	   0,0207707	-126,8	   0,0215256	-127,2
     147,857	   0,0211263	-128,0	   0,0211345	-125,7
     147,873	   0,0209137	-125,9	   0,0211228	-128,8
     147,889	   0,0205292	-127,1	   0,0213381	-126,4
     147,904	    0,021172	-124,1	   0,0207329	-124,9
      147,92	   0,0204395	-126,1	   0,0212143	-127,8
     147,935	   0,0203375	-129,6	   0,0211333	-125,3
     147,951	   0,0208567	-126,6	   0,0205455	-126,8
     147,967	   0,0205276	-128,9	   0,0211719	-125,8
     147,982	   0,0204616	-125,6	   0,0212154	-126,1
     147,998	   0,0209019	-128,1	   0,0207752	-128,3
     148,014	   0,0205394	-126,0	    0,021116	-126,9
     148,029	   0,0205799	-129,3	   0,0206191	-126,9
     148,045	   0,0211548	-125,9	   0,0212616	-128,8
     148,061	   0,0198858	-126,4	   0,0206228	-127,1
     148,076	   0,0203932	-128,8	   0,0208391	-126,6
     148,092	   0,0200683	-128,5	   0,0209306	-127,4
     148,108	   0,0202809	-127,2	   0,0206077	-128,0
     148,123	   0,0206183	-128,1	   0,0206061	-124,9
     148,139	   0,0197927	-125,4	     0,02025	-126,2
     148,154	   0,0203794	-128,1	   0,0205076	-128,7
      148,17	   0,0201817	-127,6	   0,0201569	-127,1
     148,186	   0,0204225	-125,9	   0,0204373	-128,0
     148,201	   0,0206162	-128,1	   0,0200343	-127,6
     148,217	   0,0196082	-128,2	   0,0207034	-126,2
     148,233	   0,0205287	-129,7	   0,0204685	-127,1
     148,248	   0,0196259	-126,4	   0,0199542	-126,4
     148,264	   0,0202508	-128,4	   0,0203976	-125,4
      148,28	   0,0201484	-127,0	    0,020286	-129,2
     148,295	   0,0198506	-129,1	   0,0204065	-125,5
     148,311	   0,0198509	-127,2	   0,0201966	-127,9
     148,326	   0,0199193	-127,9	   0,0202891	-127,1
     148,342	   0,0200898	-129,1	   0,0201521	-126,6
     148,358	   0,0196393	-125,8	   0,0200582	-126,7
     148,373	   0,0199795	-126,9	   0,0198956	-128,7
     148,389	   0,0197329	-127,2	   0,0205125	-126,0
     148,405	   0,0197621	-127,2	   0,0199587	-129,9
      148,42	   0,0195558	-129,1	   0,0200595	-125,8
     148,436	   0,0201318	-128,4	   0,0203169	-127,5
     148,452	    0,019706	-126,6	   0,0194867	-126,6
     148,467	   0,0198641	-125,9	   0,0201289	-130,0
     148,483	    0,019725	-125,2	   0,0193688	-125,8
     148,499	   0,0199769	-128,2	   0,0200423	-128,4
     148,514	   0,0194305	-128,8	   0,0191955	-127,1
      148,53	   0,0192897	-126,3	   0,0199414	-129,0
     148,545	   0,0194834	-126,8	   0,0196156	-127,9
     148,561	   0,0192755	-128,2	   0,0196679	-125,1
     148,577	   0,0196401	-126,8	   0,0201036	-127,0
     148,592	   0,0191622	-128,3	   0,0189522	-127,6
     148,608	      0,0193	-128,2	   0,0198653	-127,3
     148,624	   0,0191396	-127,9	   0,0193429	-124,5
     148,639	   0,0195343	-128,8	   0,0195674	-127,9
     148,655	   0,0190134	-126,0	      0,0193	-126,2
     148,671	    0,019206	-127,2	   0,0191505	-128,7
     148,686	   0,0195134	-127,5	   0,0193782	-128,8
     148,702	   0,0187246	-127,5	   0,0194196	-125,0
     148,717	   0,0194101	-124,9	   0,0189481	-126,2
     148,733	   0,0187923	-126,3	   0,0195989	-127,1
     148,749	    0,019033	-129,3	   0,0190483	-125,9
     148,764	    0,018822	-128,8	   0,0191204	-127,0
      148,78	   0,0189726	-124,8	   0,0196796	-126,4
     148,796	   0,0191521	-125,2	   0,0187036	-127,2
     148,811	   0,0186892	-127,8	   0,0189303	-129,3
     148,827	   0,0190319	-128,7	   0,0194021	-128,3
     148,843	   0,0187967	-125,6	   0,0185994	-128,7
     148,858	   0,0186803	-126,7	   0,0189181	-127,5
     148,874	   0,0193127	-127,3	   0,0192103	-128,6
      148,89	   0,0189581	-128,1	   0,0186951	-129,5
     148,905	   0,0183743	-127,7	   0,0191456	-130,4
     148,921	   0,0187072	-126,7	   0,0192333	-126,8
     148,936	   0,0187538	-125,3	   0,0189235	-126,3
     148,952	   0,0184251	-126,1	    0,018554	-129,0
     148,968	   0,0188911	-126,6	   0,0189322	-126,4
     148,983	   0,0184219	-128,1	   0,0189568	-126,5
     148,999	   0,0180228	-126,6	   0,0185303	-125,8
     149,015	   0,0188466	-127,3	   0,0183442	-129,6
      149,03	   0,0183837	-125,5	   0,0192713	-128,5
     149,046	   0,0183914	-126,1	   0,0185913	-125,5
     149,062	   0,0182826	-125,6	   0,0182401	-128,1
     149,077	   0,0186229	-127,0	   0,0188302	-127,5
     149,093	   0,0182594	-129,3	   0,0187932	-125,6
     149,109	   0,0183051	-125,8	   0,0185162	-128,6
     149,124	   0,0181185	-129,5	   0,0182608	-126,8
      149,14	   0,0187613	-128,5	   0,0181426	-126,9
     149,155	   0,0179248	-125,4	    0,018288	-129,4
     149,171	     0,01811	-125,8	   0,0184416	-129,7
     149,187	   0,0183183	-127,1	   0,0177955	-126,4
     149,202	   0,0181507	-125,2	   0,0185401	-127,0
     149,218	   0,0181821	-125,0	   0,0184738	-128,4
     149,234	   0,0182009	-126,2	     0,01811	-127,7
     149,249	   0,0180456	-128,0	   0,0184819	-124,2
     149,265	    0,017985	-126,2	   0,0181785	-125,7
     149,281	   0,0183134	-126,9	   0,0181518	-126,6
     149,296	    0,017918	-127,6	   0,0182275	-127,2
     149,312	   0,0179198	-125,5	   0,0182475	-126,8
     149,327	   0,0180562	-125,8	   0,0179422	-125,4
     149,343	   0,0183932	-126,4	   0,0175906	-128,1
     149,359	   0,0178982	-126,5	   0,0180004	-127,5
     149,374	   0,0175528	-129,3	   0,0180107	-124,3
      149,39	   0,0174615	-127,0	   0,0183847	-127,5
     149,406	   0,0176537	-126,1	   0,0178041	-128,3
     149,421	   0,0180172	-124,5	    0,017638	-126,8
     149,437	   0,0180573	-126,7	   0,0179271	-123,8
     149,453	   0,0177796	-127,8	   0,0178153	-126,1
     149,468	   0,0175259	-126,4	   0,0179571	-127,5
     149,484	   0,0179258	-128,9	   0,0180702	-122,6
       149,5	   0,0175721	-127,5	   0,0177307	-127,2
     149,515	   0,0178162	-128,9	   0,0177723	-125,7
     149,531	   0,0176824	-127,4	   0,0176473	-126,1
     149,546	   0,0175615	-127,2	   0,0175614	-126,1
     149,562	   0,0170886	-127,6	    0,017715	-127,5
     149,578	   0,0172943	-124,3	   0,0177183	-129,1
     149,593	   0,0173666	-126,7	   0,0176229	-128,2
     149,609	   0,0173727	-130,1	   0,0175364	-126,6
     149,625	    0,017336	-126,7	   0,0173251	-128,0
      149,64	    0,017139	-126,1	   0,0173754	-127,3
     149,656	   0,0173288	-123,5	   0,0174785	-128,7
     149,672	   0,0177288	-126,2	   0,0174795	-127,7
     149,687	    0,017239	-127,7	    0,017342	-125,7
     149,703	   0,0171517	-126,5	   0,0176015	-125,8
     149,718	   0,0170928	-124,9	   0,0174362	-126,4
     149,734	   0,0170896	-128,7	   0,0175593	-127,1
      149,75	   0,0172902	-125,5	   0,0172936	-126,5
     149,765	   0,0170094	-127,9	   0,0172942	-127,4
     149,781	    0,017621	-126,7	   0,0173404	-127,4
     149,797	   0,0174052	-125,7	   0,0172911	-127,5
     149,812	   0,0174142	-125,5	   0,0171376	-126,8
     149,828	   0,0173126	-128,1	   0,0173915	-128,5
     149,844	   0,0172026	-123,4	   0,0170312	-125,4
     149,859	   0,0170584	-127,6	      0,0168	-128,1
     149,875	   0,0172404	-128,4	   0,0170147	-125,3
     149,891	   0,0169376	-124,8	   0,0172357	-126,7
     149,906	   0,0166408	-130,0	   0,0170117	-128,8
     149,922	   0,0169036	-125,8	   0,0172088	-124,6
     149,937	   0,0170295	-128,9	    0,016996	-124,3
     149,953	   0,0168521	-127,2	   0,0170789	-125,6
     149,969	   0,0171192	-127,8	   0,0169355	-127,1
     149,984	   0,0170319	-127,8	   0,0170182	-127,8
         150	   0,0168014	-127,4	   0,0174448	-126,3

