X-Data [Hz]	Laser (M - Filtered) [m/s]	Phase [Deg]	Laser (M - Filtered) [m/s]	Phase [Deg]	
	002: [07-03-24 09:16]		003: [07-03-24 09:19]	
          22	   0,0175958	81,9	   0,0237083	82,2
     22,0049	   0,0187301	82,3	   0,0238639	82,3
     22,0098	   0,0202864	82,1	    0,023774	82,4
     22,0147	   0,0205832	82,3	   0,0237048	82,1
     22,0196	   0,0217048	82,3	   0,0238795	82,1
     22,0244	    0,022009	82,4	   0,0238312	82,1
     22,0293	   0,0222054	82,6	   0,0237936	82,1
     22,0342	   0,0228063	82,4	   0,0238494	82,1
     22,0391	   0,0229295	82,7	   0,0238841	82,3
      22,044	   0,0231538	82,2	   0,0238484	82,2
     22,0489	    0,023322	82,2	   0,0239855	82,1
     22,0538	   0,0233437	82,1	    0,024059	82,3
     22,0587	   0,0231952	81,9	   0,0240525	82,2
     22,0635	   0,0239617	82,0	    0,023891	82,3
     22,0684	   0,0237623	82,6	    0,023975	82,4
     22,0733	    0,023881	81,8	    0,024037	82,5
     22,0782	   0,0237201	82,6	   0,0240227	82,1
     22,0831	   0,0239258	82,2	   0,0240221	82,4
      22,088	   0,0240542	82,4	   0,0237488	82,2
     22,0929	   0,0238163	82,6	   0,0240185	82,2
     22,0978	   0,0240925	82,5	   0,0241114	82,2
     22,1026	   0,0240488	82,8	   0,0238255	82,4
     22,1075	   0,0242365	81,9	   0,0240547	82,4
     22,1124	   0,0242498	82,4	     0,02406	82,3
     22,1173	   0,0240825	83,0	   0,0240552	82,3
     22,1222	   0,0242301	82,4	   0,0242883	82,3
     22,1271	   0,0242828	82,7	   0,0238439	82,7
      22,132	   0,0244109	82,3	    0,024076	82,7
     22,1369	   0,0241625	82,0	   0,0241868	82,2
     22,1417	   0,0237989	82,7	   0,0242916	82,4
     22,1466	   0,0242011	82,4	   0,0242482	82,6
     22,1515	   0,0238613	82,3	   0,0240888	82,2
     22,1564	   0,0240692	82,6	   0,0239794	82,7
     22,1613	   0,0245087	82,4	   0,0244338	82,3
     22,1662	   0,0242965	82,4	   0,0243062	82,4
     22,1711	   0,0239307	82,4	   0,0241852	82,3
      22,176	    0,024168	82,7	    0,024283	82,3
     22,1808	   0,0243063	82,4	   0,0242623	82,4
     22,1857	   0,0241533	82,6	    0,024445	82,6
     22,1906	   0,0242267	82,3	    0,024252	82,3
     22,1955	   0,0243679	82,2	   0,0242902	82,4
     22,2004	   0,0240646	82,7	   0,0242734	82,4
     22,2053	   0,0246239	82,4	    0,024361	82,3
     22,2102	    0,024322	82,4	   0,0243785	82,4
     22,2151	   0,0244624	82,4	   0,0245083	82,6
     22,2199	   0,0245412	82,4	   0,0247135	82,5
     22,2248	   0,0243145	82,4	   0,0243563	82,4
     22,2297	   0,0241764	82,5	   0,0243466	82,5
     22,2346	   0,0246169	82,5	   0,0243557	82,5
     22,2395	    0,024271	82,5	   0,0245242	82,4
     22,2444	   0,0243314	82,5	   0,0246085	82,4
     22,2493	   0,0245561	82,5	   0,0244456	82,3
     22,2542	   0,0243736	82,6	   0,0244235	82,9
      22,259	   0,0247649	82,4	   0,0247106	82,6
     22,2639	   0,0245383	82,6	   0,0245841	82,5
     22,2688	   0,0242649	82,9	   0,0247321	82,6
     22,2737	   0,0246023	82,6	   0,0246529	82,4
     22,2786	   0,0244537	82,8	    0,024706	82,5
     22,2835	   0,0244633	82,9	   0,0244468	82,5
     22,2884	   0,0246262	82,3	   0,0247807	82,4
     22,2933	   0,0243133	82,8	   0,0246863	82,7
     22,2981	   0,0246871	82,7	   0,0248734	82,5
      22,303	   0,0246198	82,7	   0,0249177	82,7
     22,3079	   0,0245468	82,8	   0,0245613	82,5
     22,3128	   0,0244858	82,5	   0,0246702	82,2
     22,3177	   0,0242586	82,8	   0,0248093	82,6
     22,3226	   0,0248542	82,7	   0,0246357	82,7
     22,3275	   0,0248288	82,9	   0,0246051	83,0
     22,3324	   0,0245447	82,6	   0,0249922	82,7
     22,3372	   0,0247371	82,4	   0,0247482	82,6
     22,3421	   0,0245496	83,0	   0,0247831	82,8
      22,347	   0,0247269	82,8	   0,0250908	82,7
     22,3519	   0,0249437	82,9	   0,0248694	82,7
     22,3568	   0,0247006	82,5	   0,0247498	83,2
     22,3617	   0,0248627	82,6	   0,0248875	82,5
     22,3666	   0,0246099	82,8	   0,0248892	82,9
     22,3715	   0,0248678	83,0	   0,0248608	82,7
     22,3763	   0,0249369	82,7	   0,0248666	82,9
     22,3812	   0,0246099	83,0	   0,0251107	82,7
     22,3861	   0,0252248	82,6	   0,0253314	82,9
      22,391	   0,0250374	82,7	   0,0251679	82,8
     22,3959	   0,0248105	83,1	   0,0252242	82,8
     22,4008	   0,0250579	82,8	   0,0252583	82,6
     22,4057	   0,0248399	83,1	   0,0253899	83,0
     22,4106	    0,025325	82,9	   0,0251363	82,8
     22,4154	   0,0249142	82,8	   0,0253094	82,8
     22,4203	   0,0250932	83,0	   0,0251975	82,9
     22,4252	   0,0251162	82,7	   0,0253004	82,8
     22,4301	   0,0250997	82,9	   0,0251468	83,0
      22,435	   0,0251027	82,7	   0,0252436	82,9
     22,4399	   0,0249615	83,0	   0,0254238	83,1
     22,4448	   0,0253177	83,0	   0,0254577	82,9
     22,4497	   0,0251849	82,9	   0,0254769	82,8
     22,4545	   0,0251871	83,1	   0,0254082	83,0
     22,4594	   0,0253304	83,0	   0,0251618	83,0
     22,4643	   0,0251124	83,0	   0,0255796	83,0
     22,4692	    0,025415	82,8	   0,0252868	82,9
     22,4741	   0,0251461	82,9	    0,025204	83,0
      22,479	   0,0251764	83,3	   0,0253279	82,9
     22,4839	   0,0253808	83,0	   0,0255567	83,0
     22,4888	   0,0255629	83,4	   0,0255728	83,1
     22,4936	   0,0253088	82,8	   0,0254062	83,3
     22,4985	   0,0253423	83,3	   0,0256141	82,9
     22,5034	   0,0253096	82,8	   0,0255469	83,1
     22,5083	   0,0252603	83,0	   0,0256541	83,0
     22,5132	   0,0252462	83,1	    0,025738	83,2
     22,5181	   0,0251092	83,2	   0,0256333	83,0
      22,523	   0,0256369	83,3	   0,0257242	83,0
     22,5279	   0,0255646	83,1	   0,0257012	83,2
     22,5327	   0,0254697	83,4	   0,0257833	83,1
     22,5376	   0,0255723	83,1	   0,0256106	83,3
     22,5425	   0,0255489	83,2	   0,0259088	83,2
     22,5474	   0,0255202	83,4	   0,0259011	83,4
     22,5523	   0,0254544	83,5	   0,0257064	83,1
     22,5572	   0,0256497	83,0	   0,0256927	83,4
     22,5621	    0,025466	83,4	   0,0258519	83,2
      22,567	   0,0258242	83,1	   0,0258172	83,1
     22,5718	   0,0257053	83,3	   0,0259657	83,4
     22,5767	    0,025716	83,6	   0,0258627	83,2
     22,5816	   0,0257091	83,2	   0,0259912	83,2
     22,5865	   0,0258354	83,4	    0,026028	83,3
     22,5914	   0,0257499	83,3	   0,0261629	83,1
     22,5963	   0,0258713	83,4	   0,0259253	83,4
     22,6012	   0,0258969	83,2	   0,0259982	83,2
     22,6061	   0,0257994	83,5	   0,0260487	83,3
     22,6109	   0,0258463	83,4	   0,0261142	83,4
     22,6158	    0,025888	83,9	   0,0261291	83,3
     22,6207	   0,0260315	83,2	   0,0261569	83,3
     22,6256	   0,0258598	83,6	   0,0261137	83,4
     22,6305	   0,0259333	83,3	   0,0262449	83,5
     22,6354	   0,0259257	83,5	   0,0261982	83,5
     22,6403	   0,0259919	83,6	    0,026229	83,7
     22,6452	   0,0260096	83,4	   0,0262559	83,5
       22,65	   0,0259885	83,6	   0,0261705	83,5
     22,6549	   0,0260776	83,6	   0,0262165	83,5
     22,6598	   0,0261904	83,6	   0,0261282	83,5
     22,6647	   0,0260615	83,4	   0,0263061	83,4
     22,6696	   0,0261747	83,6	   0,0262814	83,8
     22,6745	   0,0262252	83,3	   0,0262653	83,5
     22,6794	   0,0262601	83,6	   0,0262562	83,7
     22,6843	   0,0261582	83,7	   0,0264491	83,5
     22,6891	   0,0263222	83,6	   0,0264499	83,7
      22,694	   0,0263392	83,6	   0,0264094	83,7
     22,6989	   0,0262749	83,6	   0,0264841	83,4
     22,7038	   0,0262499	83,3	   0,0265536	83,8
     22,7087	   0,0263288	83,5	    0,026549	83,6
     22,7136	   0,0263529	83,8	   0,0265329	83,7
     22,7185	   0,0263136	83,8	   0,0266744	83,7
     22,7234	   0,0263793	83,6	   0,0266034	83,8
     22,7283	   0,0266321	83,7	   0,0265882	83,8
     22,7331	   0,0264472	83,6	   0,0265815	83,6
      22,738	   0,0264796	83,6	   0,0267829	83,7
     22,7429	   0,0264198	84,0	   0,0268173	83,5
     22,7478	    0,026529	83,6	   0,0267579	83,9
     22,7527	   0,0264701	84,1	   0,0267779	83,8
     22,7576	   0,0265112	83,9	   0,0267409	83,7
     22,7625	   0,0266682	83,8	   0,0269529	83,6
     22,7674	   0,0265775	83,8	   0,0268499	84,0
     22,7722	   0,0266344	84,0	     0,02693	83,6
     22,7771	   0,0265383	84,0	   0,0267977	83,9
      22,782	   0,0267222	83,9	   0,0268641	83,9
     22,7869	   0,0265324	83,9	   0,0268758	83,8
     22,7918	    0,026626	84,0	    0,026918	83,9
     22,7967	   0,0266232	83,9	   0,0267811	83,7
     22,8016	   0,0268615	83,9	   0,0270657	83,9
     22,8065	   0,0267206	84,0	   0,0270651	83,9
     22,8113	   0,0267202	84,0	    0,027196	84,0
     22,8162	   0,0266815	83,9	   0,0268811	84,3
     22,8211	   0,0269776	84,2	   0,0271326	84,0
      22,826	   0,0268511	84,0	   0,0271197	83,9
     22,8309	   0,0268871	83,9	   0,0271249	84,0
     22,8358	   0,0267585	84,1	   0,0271858	83,9
     22,8407	   0,0269615	84,0	   0,0270856	84,0
     22,8456	   0,0269265	84,1	   0,0272308	84,1
     22,8504	   0,0269949	84,1	   0,0273035	84,0
     22,8553	   0,0270052	84,3	   0,0272695	84,0
     22,8602	   0,0270575	84,0	   0,0272741	84,0
     22,8651	   0,0271891	84,1	   0,0274703	84,1
       22,87	   0,0271008	84,1	   0,0273226	84,0
     22,8749	   0,0270609	84,2	   0,0273568	84,4
     22,8798	   0,0271465	84,2	   0,0274476	84,1
     22,8847	   0,0271816	84,4	   0,0272334	84,3
     22,8895	    0,027104	84,3	   0,0274366	84,0
     22,8944	   0,0272498	84,3	   0,0274019	84,2
     22,8993	   0,0272595	84,0	   0,0276062	84,2
     22,9042	   0,0271266	84,3	   0,0273012	84,2
     22,9091	   0,0271869	84,3	   0,0274488	84,2
      22,914	   0,0272574	83,9	   0,0274712	84,1
     22,9189	   0,0273393	84,1	   0,0275839	84,1
     22,9238	   0,0270564	84,3	   0,0276414	84,2
     22,9286	   0,0274328	84,0	    0,027345	84,2
     22,9335	   0,0274058	84,2	   0,0276448	84,0
     22,9384	   0,0274402	84,0	   0,0274992	84,2
     22,9433	   0,0273395	84,4	   0,0276232	84,2
     22,9482	   0,0274042	84,2	    0,027618	84,3
     22,9531	   0,0274723	84,3	   0,0276827	84,3
      22,958	   0,0273765	84,3	   0,0278573	84,3
     22,9629	   0,0276436	84,0	   0,0279689	84,2
     22,9677	   0,0274461	84,4	   0,0278281	84,3
     22,9726	   0,0275569	84,1	   0,0278501	84,2
     22,9775	   0,0275026	84,5	   0,0278384	84,5
     22,9824	   0,0275189	84,4	   0,0280138	84,3
     22,9873	   0,0277534	84,2	   0,0278673	84,4
     22,9922	   0,0275991	84,4	   0,0280033	84,4
     22,9971	   0,0278506	84,2	   0,0277629	84,6
      23,002	   0,0276408	84,5	   0,0279414	84,6
     23,0068	   0,0279173	84,3	   0,0280491	84,2
     23,0117	   0,0277334	84,5	   0,0279178	84,7
     23,0166	   0,0277247	84,5	   0,0281883	84,3
     23,0215	   0,0280523	84,1	   0,0279891	84,5
     23,0264	   0,0278954	84,5	   0,0281517	84,5
     23,0313	   0,0279779	84,6	   0,0281227	84,5
     23,0362	   0,0279261	84,4	   0,0281496	84,6
     23,0411	   0,0280879	84,3	   0,0282897	84,5
     23,0459	   0,0281708	84,4	   0,0280358	84,8
     23,0508	    0,028004	84,5	   0,0282066	84,4
     23,0557	   0,0281856	84,6	   0,0283356	84,5
     23,0606	   0,0280198	84,7	   0,0282802	84,7
     23,0655	   0,0280377	84,5	   0,0285192	84,5
     23,0704	   0,0281473	84,5	   0,0285564	84,7
     23,0753	   0,0281256	84,8	   0,0283887	84,6
     23,0802	    0,028207	84,5	   0,0285273	84,6
      23,085	   0,0280444	84,7	    0,028575	84,8
     23,0899	   0,0282254	84,6	    0,028621	84,7
     23,0948	   0,0280484	84,6	   0,0286514	84,6
     23,0997	    0,028221	84,8	   0,0285424	84,7
     23,1046	   0,0284933	84,4	   0,0287277	84,6
     23,1095	   0,0282852	84,7	   0,0286121	84,9
     23,1144	   0,0284065	84,8	   0,0284901	84,6
     23,1193	   0,0282542	84,7	   0,0286243	84,6
     23,1241	   0,0283554	84,9	   0,0287622	84,8
      23,129	   0,0287223	84,8	   0,0284995	84,8
     23,1339	   0,0285939	84,8	   0,0288072	85,0
     23,1388	   0,0284684	84,9	    0,028811	85,0
     23,1437	   0,0290563	84,8	   0,0287723	84,9
     23,1486	   0,0285737	84,9	   0,0287672	85,0
     23,1535	   0,0286212	84,9	   0,0287744	84,8
     23,1584	   0,0285467	84,7	   0,0288665	84,9
     23,1632	   0,0285304	84,9	   0,0290377	85,1
     23,1681	   0,0288507	84,9	   0,0287825	84,9
      23,173	   0,0286007	84,9	   0,0292625	84,9
     23,1779	   0,0287488	85,1	   0,0290443	85,2
     23,1828	   0,0289781	85,0	   0,0290875	85,2
     23,1877	   0,0289143	84,8	   0,0294802	85,0
     23,1926	   0,0289837	85,1	   0,0292425	85,2
     23,1975	   0,0290102	84,8	   0,0293563	84,9
     23,2023	   0,0290358	85,1	   0,0295855	85,3
     23,2072	   0,0289206	84,9	   0,0293493	85,2
     23,2121	   0,0290075	85,0	   0,0295919	85,1
      23,217	   0,0290996	85,0	   0,0296772	85,3
     23,2219	   0,0292376	85,1	   0,0295011	85,4
     23,2268	   0,0292686	85,0	   0,0295275	85,2
     23,2317	   0,0293107	85,1	   0,0297857	85,2
     23,2366	   0,0290934	85,2	   0,0294127	85,2
     23,2414	   0,0292447	85,2	   0,0295442	85,3
     23,2463	   0,0294384	85,3	   0,0296492	85,3
     23,2512	   0,0294972	85,2	    0,029411	85,5
     23,2561	   0,0294791	85,2	   0,0296611	85,3
      23,261	   0,0293659	85,3	   0,0298743	85,6
     23,2659	   0,0295306	85,3	   0,0296528	85,3
     23,2708	   0,0296649	85,2	   0,0300095	85,3
     23,2757	   0,0295939	85,4	   0,0299854	85,5
     23,2805	   0,0297444	85,3	   0,0299187	85,6
     23,2854	   0,0298296	85,3	   0,0300865	85,5
     23,2903	   0,0297984	85,6	   0,0301732	85,6
     23,2952	   0,0300052	85,3	     0,03012	85,7
     23,3001	   0,0298535	85,4	   0,0302034	85,6
      23,305	   0,0299507	85,7	   0,0302295	85,6
     23,3099	   0,0303425	85,4	   0,0300662	85,8
     23,3148	   0,0301077	85,3	   0,0302746	85,7
     23,3196	   0,0300079	85,5	   0,0303894	85,7
     23,3245	   0,0301195	85,4	   0,0303692	85,8
     23,3294	   0,0301967	85,5	   0,0306231	85,5
     23,3343	   0,0302704	85,8	   0,0306739	85,7
     23,3392	   0,0302997	85,6	   0,0305919	85,9
     23,3441	   0,0303773	85,6	    0,030499	85,9
      23,349	    0,030354	85,5	   0,0307282	85,8
     23,3539	   0,0305075	85,7	   0,0307331	85,9
     23,3587	   0,0306541	85,6	   0,0307832	85,9
     23,3636	   0,0304962	85,9	   0,0307361	85,9
     23,3685	   0,0306105	85,9	   0,0309432	86,1
     23,3734	   0,0305625	85,8	   0,0307663	86,0
     23,3783	   0,0307544	85,7	   0,0310073	85,9
     23,3832	   0,0306465	86,0	   0,0309308	86,3
     23,3881	    0,030764	85,9	   0,0309912	86,1
      23,393	   0,0309345	86,0	   0,0310895	86,0
     23,3979	   0,0308351	86,0	   0,0309899	86,2
     23,4027	   0,0309206	85,9	   0,0312248	86,3
     23,4076	   0,0310293	86,2	   0,0312412	86,1
     23,4125	   0,0310828	86,0	   0,0314135	86,3
     23,4174	   0,0310428	86,1	    0,031344	86,4
     23,4223	   0,0310852	86,0	   0,0313665	86,3
     23,4272	   0,0311799	86,2	    0,031462	86,3
     23,4321	   0,0311518	86,2	   0,0314592	86,4
      23,437	   0,0312315	86,4	   0,0315136	86,3
     23,4418	   0,0313004	86,1	   0,0316086	86,4
     23,4467	   0,0314648	86,2	   0,0316761	86,5
     23,4516	   0,0313774	86,3	   0,0316626	86,6
     23,4565	   0,0314894	86,2	    0,031783	86,5
     23,4614	   0,0316868	86,3	   0,0318436	86,7
     23,4663	   0,0316638	86,5	   0,0319026	86,6
     23,4712	    0,031666	86,5	   0,0320159	86,5
     23,4761	   0,0318454	86,6	   0,0319737	86,7
     23,4809	   0,0319361	86,5	   0,0320688	86,7
     23,4858	   0,0317996	86,5	   0,0320881	86,9
     23,4907	   0,0318447	86,5	   0,0322094	86,8
     23,4956	   0,0319535	86,6	   0,0321001	86,7
     23,5005	   0,0320237	86,8	   0,0322292	86,7
     23,5054	   0,0319971	86,7	   0,0323575	86,8
     23,5103	   0,0320671	86,7	   0,0325151	87,0
     23,5152	   0,0322851	86,8	   0,0324779	86,9
       23,52	   0,0322969	86,7	   0,0325084	87,0
     23,5249	   0,0322028	86,6	   0,0324473	87,1
     23,5298	   0,0325614	87,1	   0,0326244	87,1
     23,5347	   0,0324135	86,9	   0,0326305	87,1
     23,5396	   0,0323623	86,9	   0,0327577	87,2
     23,5445	   0,0325502	86,8	   0,0328214	87,3
     23,5494	   0,0326989	87,0	   0,0328976	87,4
     23,5543	   0,0328427	87,0	   0,0329018	87,3
     23,5591	    0,032644	87,0	   0,0329121	87,3
      23,564	   0,0328194	87,1	   0,0330174	87,4
     23,5689	   0,0329148	87,2	   0,0332424	87,3
     23,5738	    0,033158	87,1	   0,0331474	87,6
     23,5787	   0,0329966	87,2	   0,0331951	87,5
     23,5836	   0,0329433	87,2	   0,0331549	87,5
     23,5885	   0,0332769	87,3	   0,0334374	87,5
     23,5934	   0,0332835	87,6	   0,0334941	87,5
     23,5982	    0,033238	87,4	   0,0335476	87,7
     23,6031	   0,0331942	87,5	   0,0336019	87,9
      23,608	    0,033395	87,4	   0,0336507	87,8
     23,6129	   0,0334728	87,5	   0,0336845	87,9
     23,6178	   0,0333816	87,6	   0,0338137	87,7
     23,6227	   0,0335035	87,7	   0,0337382	87,8
     23,6276	   0,0336556	87,5	   0,0339082	87,9
     23,6325	    0,033908	87,8	   0,0340262	88,1
     23,6373	   0,0338601	87,8	   0,0340619	87,9
     23,6422	   0,0337014	87,8	   0,0340252	88,0
     23,6471	   0,0338363	87,9	   0,0341653	88,0
      23,652	   0,0341333	88,1	   0,0342721	88,1
     23,6569	   0,0342449	87,8	   0,0343146	88,2
     23,6618	   0,0341046	88,0	   0,0344539	88,3
     23,6667	   0,0339542	88,1	   0,0343758	88,3
     23,6716	   0,0344127	88,1	   0,0343685	88,3
     23,6764	   0,0345663	88,3	   0,0345652	88,3
     23,6813	   0,0343797	88,2	   0,0347215	88,5
     23,6862	   0,0342771	88,2	   0,0346951	88,6
     23,6911	    0,034421	88,3	   0,0347456	88,7
      23,696	   0,0347035	88,3	   0,0348803	88,5
     23,7009	   0,0348589	88,3	   0,0349447	88,6
     23,7058	    0,034725	88,5	    0,034852	88,9
     23,7107	   0,0348504	88,6	     0,03512	88,8
     23,7155	   0,0349388	88,5	   0,0352796	88,9
     23,7204	   0,0350646	88,6	   0,0353081	88,8
     23,7253	   0,0352209	88,5	   0,0354207	89,0
     23,7302	   0,0349464	88,7	   0,0354443	88,9
     23,7351	   0,0351396	88,7	   0,0354932	89,0
       23,74	   0,0352944	88,8	   0,0354716	89,2
     23,7449	   0,0355922	88,9	   0,0356868	89,0
     23,7498	   0,0356778	88,9	   0,0359569	89,2
     23,7546	   0,0354505	89,1	   0,0360159	89,3
     23,7595	   0,0354755	88,9	   0,0359577	89,3
     23,7644	   0,0356199	89,0	   0,0359838	89,4
     23,7693	   0,0358798	89,0	   0,0360911	89,2
     23,7742	   0,0360405	89,2	   0,0361985	89,6
     23,7791	   0,0358612	89,2	   0,0364857	89,6
      23,784	   0,0357734	89,3	   0,0364039	89,8
     23,7889	   0,0360706	89,4	   0,0364448	89,8
     23,7937	   0,0363581	89,5	   0,0365377	89,7
     23,7986	   0,0365065	89,4	   0,0366543	89,8
     23,8035	   0,0364466	89,5	   0,0367947	89,9
     23,8084	   0,0362231	89,6	   0,0367873	90,0
     23,8133	   0,0364257	89,7	   0,0368688	90,1
     23,8182	   0,0367004	89,8	   0,0370603	90,2
     23,8231	   0,0368884	89,8	   0,0371813	90,2
      23,828	   0,0368326	89,9	   0,0372055	90,1
     23,8328	   0,0368451	90,1	   0,0373275	90,2
     23,8377	   0,0368719	90,0	    0,037497	90,5
     23,8426	    0,037051	90,0	   0,0375548	90,4
     23,8475	   0,0372314	90,1	   0,0375857	90,6
     23,8524	    0,037437	90,3	   0,0377645	90,4
     23,8573	   0,0375561	90,2	   0,0379672	90,7
     23,8622	    0,037488	90,3	   0,0380006	90,7
     23,8671	    0,037492	90,4	   0,0381212	90,8
     23,8719	   0,0376426	90,4	   0,0380751	91,1
     23,8768	   0,0378287	90,5	   0,0383066	90,9
     23,8817	   0,0380415	90,6	   0,0384628	91,1
     23,8866	   0,0381569	90,8	   0,0384969	91,1
     23,8915	   0,0381237	90,7	   0,0386168	91,3
     23,8964	   0,0382196	91,0	   0,0387054	91,6
     23,9013	   0,0382366	90,8	   0,0388614	91,5
     23,9062	   0,0382263	91,0	   0,0388772	91,5
      23,911	   0,0385862	91,2	   0,0390164	91,7
     23,9159	   0,0386855	91,1	   0,0391758	91,9
     23,9208	   0,0388048	91,2	   0,0392513	92,2
     23,9257	   0,0388531	91,3	   0,0393111	92,4
     23,9306	   0,0388862	91,5	   0,0393775	92,5
     23,9355	   0,0388991	91,9	   0,0394984	92,1
     23,9404	   0,0390063	91,7	   0,0396364	92,1
     23,9453	   0,0393661	91,7	   0,0397256	92,4
     23,9501	   0,0394753	91,9	   0,0399214	92,3
      23,955	   0,0395134	92,7	   0,0398919	92,4
     23,9599	   0,0395083	93,5	     0,04005	92,7
     23,9648	   0,0394327	93,6	    0,040318	92,8
     23,9697	   0,0396567	92,7	   0,0404056	92,9
     23,9746	   0,0398455	92,6	   0,0405605	92,9
     23,9795	   0,0400198	92,7	   0,0406885	93,0
     23,9844	   0,0402188	92,8	   0,0407167	93,0
     23,9892	    0,040305	93,2	   0,0409276	93,1
     23,9941	   0,0402743	93,2	   0,0410087	93,7
      23,999	   0,0403705	93,1	   0,0411647	93,7
     24,0039	   0,0403789	93,1	   0,0412419	93,8
     24,0088	   0,0404535	93,3	   0,0414843	93,8
     24,0137	   0,0407304	93,4	    0,041596	93,9
     24,0186	   0,0408914	93,4	   0,0417241	93,9
     24,0235	   0,0409508	93,4	   0,0418917	93,9
     24,0283	    0,040939	93,5	   0,0421073	93,9
     24,0332	   0,0413481	93,6	   0,0422132	94,2
     24,0381	   0,0416575	93,5	   0,0423079	94,3
      24,043	   0,0416974	93,8	   0,0424642	94,4
     24,0479	   0,0415747	94,2	   0,0425765	95,0
     24,0528	   0,0416483	94,2	   0,0426569	94,9
     24,0577	   0,0418706	94,4	   0,0428833	95,1
     24,0626	   0,0421092	94,6	   0,0430168	95,2
     24,0674	   0,0423464	94,5	   0,0433362	95,2
     24,0723	   0,0424984	94,6	   0,0434004	95,3
     24,0772	   0,0426769	94,5	    0,043646	95,6
     24,0821	   0,0427867	94,5	   0,0439439	95,5
      24,087	   0,0428189	95,0	   0,0442069	95,9
     24,0919	   0,0427002	95,3	   0,0442605	96,0
     24,0968	   0,0430031	95,5	   0,0444512	96,1
     24,1017	   0,0432352	95,4	   0,0444499	96,4
     24,1066	   0,0434757	95,6	    0,044667	96,5
     24,1114	   0,0435693	95,6	    0,044842	96,6
     24,1163	   0,0437282	95,7	   0,0451479	97,1
     24,1212	   0,0439266	96,0	   0,0454937	97,1
     24,1261	   0,0440937	96,2	   0,0456785	97,1
      24,131	   0,0443612	96,3	   0,0457934	97,5
     24,1359	   0,0445357	96,3	   0,0461783	97,5
     24,1408	    0,044651	96,2	   0,0463991	97,9
     24,1457	   0,0447671	96,7	   0,0465935	98,1
     24,1505	   0,0449766	96,6	   0,0468626	98,4
     24,1554	   0,0449999	97,2	   0,0470754	98,6
     24,1603	   0,0452657	97,2	   0,0471817	98,9
     24,1652	   0,0454686	97,4	   0,0475468	99,0
     24,1701	   0,0457271	97,8	   0,0478624	99,5
      24,175	    0,045837	97,8	   0,0483013	100,0
     24,1799	   0,0461436	97,6	   0,0488918	100,3
     24,1848	   0,0464609	98,1	   0,0493815	100,9
     24,1896	   0,0467328	98,2	    0,049687	101,4
     24,1945	   0,0469324	98,4	   0,0502709	102,0
     24,1994	   0,0471304	98,5	    0,050925	102,7
     24,2043	   0,0472639	98,8	   0,0516289	103,5
     24,2092	   0,0474514	99,1	   0,0522636	104,5
     24,2141	   0,0475908	99,4	    0,052985	105,3
      24,219	    0,047661	99,8	   0,0533702	106,0
     24,2239	   0,0478691	100,0	   0,0542831	107,3
     24,2287	   0,0480955	100,5	   0,0551473	108,3
     24,2336	   0,0482684	100,5	   0,0558839	109,7
     24,2385	   0,0485147	100,8	     0,05679	111,1
     24,2434	   0,0488524	101,2	   0,0576439	112,5
     24,2483	   0,0491327	101,8	   0,0580657	113,1
     24,2532	   0,0494394	102,1	   0,0588711	114,6
     24,2581	   0,0496677	102,8	   0,0596016	116,1
      24,263	   0,0498497	102,8	   0,0605248	117,5
     24,2678	   0,0503079	103,2	   0,0610784	119,1
     24,2727	   0,0506634	103,7	   0,0616037	120,7
     24,2776	   0,0511544	104,4	   0,0623365	122,1
     24,2825	   0,0514574	104,7	   0,0625297	122,8
     24,2874	   0,0519261	105,3	   0,0630231	124,4
     24,2923	   0,0521358	105,5	   0,0635066	125,6
     24,2972	   0,0525845	106,2	    0,063858	126,8
     24,3021	   0,0529168	106,7	   0,0644001	128,0
     24,3069	   0,0531186	107,6	   0,0645918	129,3
     24,3118	   0,0534613	108,1	   0,0648151	129,7
     24,3167	   0,0539157	109,0	   0,0648753	131,1
     24,3216	   0,0542766	109,9	   0,0649824	132,7
     24,3265	   0,0545656	110,1	   0,0652459	133,5
     24,3314	   0,0549714	111,1	    0,065403	134,7
     24,3363	    0,055438	112,0	   0,0656807	135,5
     24,3412	    0,055887	112,9	   0,0658261	135,8
      24,346	   0,0566231	113,8	   0,0657847	137,1
     24,3509	    0,057169	114,8	   0,0659073	137,6
     24,3558	   0,0574346	115,4	   0,0661302	138,8
     24,3607	   0,0578693	116,4	   0,0661553	139,6
     24,3656	   0,0584608	117,6	   0,0664583	140,1
     24,3705	   0,0591806	118,8	   0,0664754	140,4
     24,3754	   0,0598146	120,0	   0,0662901	141,6
     24,3803	   0,0600994	122,0	   0,0663079	142,5
     24,3851	    0,060521	123,3	   0,0665255	143,4
       24,39	   0,0607781	124,2	   0,0665987	144,0
     24,3949	   0,0613947	125,7	   0,0667107	144,0
     24,3998	   0,0617732	127,5	   0,0665291	145,2
     24,4047	   0,0626028	128,7	   0,0665317	145,5
     24,4096	   0,0632051	130,5	   0,0667594	146,0
     24,4145	   0,0636349	132,3	   0,0666008	147,0
     24,4194	   0,0639294	133,2	   0,0667173	147,4
     24,4242	   0,0642792	134,8	   0,0665878	148,7
     24,4291	    0,064629	136,6	   0,0665096	149,3
      24,434	   0,0653078	137,8	   0,0665783	149,3
     24,4389	   0,0657279	139,4	   0,0664533	150,2
     24,4438	    0,066221	140,7	   0,0663889	151,0
     24,4487	   0,0663556	141,6	   0,0664987	151,0
     24,4536	    0,066498	143,1	   0,0664164	151,8
     24,4585	    0,066705	144,6	   0,0665548	152,0
     24,4633	   0,0668059	145,7	   0,0663865	152,0
     24,4682	   0,0668652	146,9	   0,0663064	153,1
     24,4731	   0,0667669	148,2	    0,066124	153,7
      24,478	   0,0669017	149,3	   0,0662506	153,9
     24,4829	   0,0665966	149,9	   0,0661787	154,7
     24,4878	   0,0665025	150,9	   0,0660609	155,1
     24,4927	   0,0665112	151,6	   0,0658496	155,3
     24,4976	   0,0665185	152,5	   0,0658279	155,9
     24,5024	   0,0663723	153,0	   0,0658785	156,2
     24,5073	   0,0664152	153,5	    0,065848	156,7
     24,5122	   0,0663594	154,1	    0,065869	157,5
     24,5171	   0,0660584	155,3	   0,0658269	157,9
      24,522	   0,0659565	155,5	   0,0655167	158,1
     24,5269	   0,0657999	156,3	     0,06539	158,5
     24,5318	   0,0655474	156,5	   0,0657304	158,6
     24,5367	   0,0655408	156,8	    0,065862	158,9
     24,5415	     0,06547	157,3	   0,0657425	159,0
     24,5464	   0,0653331	157,8	   0,0657195	159,4
     24,5513	     0,06508	158,8	   0,0657247	159,8
     24,5562	   0,0648682	159,2	   0,0652488	160,3
     24,5611	   0,0649291	159,8	   0,0650392	160,8
      24,566	   0,0649041	159,3	   0,0651152	160,8
     24,5709	   0,0647298	160,2	   0,0650664	161,3
     24,5758	    0,064505	161,2	   0,0651288	161,7
     24,5806	   0,0645334	161,5	   0,0647949	162,3
     24,5855	   0,0645782	161,6	   0,0645081	163,0
     24,5904	   0,0646319	162,0	   0,0644221	163,1
     24,5953	   0,0646263	162,4	   0,0642062	163,4
     24,6002	   0,0646097	162,4	   0,0640293	164,3
     24,6051	   0,0647268	162,8	   0,0640082	163,7
       24,61	   0,0644335	163,3	    0,063582	165,1
     24,6149	   0,0644605	163,7	   0,0634982	165,6
     24,6197	   0,0644113	164,2	    0,063644	165,9
     24,6246	   0,0642909	164,3	   0,0638286	165,4
     24,6295	   0,0639406	164,8	   0,0639392	165,5
     24,6344	   0,0635353	165,7	    0,063668	166,0
     24,6393	   0,0634752	165,4	   0,0637751	165,8
     24,6442	   0,0632686	165,7	   0,0636795	166,3
     24,6491	   0,0630112	166,0	    0,063305	166,8
      24,654	    0,062983	166,3	   0,0630736	167,5
     24,6588	   0,0627388	166,6	   0,0631853	167,3
     24,6637	   0,0627532	167,1	   0,0628991	167,5
     24,6686	   0,0626875	167,4	     0,06268	168,2
     24,6735	   0,0626599	167,8	   0,0627913	168,2
     24,6784	   0,0626608	168,2	   0,0623293	169,0
     24,6833	   0,0627007	168,3	   0,0622882	169,7
     24,6882	   0,0627069	168,5	    0,062636	169,0
     24,6931	   0,0625671	168,8	   0,0623567	169,7
     24,6979	   0,0622401	169,0	   0,0624935	169,3
     24,7028	   0,0618447	170,1	   0,0621007	170,0
     24,7077	   0,0616228	169,9	   0,0623294	170,0
     24,7126	   0,0614233	170,4	   0,0623928	170,4
     24,7175	   0,0613053	170,5	   0,0622991	170,5
     24,7224	   0,0613697	170,9	   0,0617862	170,8
     24,7273	   0,0612039	171,2	    0,061559	171,3
     24,7322	   0,0611011	171,5	   0,0614344	171,6
      24,737	   0,0610375	171,6	   0,0613562	171,8
     24,7419	   0,0608465	171,9	    0,061379	172,0
     24,7468	   0,0610606	172,2	   0,0612251	172,3
     24,7517	   0,0610615	172,4	   0,0605172	173,2
     24,7566	   0,0606299	172,6	   0,0606706	173,0
     24,7615	   0,0602126	172,9	     0,06069	173,2
     24,7664	   0,0600428	173,3	    0,060602	173,4
     24,7713	   0,0597661	173,5	   0,0602152	173,6
     24,7761	   0,0597845	173,8	   0,0601998	174,0
      24,781	   0,0600095	174,3	   0,0602951	174,2
     24,7859	   0,0599678	174,3	   0,0601275	174,3
     24,7908	   0,0601653	174,6	   0,0599444	174,6
     24,7957	   0,0599501	174,8	   0,0599823	175,2
     24,8006	   0,0595839	175,3	   0,0598852	175,2
     24,8055	   0,0593926	175,3	   0,0595832	175,6
     24,8104	    0,059204	175,5	   0,0595122	175,9
     24,8152	   0,0589563	175,9	   0,0592203	176,0
     24,8201	   0,0587212	176,4	   0,0593406	176,4
      24,825	   0,0588129	176,4	   0,0590565	176,5
     24,8299	   0,0589243	176,5	   0,0589659	176,7
     24,8348	   0,0589581	176,6	   0,0590869	176,8
     24,8397	   0,0588581	176,9	   0,0590468	176,9
     24,8446	   0,0584305	177,3	   0,0588911	177,3
     24,8495	   0,0580105	177,6	    0,058352	177,8
     24,8543	   0,0576429	178,1	   0,0581823	177,9
     24,8592	   0,0576862	178,4	   0,0582375	178,3
     24,8641	   0,0575883	178,4	   0,0581922	178,2
      24,869	   0,0578193	178,6	   0,0581505	178,5
     24,8739	   0,0579057	178,7	   0,0581339	178,7
     24,8788	   0,0576921	178,9	   0,0582004	178,8
     24,8837	   0,0572333	179,1	   0,0580209	179,2
     24,8886	   0,0567573	179,3	   0,0576634	179,4
     24,8934	   0,0566183	180,0	   0,0571662	179,9
     24,8983	   0,0566741	179,9	   0,0570422	180,0
     24,9032	   0,0568148	180,1	   0,0571573	180,0
     24,9081	   0,0569235	180,3	   0,0572859	180,3
      24,913	   0,0566972	180,5	   0,0571409	180,4
     24,9179	   0,0563391	180,7	   0,0566965	180,7
     24,9228	   0,0560404	180,9	   0,0563572	181,3
     24,9277	   0,0559578	181,5	   0,0561868	181,5
     24,9326	   0,0556771	181,8	   0,0562275	181,7
     24,9374	   0,0559255	181,7	   0,0561461	181,7
     24,9423	   0,0560922	181,7	   0,0563566	181,9
     24,9472	   0,0559398	182,0	   0,0562435	182,2
     24,9521	    0,055487	182,2	   0,0559903	182,5
      24,957	    0,055252	182,5	   0,0556493	182,7
     24,9619	    0,054909	183,2	   0,0556578	182,9
     24,9668	   0,0550477	183,2	   0,0556186	183,0
     24,9717	   0,0551699	183,1	   0,0555978	183,2
     24,9765	   0,0550937	183,3	   0,0554223	183,4
     24,9814	   0,0546852	183,7	   0,0549665	183,7
     24,9863	   0,0545015	183,7	   0,0546806	184,3
     24,9912	   0,0542945	184,1	   0,0546745	184,1
     24,9961	   0,0543015	184,5	   0,0546983	184,1
      25,001	   0,0544341	184,4	   0,0548054	184,3
     25,0059	    0,054477	184,5	   0,0547432	184,6
     25,0108	   0,0539015	184,8	   0,0541762	185,2
     25,0156	   0,0536657	185,2	   0,0540193	185,3
     25,0205	   0,0534828	185,5	   0,0540526	185,2
     25,0254	    0,053513	185,4	   0,0541059	185,5
     25,0303	   0,0537178	185,5	    0,054272	185,7
     25,0352	   0,0535107	185,8	   0,0540082	186,0
     25,0401	   0,0530712	185,9	   0,0536109	186,1
      25,045	   0,0526499	186,5	   0,0532386	186,3
     25,0499	   0,0526186	186,5	   0,0532251	186,3
     25,0547	   0,0527473	186,8	   0,0534397	186,6
     25,0596	   0,0529389	186,6	   0,0531959	186,8
     25,0645	   0,0525643	186,9	   0,0528453	187,2
     25,0694	   0,0521588	187,5	   0,0525986	187,1
     25,0743	   0,0518623	187,8	   0,0525657	187,3
     25,0792	   0,0520259	187,7	   0,0525134	187,8
     25,0841	   0,0522482	188,0	   0,0525318	187,7
      25,089	   0,0520056	188,1	   0,0522534	188,0
     25,0938	   0,0515399	188,1	   0,0518564	188,1
     25,0987	   0,0512858	188,7	    0,051925	188,3
     25,1036	   0,0514026	188,7	   0,0521429	188,5
     25,1085	   0,0515205	188,8	   0,0521104	188,7
     25,1134	   0,0514487	189,0	   0,0518768	188,7
     25,1183	   0,0508468	189,0	   0,0512249	189,0
     25,1232	   0,0506211	189,5	   0,0512239	189,0
     25,1281	   0,0506976	189,6	   0,0511778	189,6
     25,1329	   0,0509798	189,7	     0,05097	189,9
     25,1378	   0,0508589	189,9	   0,0506076	190,0
     25,1427	   0,0502684	190,1	   0,0506188	190,3
     25,1476	   0,0499086	190,3	   0,0507743	190,4
     25,1525	    0,050205	190,5	   0,0507884	190,4
     25,1574	   0,0502155	190,6	   0,0502652	190,9
     25,1623	   0,0498073	190,8	   0,0499248	191,2
     25,1672	   0,0495628	190,7	   0,0500651	191,0
      25,172	     0,04933	191,2	    0,050252	191,2
     25,1769	    0,049792	191,3	   0,0500921	191,4
     25,1818	   0,0496327	191,4	   0,0496471	191,7
     25,1867	   0,0490699	191,5	   0,0495203	191,8
     25,1916	   0,0487486	192,1	   0,0497308	192,0
     25,1965	    0,048964	192,0	   0,0495701	192,0
     25,2014	   0,0490555	192,0	   0,0491102	192,3
     25,2063	   0,0487426	192,5	    0,048944	192,5
     25,2111	   0,0481949	192,6	    0,049198	192,6
      25,216	   0,0482899	193,0	   0,0492424	192,7
     25,2209	   0,0486444	192,7	   0,0485716	193,1
     25,2258	   0,0483012	192,9	   0,0483137	193,1
     25,2307	   0,0479351	193,1	   0,0484832	193,1
     25,2356	   0,0476896	193,5	   0,0487491	193,4
     25,2405	   0,0479256	193,7	   0,0484756	193,4
     25,2454	   0,0479599	193,6	   0,0479004	193,7
     25,2502	   0,0471566	193,7	   0,0480538	193,9
     25,2551	   0,0472077	194,1	   0,0482701	194,1
       25,26	   0,0475703	194,0	   0,0476797	194,1
     25,2649	   0,0475985	194,3	   0,0473762	194,4
     25,2698	   0,0471101	194,4	   0,0475382	194,4
     25,2747	    0,046643	194,9	   0,0477615	194,8
     25,2796	   0,0468313	194,9	   0,0472661	194,8
     25,2845	   0,0468138	194,8	   0,0466912	194,9
     25,2893	   0,0462376	195,3	   0,0470686	195,3
     25,2942	   0,0461898	195,5	   0,0472191	195,3
     25,2991	   0,0463225	195,5	   0,0469625	195,5
      25,304	   0,0464529	195,7	   0,0465333	195,7
     25,3089	   0,0457436	195,6	   0,0465711	196,2
     25,3138	   0,0457645	195,7	   0,0466972	196,2
     25,3187	   0,0460545	195,9	   0,0461064	195,9
     25,3236	   0,0459592	195,8	   0,0458305	196,4
     25,3284	   0,0453406	196,3	   0,0463548	196,4
     25,3333	   0,0452188	196,6	   0,0461468	196,5
     25,3382	   0,0455652	196,8	     0,04561	196,5
     25,3431	   0,0450712	196,9	   0,0458356	196,8
      25,348	   0,0448036	197,1	   0,0458741	196,9
     25,3529	   0,0450099	197,1	   0,0456487	197,0
     25,3578	   0,0450455	197,2	   0,0453357	197,2
     25,3627	   0,0445756	197,6	   0,0453481	197,4
     25,3675	   0,0447528	197,6	   0,0453392	197,5
     25,3724	   0,0447396	197,6	    0,044645	198,2
     25,3773	   0,0442246	198,0	   0,0448362	197,6
     25,3822	   0,0439394	198,0	   0,0451285	198,0
     25,3871	   0,0439465	198,2	   0,0449052	198,2
      25,392	   0,0442593	197,9	    0,044226	198,5
     25,3969	   0,0437815	198,4	   0,0447183	198,3
     25,4018	   0,0437757	199,1	   0,0443999	198,7
     25,4066	   0,0439973	198,6	   0,0438601	198,7
     25,4115	    0,044081	199,0	   0,0438791	199,1
     25,4164	    0,043543	199,1	   0,0443014	199,0
     25,4213	   0,0435755	198,8	   0,0438163	199,1
     25,4262	   0,0433363	199,3	   0,0433331	199,2
     25,4311	    0,043142	199,3	   0,0438617	199,7
      25,436	   0,0431891	199,4	    0,043715	199,7
     25,4409	   0,0430866	199,7	   0,0431502	200,0
     25,4457	    0,042735	-159,9	   0,0431464	199,8
     25,4506	   0,0426325	-160,1	   0,0432905	-159,7
     25,4555	   0,0426976	-159,7	   0,0429549	-159,8
     25,4604	   0,0424032	-158,9	   0,0428512	-159,7
     25,4653	   0,0427542	-159,3	    0,042904	-159,3
     25,4702	   0,0424951	-159,5	   0,0427808	-159,5
     25,4751	   0,0422836	-159,2	   0,0424774	-159,2
       25,48	   0,0418507	-158,9	    0,042621	-159,2
     25,4848	   0,0418559	-159,0	     0,04242	-159,3
     25,4897	   0,0418048	-159,3	   0,0422422	-158,5
     25,4946	   0,0414193	-158,4	   0,0422102	-158,6
     25,4995	   0,0413691	-158,2	    0,041858	-158,6
     25,5044	   0,0414427	-158,5	   0,0416547	-158,2
     25,5093	   0,0413315	-158,2	   0,0418129	-158,3
     25,5142	   0,0412935	-158,0	    0,041901	-158,2
     25,5191	   0,0412565	-157,7	   0,0412903	-157,6
     25,5239	    0,040846	-157,4	   0,0414133	-157,9
     25,5288	   0,0406139	-157,1	   0,0414237	-157,7
     25,5337	    0,040993	-157,8	   0,0408673	-157,2
     25,5386	   0,0409393	-157,6	   0,0410218	-157,1
     25,5435	   0,0403166	-157,4	   0,0412207	-157,3
     25,5484	   0,0403061	-156,9	   0,0407177	-157,1
     25,5533	   0,0401673	-157,1	   0,0408135	-157,2
     25,5582	   0,0401131	-157,3	   0,0407204	-157,1
      25,563	   0,0402597	-156,9	    0,040316	-156,6
     25,5679	   0,0398975	-156,3	   0,0403542	-156,7
     25,5728	   0,0395925	-156,6	   0,0405344	-156,5
     25,5777	   0,0399932	-156,5	   0,0400715	-156,3
     25,5826	   0,0396051	-156,0	   0,0401113	-156,5
     25,5875	   0,0395228	-156,5	   0,0400794	-156,1
     25,5924	   0,0394797	-155,8	   0,0396609	-156,1
     25,5973	   0,0390108	-155,6	   0,0397523	-155,8
     25,6021	   0,0393064	-155,8	   0,0397349	-155,7
      25,607	   0,0390473	-155,5	   0,0392693	-155,3
     25,6119	   0,0387814	-155,3	   0,0395621	-155,4
     25,6168	   0,0388344	-155,2	   0,0392964	-155,5
     25,6217	   0,0387347	-155,0	   0,0391572	-154,9
     25,6266	   0,0384845	-154,5	   0,0392855	-154,9
     25,6315	   0,0386188	-154,8	   0,0391571	-155,1
     25,6364	   0,0382721	-154,8	    0,038929	-154,8
     25,6413	   0,0379735	-154,6	   0,0388631	-154,7
     25,6461	   0,0381982	-154,9	   0,0386461	-154,7
      25,651	   0,0381714	-154,3	   0,0385539	-154,5
     25,6559	   0,0379602	-154,6	   0,0385099	-154,4
     25,6608	   0,0379711	-154,2	   0,0382796	-154,3
     25,6657	   0,0375997	-153,8	   0,0382522	-153,5
     25,6706	   0,0377476	-153,7	   0,0382607	-154,0
     25,6755	   0,0375965	-153,8	   0,0379488	-153,4
     25,6804	   0,0374293	-153,5	   0,0381914	-153,7
     25,6852	   0,0373999	-153,6	   0,0377028	-153,8
     25,6901	   0,0372471	-153,4	   0,0375606	-153,2
      25,695	   0,0369832	-153,2	   0,0376692	-153,1
     25,6999	   0,0370758	-152,9	   0,0375678	-153,2
     25,7048	   0,0366092	-152,9	   0,0376019	-153,0
     25,7097	   0,0364922	-152,6	   0,0372991	-153,3
     25,7146	   0,0367951	-152,5	   0,0369803	-152,5
     25,7195	   0,0367308	-152,6	   0,0370539	-152,5
     25,7243	    0,036492	-151,8	   0,0371113	-152,7
     25,7292	   0,0362039	-152,2	   0,0368021	-152,2
     25,7341	   0,0360018	-151,9	   0,0368705	-152,4
      25,739	   0,0361427	-151,9	   0,0367024	-152,1
     25,7439	   0,0359841	-152,0	   0,0366973	-152,0
     25,7488	   0,0358808	-151,4	   0,0365322	-152,0
     25,7537	   0,0357498	-151,5	   0,0364387	-151,8
     25,7586	   0,0353882	-150,4	   0,0363722	-151,7
     25,7634	   0,0355938	-151,3	   0,0361373	-151,4
     25,7683	   0,0354499	-150,5	   0,0360092	-151,2
     25,7732	   0,0355219	-150,5	   0,0359501	-151,3
     25,7781	   0,0352363	-150,6	   0,0357595	-150,9
      25,783	   0,0350684	-150,3	   0,0357684	-150,9
     25,7879	   0,0352081	-150,2	   0,0357172	-150,8
     25,7928	   0,0348795	-150,0	   0,0355522	-150,6
     25,7977	   0,0349493	-150,5	   0,0353476	-150,7
     25,8025	   0,0348296	-150,1	   0,0350733	-150,0
     25,8074	   0,0345645	-149,9	   0,0352675	-150,3
     25,8123	   0,0348275	-150,1	   0,0352678	-150,2
     25,8172	   0,0344167	-149,5	   0,0351303	-150,2
     25,8221	   0,0344319	-149,6	   0,0349231	-149,8
      25,827	   0,0344779	-149,6	   0,0347947	-149,4
     25,8319	     0,03433	-149,5	   0,0347899	-149,9
     25,8368	   0,0342783	-149,6	   0,0344428	-149,3
     25,8416	   0,0339757	-148,9	   0,0344572	-149,1
     25,8465	    0,033853	-148,5	   0,0344805	-149,1
     25,8514	   0,0338446	-148,7	    0,034332	-149,1
     25,8563	    0,033849	-148,6	   0,0341954	-148,8
     25,8612	   0,0337818	-148,7	   0,0338739	-148,6
     25,8661	   0,0336311	-148,3	   0,0340334	-148,8
      25,871	   0,0336405	-148,4	   0,0338662	-148,3
     25,8759	    0,033411	-147,8	   0,0338021	-148,4
     25,8807	     0,03331	-147,9	   0,0336742	-148,4
     25,8856	   0,0331516	-147,9	   0,0335675	-147,9
     25,8905	   0,0330225	-147,8	   0,0335313	-148,0
     25,8954	   0,0329983	-147,4	   0,0332929	-147,6
     25,9003	   0,0329313	-147,1	    0,033156	-147,7
     25,9052	   0,0328634	-147,4	   0,0330312	-147,6
     25,9101	   0,0326593	-147,0	   0,0331537	-147,3
      25,915	   0,0327369	-147,2	   0,0328745	-147,6
     25,9198	   0,0325356	-146,7	   0,0327801	-146,9
     25,9247	   0,0325435	-146,7	   0,0327784	-147,3
     25,9296	   0,0323562	-145,7	   0,0326441	-147,0
     25,9345	   0,0321722	-146,2	   0,0326206	-147,1
     25,9394	    0,032123	-146,4	   0,0322725	-146,5
     25,9443	   0,0319405	-145,8	   0,0323046	-146,3
     25,9492	   0,0319244	-146,1	   0,0321334	-146,2
     25,9541	   0,0317468	-145,6	    0,032164	-146,3
     25,9589	      0,0317	-146,1	   0,0320274	-146,4
     25,9638	   0,0315331	-144,7	   0,0319823	-145,4
     25,9687	   0,0315156	-145,8	   0,0317878	-146,1
     25,9736	   0,0314051	-144,6	   0,0317303	-144,9
     25,9785	   0,0312902	-145,6	   0,0317086	-145,4
     25,9834	   0,0311535	-144,2	   0,0316396	-145,5
     25,9883	   0,0310018	-144,1	   0,0315296	-145,2
     25,9932	   0,0310543	-145,1	   0,0313573	-145,4
      25,998	   0,0308625	-143,4	   0,0313253	-144,9
     26,0029	   0,0307605	-144,9	   0,0311234	-145,0
     26,0078	   0,0307602	-143,9	   0,0310639	-144,6
     26,0127	   0,0306782	-144,6	    0,030875	-145,0
     26,0176	   0,0307096	-144,5	   0,0309074	-144,9
     26,0225	   0,0305522	-144,6	   0,0307494	-145,0
     26,0274	   0,0303989	-144,4	   0,0305865	-143,3
     26,0323	   0,0303828	-144,3	    0,030651	-144,6
     26,0371	   0,0302449	-144,1	   0,0305166	-144,7
      26,042	    0,030126	-144,2	   0,0303231	-144,4
     26,0469	   0,0300011	-143,8	   0,0303489	-144,2
     26,0518	   0,0299908	-143,6	   0,0302468	-144,0
     26,0567	   0,0297604	-143,7	   0,0300564	-143,7
     26,0616	    0,029757	-143,7	   0,0299671	-144,1
     26,0665	   0,0295976	-143,5	   0,0299646	-143,7
     26,0714	   0,0295004	-143,1	   0,0298564	-143,6
     26,0762	   0,0293811	-143,2	   0,0298146	-143,6
     26,0811	   0,0293737	-143,0	    0,029668	-143,5
      26,086	   0,0291975	-143,0	   0,0294799	-143,4
     26,0909	   0,0292221	-142,8	   0,0294623	-143,0
     26,0958	   0,0289181	-142,8	   0,0293213	-143,1
     26,1007	   0,0288488	-142,6	   0,0292436	-143,0
     26,1056	   0,0286761	-142,6	    0,029161	-142,8
     26,1105	   0,0286337	-142,6	   0,0289586	-142,6
     26,1153	   0,0285549	-142,4	   0,0288541	-142,8
     26,1202	   0,0284378	-142,4	   0,0289178	-142,4
     26,1251	   0,0283507	-142,1	   0,0287258	-142,3
       26,13	    0,028222	-142,0	   0,0285275	-142,3
     26,1349	   0,0280193	-142,0	   0,0284662	-142,2
     26,1398	   0,0280019	-141,9	    0,028258	-142,3
     26,1447	    0,027892	-141,9	   0,0282428	-142,1
     26,1496	   0,0278518	-141,9	   0,0281849	-141,9
     26,1544	   0,0276945	-141,8	   0,0280304	-141,9
     26,1593	   0,0276255	-141,7	   0,0279254	-141,6
     26,1642	   0,0274671	-141,4	   0,0278792	-141,8
     26,1691	   0,0274532	-141,2	   0,0276522	-141,7
      26,174	   0,0272819	-141,3	   0,0275568	-141,6
     26,1789	   0,0272242	-141,4	    0,027493	-141,4
     26,1838	   0,0270392	-141,2	   0,0273979	-141,3
     26,1887	   0,0270099	-141,0	   0,0272607	-141,3
     26,1935	   0,0268107	-141,2	   0,0272501	-141,2
     26,1984	     0,02678	-140,8	   0,0269883	-141,1
     26,2033	   0,0267501	-140,7	   0,0269882	-141,1
     26,2082	   0,0266116	-140,6	   0,0268725	-140,9
     26,2131	   0,0264162	-140,5	   0,0268651	-140,7
      26,218	   0,0263195	-140,7	   0,0266615	-140,9
     26,2229	   0,0261884	-140,5	   0,0266585	-140,7
     26,2278	   0,0261102	-140,7	   0,0263982	-140,5
     26,2326	   0,0260679	-140,5	   0,0262885	-140,4
     26,2375	   0,0259995	-140,2	   0,0262182	-140,4
     26,2424	   0,0258112	-140,2	   0,0261867	-140,5
     26,2473	   0,0257266	-140,1	   0,0260514	-140,5
     26,2522	   0,0255314	-140,0	    0,025926	-140,3
     26,2571	    0,025533	-139,9	   0,0257772	-140,0
      26,262	   0,0255811	-139,8	    0,025795	-140,0
     26,2669	   0,0253396	-140,0	   0,0256577	-140,1
     26,2717	   0,0253344	-139,7	   0,0255477	-139,9
     26,2766	   0,0251394	-139,7	   0,0255169	-139,8
     26,2815	   0,0250909	-139,6	   0,0253889	-139,8
     26,2864	   0,0250079	-139,5	   0,0253005	-139,7
     26,2913	   0,0248309	-139,5	   0,0252059	-139,8
     26,2962	   0,0248091	-139,3	   0,0249002	-139,5
     26,3011	    0,024662	-139,2	   0,0249179	-139,6
      26,306	   0,0246311	-139,2	   0,0248815	-139,4
     26,3109	   0,0243627	-139,2	   0,0248056	-139,3
     26,3157	   0,0243899	-139,0	   0,0246236	-139,4
     26,3206	   0,0242751	-138,9	    0,024532	-139,3
     26,3255	   0,0242841	-138,9	   0,0244253	-139,1
     26,3304	   0,0239661	-139,2	   0,0243989	-138,9
     26,3353	   0,0240077	-138,8	   0,0241854	-139,2
     26,3402	   0,0238969	-138,7	    0,024117	-138,9
     26,3451	    0,023769	-138,8	   0,0240385	-138,8
       26,35	   0,0237854	-138,5	   0,0239204	-138,7
     26,3548	    0,023636	-138,5	   0,0238734	-138,6
     26,3597	   0,0236371	-138,4	    0,023721	-138,8
     26,3646	   0,0233197	-138,5	   0,0235842	-138,6
     26,3695	   0,0233544	-138,3	   0,0235942	-138,5
     26,3744	   0,0232071	-138,3	   0,0234972	-138,5
     26,3793	   0,0230726	-138,3	   0,0233204	-138,3
     26,3842	    0,022964	-138,1	   0,0232802	-138,4
     26,3891	   0,0229044	-138,2	   0,0232729	-138,2
     26,3939	   0,0228558	-138,2	   0,0231499	-138,3
     26,3988	   0,0227394	-138,1	   0,0229382	-138,4
     26,4037	   0,0226763	-137,8	   0,0228178	-138,1
     26,4086	   0,0225574	-138,0	   0,0228071	-138,1
     26,4135	   0,0224056	-138,0	   0,0227184	-138,0
     26,4184	   0,0224866	-137,8	   0,0225569	-137,9
     26,4233	   0,0222613	-137,7	   0,0225562	-137,9
     26,4282	   0,0222461	-137,5	    0,022499	-137,8
      26,433	   0,0221126	-137,5	   0,0224258	-137,9
     26,4379	    0,021996	-137,8	    0,022283	-137,7
     26,4428	   0,0220241	-137,5	    0,022176	-137,7
     26,4477	   0,0218653	-137,6	   0,0221147	-137,7
     26,4526	   0,0216764	-137,3	   0,0218366	-137,9
     26,4575	   0,0215923	-137,1	   0,0217992	-137,6
     26,4624	   0,0215468	-137,4	    0,021826	-137,4
     26,4673	   0,0215132	-137,2	   0,0217465	-137,4
     26,4721	    0,021389	-137,1	   0,0215416	-137,3
      26,477	    0,021286	-136,9	   0,0213997	-137,2
     26,4819	   0,0212856	-137,2	   0,0213748	-137,0
     26,4868	   0,0211736	-136,8	   0,0214117	-137,2
     26,4917	   0,0210104	-136,8	   0,0212768	-137,2
     26,4966	    0,020996	-136,7	   0,0211505	-136,9
     26,5015	   0,0207863	-136,9	   0,0210979	-137,2
     26,5064	   0,0207732	-136,8	   0,0209531	-136,8
     26,5112	   0,0207829	-136,8	   0,0208814	-136,9
     26,5161	   0,0206592	-136,2	   0,0208796	-136,7
      26,521	   0,0206023	-136,8	   0,0207396	-136,8
     26,5259	    0,020522	-136,8	   0,0205182	-136,6
     26,5308	   0,0204294	-136,4	   0,0205652	-137,1
     26,5357	   0,0202214	-136,5	   0,0204796	-136,8
     26,5406	   0,0202352	-136,6	   0,0202545	-136,5
     26,5455	   0,0201417	-136,3	   0,0203168	-136,7
     26,5503	   0,0200571	-136,2	   0,0202343	-136,3
     26,5552	   0,0200143	-136,6	    0,020142	-136,6
     26,5601	   0,0198593	-136,0	   0,0200508	-136,7
      26,565	   0,0198441	-136,2	   0,0198177	-136,5
     26,5699	    0,019717	-136,0	   0,0198756	-136,4
     26,5748	   0,0195828	-136,0	   0,0198228	-136,5
     26,5797	   0,0195653	-136,1	   0,0196734	-136,5
     26,5846	   0,0194412	-136,1	   0,0197102	-136,3
     26,5894	   0,0193392	-136,2	    0,019556	-136,4
     26,5943	   0,0194674	-136,2	    0,019396	-136,1
     26,5992	    0,019317	-135,7	   0,0194497	-136,4
     26,6041	   0,0192614	-136,0	   0,0193213	-136,3
      26,609	   0,0191318	-136,0	   0,0193306	-136,3
     26,6139	   0,0190153	-135,9	    0,019272	-136,2
     26,6188	   0,0190081	-135,9	   0,0190871	-136,4
     26,6237	   0,0188824	-135,9	   0,0190449	-136,1
     26,6285	   0,0188554	-135,6	   0,0189459	-136,2
     26,6334	   0,0187677	-135,8	   0,0188493	-135,9
     26,6383	   0,0186113	-135,9	   0,0188579	-136,2
     26,6432	   0,0185711	-135,6	   0,0187395	-136,2
     26,6481	   0,0185119	-135,6	   0,0186166	-136,0
      26,653	   0,0183768	-135,6	   0,0184909	-135,9
     26,6579	   0,0181821	-135,5	   0,0185474	-135,9
     26,6628	   0,0182085	-135,8	   0,0183442	-135,7
     26,6676	   0,0181646	-135,5	   0,0183942	-136,0
     26,6725	   0,0180575	-135,6	   0,0181751	-135,8
     26,6774	   0,0180677	-135,7	   0,0181325	-135,8
     26,6823	   0,0178646	-135,6	   0,0181101	-135,5
     26,6872	   0,0178214	-135,6	   0,0180666	-135,7
     26,6921	   0,0177502	-135,2	   0,0178832	-135,6
      26,697	   0,0177227	-135,2	   0,0179378	-135,8
     26,7019	   0,0176998	-135,6	   0,0178136	-135,5
     26,7067	   0,0176977	-135,5	   0,0177536	-135,9
     26,7116	   0,0175175	-135,1	   0,0176883	-135,4
     26,7165	   0,0174732	-135,6	   0,0176829	-135,6
     26,7214	   0,0173847	-135,4	   0,0175258	-135,6
     26,7263	   0,0173023	-135,5	   0,0174401	-135,3
     26,7312	   0,0173028	-135,1	   0,0174098	-135,6
     26,7361	   0,0171577	-135,3	   0,0173297	-135,7
      26,741	   0,0171261	-135,2	    0,017242	-135,6
     26,7458	   0,0168893	-135,2	   0,0172785	-135,3
     26,7507	   0,0170093	-135,2	   0,0171468	-135,7
     26,7556	   0,0169444	-135,1	   0,0170212	-135,1
     26,7605	   0,0167879	-135,1	   0,0170229	-135,4
     26,7654	   0,0167981	-135,0	     0,01687	-135,4
     26,7703	   0,0167144	-135,2	   0,0168906	-135,4
     26,7752	   0,0167036	-135,0	   0,0167625	-135,4
     26,7801	   0,0165423	-134,8	    0,016766	-135,3
     26,7849	   0,0164916	-135,1	   0,0165989	-135,4
     26,7898	   0,0164088	-135,2	   0,0166193	-135,4
     26,7947	   0,0163457	-134,8	   0,0164704	-135,2
     26,7996	   0,0163693	-135,0	   0,0164876	-135,1
     26,8045	   0,0162755	-134,9	   0,0164334	-135,5
     26,8094	   0,0160941	-134,9	   0,0163164	-135,2
     26,8143	    0,016067	-135,1	   0,0162569	-135,1
     26,8192	   0,0160683	-135,0	   0,0162403	-135,2
      26,824	   0,0159804	-134,8	     0,01617	-135,5
     26,8289	   0,0159643	-135,1	   0,0160562	-135,4
     26,8338	   0,0159376	-134,9	   0,0160455	-135,2
     26,8387	   0,0157853	-134,9	   0,0159695	-135,4
     26,8436	    0,015722	-135,0	   0,0159292	-134,9
     26,8485	    0,015714	-135,0	   0,0158025	-135,4
     26,8534	   0,0153495	-134,7	    0,015772	-135,3
     26,8583	   0,0155021	-135,0	   0,0156798	-135,4
     26,8631	    0,015407	-135,2	   0,0156492	-135,2
      26,868	    0,015445	-135,2	    0,015585	-135,3
     26,8729	   0,0153713	-134,9	   0,0155442	-135,3
     26,8778	   0,0154082	-134,9	   0,0154636	-135,3
     26,8827	   0,0152644	-135,1	   0,0154374	-135,3
     26,8876	   0,0151934	-134,9	   0,0153697	-135,4
     26,8925	   0,0151819	-135,0	   0,0152635	-135,2
     26,8974	   0,0151208	-134,8	   0,0152417	-135,2
     26,9022	   0,0150397	-134,9	   0,0151286	-135,2
     26,9071	   0,0150486	-135,1	   0,0150945	-135,3
      26,912	   0,0145669	-134,7	   0,0150343	-135,1
     26,9169	   0,0147787	-135,2	   0,0150196	-135,1
     26,9218	   0,0149089	-134,8	   0,0149812	-135,3
     26,9267	   0,0147711	-134,7	    0,014868	-135,5
     26,9316	   0,0147355	-135,0	   0,0148194	-135,5
     26,9365	   0,0147494	-134,9	    0,014699	-135,4
     26,9413	   0,0146824	-135,0	   0,0146328	-135,3
     26,9462	   0,0146833	-134,8	   0,0146565	-135,3
     26,9511	    0,014503	-134,9	   0,0146115	-135,6
      26,956	   0,0144289	-135,1	   0,0144982	-135,5
     26,9609	   0,0144124	-135,2	   0,0143436	-135,3
     26,9658	     0,01441	-135,1	   0,0143435	-135,6
     26,9707	   0,0143757	-134,9	    0,014376	-135,5
     26,9756	   0,0142269	-135,2	   0,0143414	-135,8
     26,9804	   0,0142604	-135,2	   0,0142198	-135,6
     26,9853	   0,0141088	-134,8	    0,014205	-135,3
     26,9902	   0,0140152	-135,2	   0,0141022	-135,3
     26,9951	    0,014014	-135,4	   0,0139502	-135,4
          27	   0,0140545	-135,4	   0,0140379	-134,8

