X-Data [Hz]	Laser (M - Filtered) [m/s]	Phase [Deg]	Laser (M - Filtered) [m/s]	Phase [Deg]	
	003: [06-04-24 10:11]		005: [06-04-24 10:16]	
         120	  0,00603684	58,3	  0,00734332	61,9
     120,088	  0,00657594	60,1	  0,00709837	64,5
     120,176	   0,0068581	63,3	  0,00695223	62,2
     120,264	  0,00684681	64,3	  0,00645313	59,7
     120,352	  0,00629808	56,0	  0,00628372	56,4
      120,44	  0,00665286	57,0	  0,00635823	62,0
     120,528	  0,00696092	65,4	  0,00651772	63,2
     120,616	  0,00671928	58,5	  0,00720909	63,6
     120,704	  0,00729089	64,2	  0,00632267	55,7
     120,792	  0,00670447	62,4	  0,00671108	62,3
      120,88	  0,00721104	63,6	  0,00671153	60,9
     120,968	  0,00673682	62,4	  0,00678192	65,4
     121,056	  0,00708173	63,5	  0,00717199	63,0
     121,144	  0,00701187	62,6	  0,00672952	59,6
     121,232	  0,00733955	62,0	  0,00710608	64,8
      121,32	  0,00688316	64,2	  0,00697473	61,0
     121,408	  0,00740998	66,7	  0,00706948	62,2
     121,496	   0,0071997	60,4	  0,00699719	60,9
     121,584	   0,0069634	64,0	  0,00686886	63,3
     121,672	  0,00737027	63,0	  0,00725391	63,4
      121,76	  0,00688634	57,2	  0,00677472	61,2
     121,848	  0,00724902	63,9	   0,0073424	64,3
     121,935	  0,00735764	63,8	  0,00690449	62,9
     122,023	  0,00769505	63,2	  0,00708932	58,8
     122,111	  0,00714896	58,8	  0,00750824	63,9
     122,199	  0,00729721	64,1	  0,00729644	64,7
     122,287	  0,00748035	64,2	  0,00688944	55,8
     122,375	  0,00760091	62,8	  0,00699894	57,9
     122,463	  0,00735733	58,5	  0,00712549	57,2
     122,551	  0,00732406	58,7	   0,0077878	62,8
     122,639	  0,00720312	60,3	  0,00768722	67,3
     122,727	  0,00757307	61,6	  0,00742592	64,2
     122,815	  0,00734196	61,3	  0,00737071	62,1
     122,903	   0,0074704	60,4	  0,00740647	62,9
     122,991	  0,00748427	59,0	  0,00732557	60,2
     123,079	   0,0074271	56,2	  0,00740945	59,6
     123,167	  0,00751734	58,8	  0,00738813	55,8
     123,255	  0,00767161	57,9	  0,00757847	58,1
     123,343	  0,00800239	58,6	  0,00755451	60,1
     123,431	  0,00805192	59,7	  0,00787422	58,4
     123,519	  0,00811384	63,3	  0,00757484	59,4
     123,607	  0,00798363	63,1	  0,00789814	65,1
     123,695	  0,00790526	58,4	  0,00812693	62,9
     123,783	  0,00826387	62,3	  0,00820123	62,3
     123,871	  0,00853843	66,9	  0,00763324	60,0
     123,959	  0,00834761	66,1	  0,00801205	62,5
     124,047	  0,00777674	60,8	  0,00828007	64,5
     124,135	  0,00802901	58,4	  0,00824877	62,8
     124,223	  0,00853101	61,2	  0,00796354	59,6
     124,311	   0,0082337	61,4	   0,0082784	65,8
     124,399	  0,00832867	62,2	  0,00849932	62,1
     124,487	  0,00869082	62,9	  0,00823398	58,7
     124,575	  0,00834541	60,1	  0,00810445	59,0
     124,663	  0,00823199	58,0	   0,0085183	65,1
     124,751	  0,00874633	63,8	  0,00823566	58,5
     124,839	  0,00839795	62,1	  0,00848113	65,3
     124,927	  0,00878765	61,4	  0,00829569	53,4
     125,015	  0,00841346	62,1	  0,00878073	66,2
     125,103	  0,00881188	64,8	  0,00829556	59,6
     125,191	   0,0088267	59,8	  0,00848988	64,7
     125,279	  0,00866233	63,5	   0,0087736	62,1
     125,367	  0,00907447	60,8	  0,00859426	60,1
     125,455	  0,00880652	58,4	  0,00869023	61,4
     125,543	   0,0088157	61,2	  0,00919512	63,7
     125,631	  0,00926314	62,6	  0,00865699	58,1
     125,718	  0,00903053	59,9	  0,00925721	64,4
     125,806	   0,0093943	61,7	  0,00893069	61,5
     125,894	  0,00906497	57,2	  0,00902688	59,4
     125,982	    0,009091	60,7	  0,00925343	62,2
      126,07	  0,00946352	64,0	  0,00904676	63,6
     126,158	  0,00953957	63,1	  0,00905101	60,5
     126,246	  0,00967881	63,8	  0,00911963	62,5
     126,334	  0,00944043	59,4	  0,00931665	59,6
     126,422	  0,00936408	59,8	  0,00960233	61,6
      126,51	  0,00963865	58,3	  0,00952752	63,8
     126,598	  0,00960896	59,1	  0,00943688	61,6
     126,686	  0,00993646	57,6	  0,00936078	60,0
     126,774	  0,00998415	60,1	  0,00935914	58,9
     126,862	  0,00968147	58,6	  0,00942432	59,1
      126,95	  0,00975774	62,1	  0,00946765	59,6
     127,038	  0,00981728	60,6	  0,00926375	60,5
     127,126	  0,00982751	61,3	  0,00970678	57,1
     127,214	   0,0100304	60,4	  0,00980875	63,0
     127,302	   0,0103872	59,7	   0,0100044	65,5
      127,39	   0,0104581	60,0	   0,0101915	64,7
     127,478	    0,010393	63,1	   0,0100009	60,7
     127,566	   0,0103855	65,2	   0,0100453	62,7
     127,654	    0,010426	62,1	   0,0101598	62,5
     127,742	   0,0102829	61,6	   0,0104841	61,6
      127,83	   0,0106666	59,4	   0,0105222	64,5
     127,918	    0,010856	60,0	   0,0103431	60,4
     128,006	   0,0107217	62,8	   0,0104013	56,9
     128,094	   0,0106878	60,1	   0,0103679	58,5
     128,182	   0,0109818	63,7	   0,0105014	64,3
      128,27	   0,0109283	61,1	   0,0106828	64,4
     128,358	   0,0110488	60,4	   0,0108681	62,6
     128,446	   0,0110999	65,3	   0,0107691	62,8
     128,534	   0,0110535	59,0	   0,0111273	59,7
     128,622	    0,011359	58,6	   0,0110044	60,9
      128,71	   0,0112646	63,7	   0,0110282	63,9
     128,798	   0,0112454	58,9	   0,0110823	62,6
     128,886	   0,0114907	61,8	   0,0110211	59,1
     128,974	   0,0112721	62,5	   0,0111404	65,0
     129,062	    0,011867	60,7	   0,0110703	60,3
      129,15	   0,0117362	59,3	    0,011157	63,0
     129,238	    0,011707	63,2	   0,0114378	63,0
     129,326	   0,0119865	62,6	   0,0114679	62,2
     129,413	   0,0120866	59,9	   0,0114394	60,7
     129,501	    0,011773	61,0	   0,0115637	63,5
     129,589	    0,012193	62,9	   0,0117485	59,0
     129,677	   0,0123806	61,4	   0,0118713	59,3
     129,765	   0,0122141	59,1	   0,0117603	65,3
     129,853	   0,0123785	59,3	   0,0123173	57,0
     129,941	   0,0124367	64,1	   0,0119529	63,5
     130,029	   0,0124654	63,6	   0,0122797	62,5
     130,117	   0,0125695	62,1	   0,0120816	60,0
     130,205	   0,0127922	62,4	    0,012368	57,4
     130,293	   0,0130541	63,2	   0,0125369	61,8
     130,381	   0,0131349	63,7	   0,0125426	59,1
     130,469	   0,0130757	62,8	   0,0128016	58,8
     130,557	   0,0131624	62,3	    0,012928	58,0
     130,645	   0,0135225	59,8	   0,0127535	62,9
     130,733	   0,0136425	61,2	   0,0130751	58,0
     130,821	   0,0133527	58,6	   0,0129339	65,6
     130,909	   0,0134209	58,9	   0,0129643	62,6
     130,997	     0,01376	58,9	    0,013459	59,9
     131,085	   0,0140421	57,6	     0,01372	61,9
     131,173	    0,014048	62,0	   0,0134832	63,7
     131,261	   0,0142222	61,4	   0,0135852	59,5
     131,349	   0,0143234	60,7	   0,0137098	62,6
     131,437	   0,0143134	60,2	   0,0139818	62,1
     131,525	   0,0146001	59,8	   0,0139206	63,8
     131,613	    0,014654	61,5	   0,0142347	60,6
     131,701	   0,0146891	59,1	   0,0144525	57,8
     131,789	   0,0147562	62,6	    0,014455	58,8
     131,877	   0,0150181	61,5	   0,0144439	61,7
     131,965	   0,0152921	59,4	   0,0145853	60,8
     132,053	   0,0151021	60,8	   0,0147368	62,2
     132,141	   0,0154016	61,7	   0,0152327	59,1
     132,229	    0,015509	60,0	   0,0154667	58,3
     132,317	   0,0159221	60,1	   0,0151123	61,3
     132,405	   0,0158206	61,9	   0,0156685	61,6
     132,493	   0,0159797	59,8	   0,0153312	61,2
     132,581	   0,0162132	60,9	   0,0157295	62,3
     132,669	   0,0163023	60,8	    0,016189	59,7
     132,757	   0,0165679	59,2	   0,0162155	59,3
     132,845	   0,0166233	58,2	   0,0167284	60,7
     132,933	   0,0170515	62,6	    0,016572	57,9
     133,021	   0,0173131	58,2	   0,0165493	61,1
     133,109	   0,0173124	60,4	   0,0168231	59,8
     133,196	   0,0173786	60,1	   0,0170181	62,1
     133,284	    0,017779	59,3	   0,0167719	63,2
     133,372	   0,0178232	60,4	   0,0178038	59,6
      133,46	   0,0182594	60,2	   0,0178179	62,4
     133,548	   0,0180404	58,7	   0,0180048	59,0
     133,636	   0,0183607	59,3	   0,0180724	59,8
     133,724	   0,0187737	62,4	   0,0180522	61,1
     133,812	   0,0189049	61,6	   0,0184631	58,6
       133,9	   0,0190922	61,6	   0,0186014	57,9
     133,988	   0,0192519	62,8	   0,0186468	61,6
     134,076	   0,0194812	61,9	   0,0190116	62,5
     134,164	   0,0198698	60,9	   0,0193826	58,5
     134,252	   0,0200103	61,4	   0,0198367	59,0
      134,34	   0,0202688	59,8	   0,0194448	60,3
     134,428	    0,020634	59,6	   0,0196024	60,3
     134,516	   0,0207428	59,6	   0,0199634	62,3
     134,604	   0,0207292	61,2	   0,0203095	61,0
     134,692	    0,021625	65,1	   0,0203292	61,0
      134,78	   0,0216416	62,4	   0,0207335	60,1
     134,868	   0,0216451	62,9	   0,0211908	60,5
     134,956	   0,0221151	59,0	   0,0212796	60,6
     135,044	   0,0222394	58,9	   0,0216835	61,9
     135,132	    0,022711	59,9	   0,0222228	60,6
      135,22	   0,0231209	61,9	   0,0224965	58,4
     135,308	   0,0235436	60,8	   0,0232809	60,0
     135,396	   0,0238247	58,5	   0,0233904	59,4
     135,484	    0,024146	60,4	   0,0233216	57,7
     135,572	   0,0243924	61,6	   0,0236079	59,4
      135,66	   0,0251298	61,5	   0,0243837	59,3
     135,748	   0,0252992	59,4	   0,0241089	61,2
     135,836	   0,0258445	58,8	    0,024921	61,0
     135,924	   0,0262459	60,6	   0,0249253	61,0
     136,012	   0,0264936	60,0	   0,0254808	59,7
       136,1	   0,0261545	59,0	   0,0258177	61,8
     136,188	   0,0272139	59,6	   0,0263973	62,1
     136,276	   0,0277096	60,7	   0,0268802	58,3
     136,364	   0,0287613	58,2	   0,0269548	60,4
     136,452	    0,028811	62,3	   0,0279339	60,8
      136,54	   0,0297428	58,4	   0,0281693	59,5
     136,628	   0,0298002	61,1	   0,0287478	60,2
     136,716	     0,03056	60,6	   0,0295076	58,8
     136,804	   0,0311388	60,1	    0,029272	61,4
     136,891	   0,0316732	62,3	   0,0303699	60,5
     136,979	   0,0326039	58,7	   0,0303734	61,8
     137,067	   0,0329313	62,8	   0,0315856	58,8
     137,155	   0,0338247	59,6	   0,0321155	59,8
     137,243	   0,0343514	59,3	   0,0323484	63,0
     137,331	   0,0346624	61,9	   0,0334269	58,8
     137,419	   0,0361056	62,2	   0,0339617	60,5
     137,507	   0,0369088	60,1	    0,034798	60,0
     137,595	    0,037706	59,9	   0,0357505	61,2
     137,683	    0,038479	60,0	    0,036224	60,4
     137,771	   0,0395507	60,1	   0,0371365	60,9
     137,859	   0,0404141	58,5	   0,0386998	57,5
     137,947	   0,0417688	59,3	   0,0396181	57,3
     138,035	   0,0426371	59,0	   0,0409631	58,9
     138,123	   0,0438804	59,2	   0,0414067	60,5
     138,211	    0,045179	59,9	   0,0430064	59,8
     138,299	   0,0466025	61,1	   0,0443841	58,7
     138,387	   0,0482051	61,3	   0,0452823	59,9
     138,475	   0,0499547	61,2	   0,0469759	59,4
     138,563	    0,051375	60,5	    0,048326	59,5
     138,651	   0,0531166	63,1	   0,0507154	58,7
     138,739	   0,0549813	62,6	   0,0518966	60,1
     138,827	   0,0571303	61,7	   0,0543264	59,9
     138,915	   0,0590176	61,5	    0,055436	59,7
     139,003	   0,0611308	60,4	   0,0582769	59,8
     139,091	   0,0634339	62,5	   0,0586094	63,0
     139,179	   0,0658247	63,9	   0,0616338	61,8
     139,267	   0,0681429	64,8	   0,0634414	63,7
     139,355	   0,0707982	62,9	    0,065747	63,6
     139,443	   0,0735568	63,6	   0,0692566	63,3
     139,531	   0,0765797	65,8	   0,0721837	63,0
     139,619	   0,0794353	66,3	   0,0738763	63,9
     139,707	   0,0821139	64,1	   0,0757733	66,4
     139,795	    0,085365	67,0	   0,0789287	64,2
     139,883	   0,0888585	66,0	   0,0824764	62,2
     139,971	   0,0921653	66,4	   0,0849376	63,9
     140,059	   0,0956208	67,7	   0,0883744	64,8
     140,147	   0,0991901	67,6	   0,0912187	63,8
     140,235	    0,103485	68,3	   0,0950365	65,8
     140,323	    0,107327	67,9	   0,0996708	65,5
     140,411	    0,110859	70,3	    0,102956	64,9
     140,499	     0,11451	68,5	    0,106861	66,6
     140,587	     0,11868	70,2	    0,110805	65,5
     140,674	    0,122727	69,1	    0,114143	66,5
     140,762	    0,127094	71,1	    0,118541	65,6
      140,85	    0,130801	69,9	    0,122187	67,3
     140,938	     0,13516	70,9	    0,125303	66,9
     141,026	    0,138706	71,3	    0,128174	66,8
     141,114	    0,143294	70,2	    0,132956	70,0
     141,202	    0,146929	72,4	    0,137113	68,9
      141,29	    0,150547	73,0	    0,140473	68,8
     141,378	    0,154895	71,9	    0,144573	71,5
     141,466	     0,15879	71,1	    0,148601	68,4
     141,554	    0,162821	71,6	     0,15122	68,1
     141,642	    0,166177	73,9	    0,155859	70,3
      141,73	    0,169536	74,2	    0,160217	72,5
     141,818	     0,17329	74,9	    0,162392	70,8
     141,906	    0,177654	74,4	     0,16797	70,3
     141,994	    0,181324	75,5	    0,170616	69,2
     142,082	    0,184555	75,5	    0,175418	73,5
      142,17	    0,188832	73,7	    0,177424	72,2
     142,258	    0,192361	73,0	    0,181979	73,8
     142,346	    0,195595	74,2	    0,185286	74,8
     142,434	     0,19949	75,8	    0,188547	72,4
     142,522	    0,202412	76,0	    0,191709	74,8
      142,61	    0,206413	77,6	    0,195867	76,6
     142,698	    0,209412	77,7	    0,199263	73,8
     142,786	    0,212474	77,3	    0,202007	74,2
     142,874	    0,215522	75,3	    0,205483	75,1
     142,962	    0,219075	76,8	    0,209271	75,1
      143,05	    0,223055	76,0	    0,212899	73,5
     143,138	    0,226624	77,7	    0,215831	72,6
     143,226	    0,229389	79,2	    0,215325	176,2
     143,314	    0,232342	77,6	    0,169197	-153,8
     143,402	     0,23619	76,9	    0,131494	-143,2
      143,49	    0,239106	80,0	    0,113353	-136,5
     143,578	     0,24137	76,5	     0,10121	-134,4
     143,666	    0,245365	78,3	   0,0930708	-134,8
     143,754	    0,248088	79,5	    0,086072	-133,9
     143,842	    0,251052	78,1	   0,0824097	-130,9
      143,93	    0,254635	79,4	   0,0792805	-132,7
     144,018	    0,256994	78,4	   0,0737808	-130,4
     144,106	    0,261795	78,4	   0,0714861	-129,2
     144,194	    0,263005	79,2	   0,0694856	-129,5
     144,282	    0,267191	80,7	   0,0658328	-129,3
      144,37	    0,268939	80,7	   0,0642356	-130,1
     144,457	    0,272213	83,3	   0,0619307	-128,8
     144,545	    0,274727	79,9	   0,0597567	-129,0
     144,633	    0,277307	81,1	   0,0581381	-127,9
     144,721	    0,282348	79,0	   0,0562872	-127,7
     144,809	    0,283329	78,4	   0,0548794	-128,4
     144,897	    0,286061	82,9	   0,0539887	-128,5
     144,985	    0,290388	83,4	   0,0519729	-129,7
     145,073	    0,292486	78,5	   0,0497898	-127,9
     145,161	    0,294186	79,7	   0,0497663	-128,7
     145,249	    0,297679	84,6	   0,0477159	-128,8
     145,337	    0,301533	80,7	   0,0462441	-126,3
     145,425	    0,305453	78,7	   0,0460713	-126,6
     145,513	    0,306198	79,1	   0,0445679	-127,5
     145,601	    0,308146	77,7	   0,0439917	-127,5
     145,689	    0,309528	81,5	   0,0418783	-128,3
     145,777	    0,311681	82,8	   0,0415626	-128,0
     145,865	     0,31639	84,8	   0,0410756	-127,7
     145,953	    0,319546	85,2	    0,040596	-126,6
     146,041	    0,322221	85,4	    0,040252	-125,3
     146,129	    0,325903	86,8	   0,0392835	-126,7
     146,217	    0,327492	83,7	   0,0380393	-124,4
     146,305	    0,331194	85,1	   0,0377046	-127,0
     146,393	    0,332456	85,5	   0,0369697	-124,9
     146,481	    0,333717	87,1	   0,0361337	-126,6
     146,569	    0,334778	85,4	    0,034913	-127,7
     146,657	    0,337496	84,7	   0,0340809	-125,4
     146,745	    0,340976	83,8	   0,0333584	-126,4
     146,833	    0,346102	82,3	   0,0326064	-128,9
     146,921	    0,348471	84,4	   0,0324507	-126,1
     147,009	    0,349461	85,4	   0,0322723	-127,3
     147,097	    0,351376	83,2	   0,0320869	-127,4
     147,185	    0,355416	83,2	   0,0311038	-128,1
     147,273	    0,357781	85,7	   0,0303488	-127,8
     147,361	    0,359056	84,5	   0,0297215	-125,4
     147,449	    0,362625	83,9	   0,0300888	-126,7
     147,537	    0,364874	86,8	   0,0290621	-125,9
     147,625	    0,366414	84,7	   0,0288877	-127,8
     147,713	    0,369984	85,7	   0,0285181	-127,9
     147,801	    0,371199	85,6	   0,0280747	-127,2
     147,889	    0,374765	82,3	   0,0276162	-127,8
     147,977	    0,376018	85,0	   0,0272683	-125,4
     148,065	    0,379181	87,0	   0,0266727	-129,4
     148,152	    0,380798	84,5	   0,0268295	-126,8
      148,24	     0,38393	86,9	   0,0261302	-127,8
     148,328	    0,385484	86,0	    0,026444	-126,8
     148,416	    0,388357	85,9	   0,0255672	-128,9
     148,504	    0,390398	87,3	   0,0252705	-126,0
     148,592	    0,392673	85,2	   0,0249358	-127,7
      148,68	     0,39559	86,7	    0,024563	-125,4
     148,768	    0,397793	85,6	   0,0243907	-126,8
     148,856	     0,39968	88,1	    0,023872	-129,1
     148,944	    0,402307	85,0	   0,0234809	-129,1
     149,032	    0,404777	87,9	   0,0237912	-125,7
      149,12	    0,407075	86,5	   0,0233909	-126,2
     149,208	    0,408943	85,6	   0,0228121	-127,8
     149,296	    0,411239	86,6	   0,0225597	-124,8
     149,384	    0,413352	85,9	   0,0229345	-125,9
     149,472	    0,415703	88,0	   0,0227187	-123,3
      149,56	    0,418034	86,4	   0,0225306	-127,2
     149,648	    0,420342	86,2	   0,0215486	-125,6
     149,736	    0,422642	88,0	   0,0211128	-128,2
     149,824	    0,424923	87,1	   0,0210182	-127,0
     149,912	    0,427584	86,7	   0,0210718	-125,6
         150	    0,428925	87,7	    0,020645	-128,1
     150,088	    0,431192	86,6	   0,0203241	-127,4
     150,176	    0,433443	88,6	   0,0201204	-125,2
     150,264	     0,43607	88,8	   0,0199163	-126,5
     150,352	    0,438526	87,2	    0,019772	-126,0
      150,44	     0,44037	86,7	   0,0196937	-126,0
     150,528	    0,442497	89,1	    0,019577	-124,5
     150,616	    0,444295	88,3	    0,019199	-127,9
     150,704	     0,44651	88,2	   0,0189645	-127,8
     150,792	    0,448993	88,0	   0,0192198	-126,1
      150,88	    0,451424	88,2	   0,0189686	-126,3
     150,968	    0,453532	88,5	   0,0188785	-127,4
     151,056	     0,45534	91,0	   0,0184771	-126,2
     151,144	    0,457709	88,7	     0,01835	-125,3
     151,232	    0,459976	87,1	   0,0187098	-126,4
      151,32	    0,461595	88,7	   0,0179847	-126,5
     151,408	    0,464216	87,3	   0,0177399	-126,3
     151,496	    0,466146	90,5	   0,0182375	-126,1
     151,584	    0,468115	89,4	   0,0175675	-128,9
     151,672	    0,470334	87,9	   0,0178701	-125,6
      151,76	    0,472719	91,0	    0,017399	-127,3
     151,848	    0,474704	88,9	    0,017125	-123,0
     151,935	    0,476928	91,1	   0,0175161	-127,2
     152,023	    0,478974	88,3	   0,0168562	-126,8
     152,111	    0,481124	91,3	   0,0172719	-125,5
     152,199	    0,483037	89,4	    0,016514	-127,9
     152,287	     0,48574	90,7	   0,0170053	-125,5
     152,375	     0,48719	93,0	   0,0166965	-125,7
     152,463	    0,489447	88,3	    0,016223	-125,1
     152,551	    0,492235	87,8	   0,0167482	-126,9
     152,639	    0,493736	93,0	   0,0161119	-127,1
     152,727	    0,495543	90,7	   0,0159472	-127,0
     152,815	    0,497763	88,3	   0,0163701	-126,0
     152,903	    0,500445	89,3	   0,0162526	-124,2
     152,991	     0,50261	91,6	   0,0154239	-127,4
     153,079	    0,503856	91,0	   0,0156613	-127,5
     153,167	     0,50555	88,3	   0,0157602	-126,4
     153,255	    0,508142	91,5	   0,0156234	-125,8
     153,343	    0,510165	89,9	   0,0155006	-126,4
     153,431	    0,513008	89,7	   0,0150222	-123,7
     153,519	    0,514952	90,4	   0,0149161	-126,0
     153,607	    0,517706	90,4	   0,0148307	-126,4
     153,695	    0,519386	93,1	   0,0149759	-126,0
     153,783	    0,521292	92,0	   0,0148982	-124,8
     153,871	    0,523611	90,0	   0,0145845	-126,4
     153,959	    0,525321	90,2	   0,0142863	-126,7
     154,047	    0,526958	90,8	   0,0142115	-128,1
     154,135	    0,528923	89,1	    0,013859	-128,9
     154,223	    0,530452	89,1	   0,0136862	-127,5
     154,311	    0,531934	92,6	   0,0139165	-126,9
     154,399	    0,534325	96,6	   0,0140625	-128,7
     154,487	    0,538421	94,4	   0,0143476	-127,6
     154,575	    0,540097	90,0	   0,0140249	-128,6
     154,663	     0,54091	89,7	   0,0139503	-127,7
     154,751	     0,54202	94,3	   0,0137011	-126,3
     154,839	    0,545996	96,2	   0,0138722	-124,7
     154,927	    0,548445	91,2	   0,0136186	-126,1
     155,015	    0,547765	91,9	   0,0136752	-124,0
     155,103	    0,551624	96,9	   0,0134757	-125,7
     155,191	    0,554018	88,5	   0,0136126	-127,7
     155,279	    0,552905	95,7	   0,0133758	-129,2
     155,367	    0,559564	92,0	   0,0130898	-123,6
     155,455	    0,556903	92,3	   0,0133381	-129,5
     155,543	    0,562141	97,8	    0,013006	-125,1
      155,63	    0,561216	93,0	   0,0131668	-125,2
     155,718	    0,565784	96,0	   0,0131544	-122,3
     155,806	    0,565101	92,6	   0,0129955	-125,0
     155,894	      0,5704	94,2	   0,0130617	-125,7
     155,982	     0,56861	96,1	   0,0124551	-124,2
      156,07	    0,574209	92,1	   0,0124352	-128,4
     156,158	    0,574054	99,2	    0,012861	-123,3
     156,246	    0,575492	94,5	   0,0122331	-126,3
     156,334	    0,580217	93,9	   0,0128834	-123,5
     156,422	    0,580164	96,9	   0,0123395	-127,4
      156,51	    0,581304	95,8	   0,0121194	-127,7
     156,598	     0,58519	91,9	   0,0124644	-126,7
     156,686	    0,587423	94,3	   0,0124244	-123,8
     156,774	    0,588651	95,5	   0,0122544	-122,8
     156,862	    0,589419	96,3	   0,0118139	-128,2
      156,95	    0,591578	95,6	   0,0121642	-126,0
     157,038	    0,594139	96,0	   0,0121753	-127,7
     157,126	    0,596729	92,3	   0,0120524	-127,1
     157,214	    0,598964	95,0	   0,0121384	-123,7
     157,302	    0,600885	94,0	   0,0117534	-126,6
      157,39	    0,602558	94,8	   0,0114525	-130,0
     157,478	    0,605222	95,3	   0,0115514	-128,4
     157,566	     0,60666	94,2	    0,011384	-130,6
     157,654	    0,608799	94,7	   0,0114639	-124,6
     157,742	    0,609894	95,2	   0,0114109	-129,2
      157,83	     0,61208	93,0	   0,0111872	-126,5
     157,918	    0,613411	98,0	   0,0112222	-127,2
     158,006	    0,615087	96,6	   0,0112664	-128,6
     158,094	    0,617344	98,5	   0,0113233	-122,5
     158,182	    0,619342	96,1	   0,0113525	-125,8
      158,27	     0,62184	95,9	   0,0114174	-126,6
     158,358	    0,623359	95,9	   0,0115179	-124,6
     158,446	    0,624979	96,7	   0,0110516	-125,6
     158,534	    0,627422	98,9	   0,0108093	-129,2
     158,622	    0,629557	97,2	   0,0109812	-123,6
      158,71	    0,631526	95,9	   0,0111975	-127,4
     158,798	    0,632467	98,5	   0,0111163	-128,1
     158,886	    0,635167	98,7	   0,0105279	-131,3
     158,974	    0,637078	98,7	   0,0113599	-124,6
     159,062	    0,638571	98,4	     0,01083	-125,3
      159,15	    0,641261	97,9	   0,0106356	-123,8
     159,238	    0,642594	98,1	   0,0108883	-126,3
     159,326	    0,644985	96,5	   0,0105371	-126,1
     159,413	    0,646743	97,4	   0,0107304	-124,7
     159,501	    0,648677	96,0	   0,0105928	-128,6
     159,589	    0,650192	97,9	   0,0107333	-124,5
     159,677	    0,651909	99,3	   0,0105359	-126,3
     159,765	    0,654134	95,7	   0,0106568	-125,8
     159,853	    0,655844	100,8	   0,0101899	-126,6
     159,941	    0,658356	98,2	   0,0105917	-126,2
     160,029	    0,660068	97,7	   0,0102508	-125,4
     160,117	    0,661536	99,9	   0,0105756	-125,3
     160,205	    0,663866	98,7	   0,0103588	-128,8
     160,293	    0,665914	97,3	  0,00997552	-126,2
     160,381	    0,666978	100,6	   0,0100965	-126,2
     160,469	    0,669547	100,2	   0,0102798	-126,3
     160,557	    0,670909	98,9	  0,00995279	-124,7
     160,645	     0,67347	101,7	  0,00986922	-127,2
     160,733	    0,675014	97,6	  0,00973593	-125,1
     160,821	    0,677277	98,5	   0,0100137	-129,7
     160,909	    0,678548	100,7	    0,010232	-125,1
     160,997	    0,680942	100,0	  0,00987088	-127,1
     161,085	     0,68294	99,5	  0,00987156	-125,9
     161,173	    0,683903	100,4	  0,00977788	-129,5
     161,261	    0,686239	101,5	  0,00958712	-126,6
     161,349	    0,688445	100,4	  0,00954108	-126,7
     161,437	    0,690541	101,2	  0,00976771	-127,2
     161,525	    0,691725	100,9	  0,00936508	-126,1
     161,613	    0,693827	99,7	  0,00947245	-128,2
     161,701	     0,69595	101,4	  0,00954207	-128,0
     161,789	    0,698025	98,9	  0,00968225	-122,0
     161,877	    0,700118	99,6	  0,00973292	-126,7
     161,965	    0,701251	102,8	  0,00978276	-126,3
     162,053	    0,703218	101,5	  0,00966374	-124,1
     162,141	     0,70542	102,5	  0,00969466	-125,2
     162,229	    0,707756	100,8	   0,0093772	-128,6
     162,317	     0,70911	103,2	  0,00916887	-123,0
     162,405	    0,711038	104,1	  0,00941239	-128,1
     162,493	    0,712852	100,4	  0,00921988	-123,7
     162,581	    0,714796	101,4	   0,0092235	-128,8
     162,669	    0,716626	102,8	  0,00946102	-125,3
     162,757	    0,719174	99,5	  0,00943703	-129,6
     162,845	    0,720845	103,4	   0,0090644	-123,6
     162,933	    0,721991	102,3	  0,00911095	-125,0
     163,021	    0,724328	101,6	  0,00904367	-127,0
     163,109	    0,726394	101,8	  0,00900958	-121,8
     163,196	     0,72818	100,5	  0,00911661	-128,2
     163,284	    0,729878	100,5	  0,00908361	-127,0
     163,372	    0,731516	102,0	  0,00916203	-126,4
      163,46	    0,734167	101,2	  0,00892572	-127,7
     163,548	    0,735299	101,8	  0,00906022	-128,3
     163,636	    0,738223	99,1	  0,00899137	-123,7
     163,724	    0,739244	102,7	  0,00866354	-124,2
     163,812	    0,741182	104,4	   0,0090427	-128,2
       163,9	    0,743161	101,2	  0,00883873	-130,4
     163,988	    0,744988	101,6	  0,00876365	-129,2
     164,076	    0,746717	104,3	   0,0088446	-123,2
     164,164	    0,748524	105,3	  0,00875653	-123,4
     164,252	    0,750835	102,7	  0,00868618	-129,4
      164,34	    0,752766	102,1	   0,0087585	-126,6
     164,428	    0,754535	104,1	  0,00884764	-126,4
     164,516	    0,756443	105,0	  0,00856995	-123,1
     164,604	    0,757898	104,5	  0,00865565	-122,8
     164,692	    0,760388	104,4	  0,00854328	-128,9
      164,78	     0,76214	102,1	  0,00855282	-125,1
     164,868	    0,763957	103,5	  0,00841879	-127,9
     164,956	    0,766017	102,3	  0,00842182	-127,9
     165,044	    0,767491	104,3	  0,00855067	-121,2
     165,132	    0,769327	102,7	  0,00856997	-124,5
      165,22	    0,771181	106,8	  0,00855196	-125,6
     165,308	    0,772949	103,6	  0,00847358	-124,3
     165,396	    0,774691	106,3	  0,00842469	-128,7
     165,484	    0,776966	104,5	  0,00835644	-123,4
     165,572	    0,778497	104,5	  0,00818013	-127,6
      165,66	    0,780361	106,2	  0,00832344	-126,1
     165,748	    0,782493	107,1	  0,00816892	-126,9
     165,836	    0,784621	103,2	  0,00822668	-128,8
     165,924	    0,785945	109,2	  0,00817458	-124,1
     166,012	    0,788142	106,1	   0,0082001	-126,7
       166,1	    0,790448	104,7	  0,00824394	-123,7
     166,188	    0,792099	103,4	  0,00808667	-127,7
     166,276	    0,794031	108,5	  0,00802387	-126,9
     166,364	    0,795661	105,8	  0,00815358	-124,9
     166,452	    0,797543	108,1	   0,0081354	-126,1
      166,54	    0,799355	106,7	  0,00812546	-126,9
     166,628	    0,801629	106,7	  0,00824858	-125,2
     166,716	    0,803136	106,9	  0,00810695	-126,6
     166,804	     0,80514	107,5	  0,00822361	-124,0
     166,891	    0,807167	109,7	  0,00797416	-123,7
     166,979	    0,809847	106,5	  0,00781961	-127,4
     167,067	     0,81081	107,8	  0,00784947	-127,0
     167,155	    0,812742	109,6	  0,00782647	-126,1
     167,243	    0,814467	107,1	  0,00797683	-123,3
     167,331	    0,816529	108,7	    0,007895	-121,5
     167,419	    0,818637	108,5	  0,00784797	-124,8
     167,507	     0,81985	110,0	  0,00790612	-130,5
     167,595	    0,822343	107,4	  0,00786833	-128,8
     167,683	    0,823964	107,4	  0,00798208	-126,2
     167,771	    0,825791	110,9	  0,00811879	-128,0
     167,859	    0,827913	109,4	  0,00773815	-126,7
     167,947	    0,829615	109,8	   0,0076625	-128,5
     168,035	    0,832124	105,7	  0,00782345	-123,8
     168,123	    0,833593	111,4	   0,0078298	-123,7
     168,211	    0,835645	109,5	  0,00764323	-127,2
     168,299	    0,837487	109,0	  0,00766941	-129,3
     168,387	    0,839181	108,3	  0,00760538	-127,8
     168,475	    0,841048	110,7	  0,00760171	-127,0
     168,563	    0,843009	108,8	  0,00761232	-127,0
     168,651	    0,844436	109,6	  0,00783782	-128,1
     168,739	    0,846688	108,5	  0,00776511	-126,3
     168,827	    0,848551	109,5	  0,00768919	-126,8
     168,915	    0,850463	110,1	  0,00757595	-128,2
     169,003	    0,852358	111,2	  0,00759497	-125,5
     169,091	    0,854302	110,0	  0,00747307	-124,7
     169,179	    0,856153	111,7	  0,00740523	-128,6
     169,267	    0,857884	110,2	  0,00744808	-127,7
     169,355	    0,860142	111,9	  0,00765559	-127,8
     169,443	    0,861618	114,4	   0,0074804	-124,1
     169,531	    0,863977	111,4	  0,00733659	-123,3
     169,619	    0,865813	111,3	  0,00758522	-126,5
     169,707	     0,86744	111,8	  0,00735761	-127,0
     169,795	    0,869481	112,8	   0,0079111	-131,5
     169,883	    0,871424	113,7	  0,00752472	-127,7
     169,971	    0,873123	111,2	  0,00740016	-124,6
     170,059	    0,874802	111,2	  0,00728458	-125,0
     170,147	    0,876862	113,4	  0,00736297	-127,1
     170,235	     0,87868	111,2	  0,00754794	-126,1
     170,323	    0,880397	115,3	  0,00745877	-127,5
     170,411	    0,883015	113,1	  0,00720671	-128,7
     170,499	    0,884395	114,4	   0,0074698	-124,3
     170,587	    0,885964	116,2	  0,00723619	-128,8
     170,674	    0,888083	111,8	  0,00731447	-127,9
     170,762	    0,890007	114,5	  0,00732194	-126,6
      170,85	    0,891608	115,1	  0,00725673	-125,6
     170,938	    0,893758	114,9	  0,00715917	-127,7
     171,026	    0,895965	114,6	  0,00717415	-127,4
     171,114	    0,897678	112,0	  0,00708521	-128,2
     171,202	    0,899206	114,7	  0,00734541	-124,7
      171,29	    0,901161	114,2	  0,00728099	-126,2
     171,378	    0,902649	113,9	  0,00713756	-123,9
     171,466	    0,905079	114,3	  0,00723385	-127,5
     171,554	    0,907632	115,4	  0,00701536	-131,2
     171,642	    0,908771	116,9	  0,00713611	-124,5
      171,73	    0,910612	115,8	  0,00713737	-123,5
     171,818	    0,912799	115,8	  0,00714318	-127,1
     171,906	    0,914427	115,1	  0,00748925	-129,2
     171,994	    0,916266	117,7	  0,00699597	-120,9
     172,082	    0,918092	115,5	  0,00729357	-130,6
      172,17	     0,91985	115,3	  0,00707558	-124,9
     172,258	    0,921689	116,0	  0,00724035	-128,4
     172,346	    0,924148	116,1	  0,00725154	-124,8
     172,434	     0,92552	116,5	  0,00701291	-128,5
     172,522	    0,926683	116,8	  0,00728451	-127,9
      172,61	    0,929494	115,4	  0,00686465	-123,8
     172,698	    0,930862	118,8	  0,00677969	-126,5
     172,786	    0,932885	117,4	  0,00658939	-125,4
     172,874	    0,934684	118,3	  0,00697759	-125,6
     172,962	    0,936404	116,9	  0,00709786	-126,2
      173,05	     0,93857	116,1	  0,00685211	-125,8
     173,138	    0,939828	119,2	   0,0069268	-126,4
     173,226	    0,943032	117,4	  0,00690903	-127,9
     173,314	    0,943931	119,4	  0,00687948	-127,7
     173,402	    0,946296	119,2	  0,00679577	-125,4
      173,49	     0,94775	118,7	  0,00665589	-123,4
     173,578	    0,949474	119,3	  0,00697454	-129,4
     173,666	    0,951686	116,5	  0,00677639	-125,4
     173,754	     0,95355	117,5	   0,0069474	-127,7
     173,842	    0,955394	118,1	  0,00674797	-125,9
      173,93	    0,957403	118,7	  0,00657461	-125,2
     174,018	    0,959121	119,4	  0,00726693	-129,7
     174,106	    0,961239	119,8	  0,00701248	-128,6
     174,194	     0,96282	119,7	  0,00640901	-125,2
     174,282	    0,964847	119,1	  0,00676818	-128,3
      174,37	    0,967043	118,7	  0,00666803	-124,9
     174,457	    0,968203	121,1	  0,00682644	-127,2
     174,545	    0,970845	119,9	  0,00688586	-124,5
     174,633	     0,97224	120,0	  0,00642173	-127,3
     174,721	    0,974157	119,2	  0,00699361	-127,2
     174,809	    0,975648	124,2	  0,00648821	-123,8
     174,897	    0,978031	122,8	  0,00701227	-128,1
     174,985	    0,980276	120,2	  0,00685679	-128,4
     175,073	    0,981688	122,2	   0,0068402	-126,8
     175,161	    0,983347	121,6	  0,00696662	-131,3
     175,249	    0,986165	119,4	  0,00657631	-125,8
     175,337	    0,987553	124,9	  0,00703332	-130,3
     175,425	     0,98936	119,6	  0,00708167	-126,8
     175,513	    0,991447	122,8	  0,00671971	-128,9
     175,601	    0,993466	122,7	  0,00651051	-129,6
     175,689	    0,995381	121,6	  0,00655754	-125,6
     175,777	    0,997164	123,9	  0,00648964	-127,5
     175,865	    0,998834	122,7	  0,00691409	-126,9
     175,953	     1,00093	121,8	  0,00650363	-124,7
     176,041	     1,00267	121,8	  0,00671226	-127,9
     176,129	     1,00474	123,5	  0,00661448	-124,7
     176,217	     1,00667	122,6	  0,00678333	-125,4
     176,305	     1,00832	123,6	  0,00684219	-127,0
     176,393	     1,01008	123,6	  0,00642996	-126,7
     176,481	     1,01263	123,5	  0,00681612	-129,7
     176,569	     1,01456	124,9	  0,00661056	-126,2
     176,657	     1,01652	122,2	  0,00649282	-130,6
     176,745	     1,01848	122,5	  0,00651475	-122,3
     176,833	      1,0204	123,6	  0,00697386	-126,5
     176,921	     1,02215	121,2	   0,0067051	-134,5
     177,009	     1,02434	123,2	  0,00650617	-127,7
     177,097	     1,02565	122,3	  0,00685134	-127,1
     177,185	     1,02826	125,2	  0,00586416	-123,1
     177,273	     1,03016	122,9	  0,00692591	-128,5
     177,361	     1,03198	122,7	  0,00658111	-125,3
     177,449	     1,03381	126,8	  0,00599705	-125,6
     177,537	     1,03533	127,6	  0,00644973	-127,5
     177,625	     1,03735	125,7	  0,00666815	-128,0
     177,713	     1,03985	124,9	  0,00635584	-123,4
     177,801	     1,04154	126,9	  0,00633232	-126,6
     177,889	     1,04352	126,3	  0,00636404	-126,6
     177,977	     1,04574	126,5	  0,00614995	-121,2
     178,065	     1,04755	127,8	  0,00609145	-120,8
     178,152	     1,04926	125,0	  0,00651278	-129,7
      178,24	     1,05139	128,0	  0,00658662	-127,3
     178,328	     1,05352	125,5	  0,00645261	-125,8
     178,416	     1,05507	126,1	  0,00594536	-122,7
     178,504	     1,05687	125,6	   0,0059892	-125,3
     178,592	     1,05902	127,1	  0,00556642	-126,9
      178,68	      1,0612	129,1	  0,00602973	-128,7
     178,768	     1,06265	127,5	   0,0067468	-126,9
     178,856	     1,06474	129,6	  0,00651386	-125,6
     178,944	     1,06651	128,4	  0,00654073	-129,7
     179,032	     1,06869	125,7	  0,00636136	-131,6
      179,12	      1,0696	130,2	  0,00663403	-128,2
     179,208	     1,07253	128,2	  0,00633583	-127,4
     179,296	     1,07471	126,8	  0,00620696	-119,4
     179,384	     1,07616	129,1	   0,0059033	-121,8
     179,472	     1,07802	131,7	   0,0059948	-128,0
      179,56	     1,07942	132,0	  0,00584544	-123,9
     179,648	      1,0817	128,5	  0,00629841	-129,0
     179,736	     1,08411	129,1	  0,00623427	-126,1
     179,824	     1,08591	128,4	  0,00621326	-132,2
     179,912	     1,08745	129,9	   0,0058423	-126,7
         180	     1,08952	134,4	  0,00642319	-121,5
     180,088	      1,0915	131,8	  0,00662124	-123,0
     180,176	     1,09404	128,8	  0,00674398	-128,0
     180,264	     1,09568	130,4	  0,00678113	-132,1
     180,352	     1,09736	130,1	  0,00638294	-126,4
      180,44	     1,09945	134,1	  0,00655981	-124,5
     180,528	     1,10125	129,1	  0,00624178	-122,5
     180,616	     1,10361	132,9	  0,00600157	-124,8
     180,704	     1,10508	131,7	   0,0065027	-127,7
     180,792	     1,10706	133,7	  0,00626085	-129,6
      180,88	     1,10896	133,4	  0,00614624	-123,7
     180,968	     1,11039	134,3	   0,0064805	-129,5
     181,056	     1,11266	138,1	   0,0062571	-125,4
     181,144	     1,11496	137,0	  0,00593824	-129,0
     181,232	     1,11608	140,0	   0,0060029	-127,4
      181,32	      1,1178	141,4	  0,00627542	-124,0
     181,408	     1,11988	138,8	  0,00587577	-125,5
     181,496	     1,12271	132,7	  0,00589767	-128,8
     181,584	     1,12472	138,0	  0,00604644	-119,8
     181,672	     1,12621	141,2	  0,00621418	-126,9
      181,76	     1,12753	142,7	  0,00619541	-127,9
     181,848	     1,13008	140,5	  0,00637696	-126,0
     181,935	     1,13255	139,0	  0,00591713	-124,2
     182,023	     1,13426	137,9	  0,00597881	-125,4
     182,111	     1,13619	139,4	  0,00596011	-126,5
     182,199	     1,13772	142,6	  0,00606091	-125,0
     182,287	     1,13964	146,5	  0,00645183	-126,8
     182,375	     1,14085	146,3	   0,0064417	-127,0
     182,463	     1,14192	152,5	  0,00617431	-126,5
     182,551	     1,14322	159,8	  0,00631442	-131,2
     182,639	     1,14228	177,9	  0,00636459	-126,0
     182,727	  0,00582322	-126,0	  0,00561545	-127,3
     182,815	  0,00606731	-127,4	  0,00550875	-125,3
     182,903	  0,00599393	-122,2	  0,00600343	-123,4
     182,991	  0,00620507	-125,9	  0,00574574	-125,4
     183,079	  0,00572027	-128,4	  0,00600719	-127,9
     183,167	  0,00588668	-125,9	  0,00605419	-129,3
     183,255	  0,00596752	-126,3	  0,00621094	-129,2
     183,343	  0,00581182	-124,4	  0,00617835	-132,9
     183,431	  0,00600265	-128,9	  0,00551044	-127,7
     183,519	  0,00584488	-128,4	   0,0055084	-124,7
     183,607	  0,00565226	-126,5	  0,00628799	-122,2
     183,695	   0,0055316	-124,1	   0,0061059	-129,6
     183,783	  0,00568119	-131,4	  0,00557351	-119,4
     183,871	  0,00638804	-126,0	  0,00594005	-123,4
     183,959	  0,00585761	-125,6	  0,00614591	-130,6
     184,047	  0,00580004	-126,8	  0,00609065	-133,2
     184,135	  0,00562078	-122,5	  0,00652028	-121,5
     184,223	  0,00635222	-126,5	  0,00630005	-131,0
     184,311	   0,0057666	-130,3	  0,00544615	-124,7
     184,399	  0,00593678	-118,7	     0,00662	-126,8
     184,487	  0,00591802	-128,7	  0,00550056	-131,5
     184,575	  0,00558007	-125,5	  0,00587507	-125,8
     184,663	  0,00602792	-124,3	  0,00633377	-125,2
     184,751	  0,00618674	-125,6	  0,00549588	-124,9
     184,839	  0,00565888	-131,9	  0,00630828	-127,7
     184,927	  0,00560452	-125,0	   0,0054056	-129,0
     185,015	   0,0061202	-127,3	  0,00622593	-123,2
     185,103	  0,00567584	-127,1	  0,00568715	-125,4
     185,191	  0,00567913	-124,4	   0,0058641	-124,3
     185,279	  0,00622689	-122,7	  0,00585392	-127,2
     185,367	  0,00582147	-123,2	  0,00600107	-128,2
     185,455	  0,00611525	-127,7	  0,00635234	-122,3
     185,543	  0,00559465	-125,9	  0,00579786	-129,4
      185,63	  0,00540515	-121,0	  0,00625321	-123,0
     185,718	  0,00618109	-124,0	  0,00583074	-126,6
     185,806	  0,00631203	-128,0	  0,00559661	-132,6
     185,894	  0,00549921	-124,7	  0,00605742	-132,0
     185,982	  0,00546334	-123,1	  0,00609384	-124,3
      186,07	  0,00543375	-126,4	  0,00589828	-130,8
     186,158	  0,00618307	-123,9	  0,00580614	-127,4
     186,246	  0,00610626	-126,7	  0,00577722	-128,3
     186,334	  0,00591297	-131,4	  0,00581999	-130,7
     186,422	  0,00609613	-128,1	  0,00628924	-129,7
      186,51	  0,00551394	-132,8	  0,00638846	-126,8
     186,598	  0,00573574	-127,9	  0,00657641	-122,8
     186,686	  0,00540341	-126,4	  0,00612193	-127,7
     186,774	  0,00593736	-130,2	  0,00598667	-126,6
     186,862	  0,00539436	-126,7	  0,00585383	-129,0
      186,95	  0,00600826	-129,4	  0,00594934	-126,0
     187,038	  0,00612698	-129,1	  0,00581431	-129,7
     187,126	  0,00608379	-123,7	  0,00588079	-124,9
     187,214	   0,0060259	-124,8	  0,00602397	-125,0
     187,302	  0,00540966	-125,3	   0,0059955	-132,0
      187,39	  0,00595742	-131,9	  0,00653846	-127,4
     187,478	  0,00601518	-122,3	  0,00567396	-128,4
     187,566	  0,00548741	-126,3	  0,00546489	-128,2
     187,654	  0,00577946	-131,2	  0,00619518	-121,0
     187,742	  0,00543105	-125,9	  0,00627897	-125,1
      187,83	  0,00598557	-129,7	  0,00622356	-123,5
     187,918	  0,00606408	-127,8	  0,00621356	-129,4
     188,006	  0,00572451	-126,7	   0,0054206	-133,3
     188,094	  0,00617554	-119,9	  0,00593139	-126,0
     188,182	  0,00556299	-127,4	  0,00587803	-127,4
      188,27	  0,00567511	-130,9	  0,00534276	-125,3
     188,358	  0,00574145	-125,0	  0,00602002	-130,3
     188,446	  0,00587801	-124,9	  0,00526155	-125,9
     188,534	  0,00575274	-127,4	  0,00599387	-125,7
     188,622	  0,00607839	-126,1	  0,00575638	-124,5
      188,71	  0,00587885	-133,8	  0,00592842	-130,6
     188,798	  0,00586912	-131,8	  0,00555199	-128,3
     188,886	  0,00570653	-124,6	  0,00584674	-120,9
     188,974	  0,00554357	-124,8	  0,00609831	-127,1
     189,062	  0,00579718	-122,8	  0,00579308	-128,5
      189,15	  0,00601377	-126,0	   0,0060355	-128,8
     189,238	  0,00562248	-124,3	  0,00540726	-119,3
     189,326	  0,00548268	-129,4	  0,00611503	-125,1
     189,413	  0,00581427	-128,0	  0,00607067	-125,0
     189,501	  0,00572058	-123,9	  0,00569278	-127,1
     189,589	  0,00610061	-120,8	  0,00604013	-125,9
     189,677	  0,00607547	-125,6	  0,00564294	-123,3
     189,765	  0,00582162	-122,6	  0,00561068	-124,6
     189,853	  0,00594418	-128,0	  0,00568792	-128,3
     189,941	  0,00578104	-127,7	  0,00553998	-129,8
     190,029	  0,00592742	-124,6	  0,00583813	-130,4
     190,117	  0,00588489	-121,5	  0,00608411	-130,1
     190,205	  0,00580785	-125,5	  0,00606092	-124,1
     190,293	  0,00577252	-124,4	  0,00562969	-122,1
     190,381	  0,00541004	-127,6	  0,00560134	-125,4
     190,469	  0,00602297	-126,0	  0,00533084	-129,9
     190,557	  0,00588094	-127,4	  0,00557268	-129,3
     190,645	  0,00563227	-127,4	  0,00581317	-124,8
     190,733	  0,00584979	-126,8	  0,00587785	-129,2
     190,821	  0,00560796	-124,7	  0,00567804	-128,6
     190,909	  0,00578254	-128,3	  0,00590453	-125,6
     190,997	  0,00568668	-125,1	  0,00588331	-127,0
     191,085	  0,00575332	-120,4	  0,00552945	-125,1
     191,173	  0,00554588	-130,3	  0,00586634	-124,9
     191,261	  0,00589706	-122,7	  0,00575936	-131,0
     191,349	  0,00548121	-125,7	  0,00547201	-125,7
     191,437	  0,00562117	-131,1	  0,00584122	-127,1
     191,525	  0,00581556	-119,1	  0,00615062	-125,6
     191,613	  0,00553597	-125,9	  0,00580012	-129,7
     191,701	  0,00575678	-130,7	   0,0056165	-128,9
     191,789	  0,00554558	-123,6	  0,00584532	-127,0
     191,877	  0,00542925	-128,7	  0,00591817	-129,9
     191,965	  0,00581106	-127,1	   0,0058069	-122,3
     192,053	    0,005752	-128,6	  0,00575507	-130,5
     192,141	  0,00593624	-124,0	  0,00572432	-132,1
     192,229	  0,00549594	-126,1	  0,00563819	-129,4
     192,317	  0,00582157	-127,5	  0,00589303	-129,0
     192,405	  0,00540357	-125,3	  0,00562593	-124,5
     192,493	  0,00600237	-126,6	  0,00570231	-129,0
     192,581	   0,0054286	-128,0	  0,00591493	-124,8
     192,669	  0,00600979	-121,2	  0,00617306	-126,1
     192,757	  0,00532984	-131,3	  0,00551781	-126,5
     192,845	  0,00566046	-125,9	  0,00535792	-127,4
     192,933	  0,00575249	-125,2	  0,00562971	-126,5
     193,021	  0,00536973	-126,8	   0,0054768	-127,6
     193,109	  0,00590753	-125,9	  0,00560004	-128,2
     193,196	  0,00590036	-127,6	  0,00568023	-124,5
     193,284	  0,00588149	-123,1	  0,00568119	-127,5
     193,372	  0,00587935	-126,5	   0,0055311	-126,3
      193,46	  0,00558084	-126,3	  0,00518113	-124,8
     193,548	  0,00538276	-129,2	  0,00525323	-126,5
     193,636	  0,00560144	-128,4	    0,005702	-130,6
     193,724	  0,00563011	-125,2	  0,00569318	-128,4
     193,812	  0,00532745	-121,3	  0,00603046	-125,2
       193,9	  0,00579864	-124,9	  0,00576643	-126,7
     193,988	  0,00570881	-121,5	  0,00568655	-129,3
     194,076	  0,00576917	-123,9	  0,00573377	-123,0
     194,164	  0,00576319	-124,6	  0,00561243	-125,1
     194,252	  0,00574577	-124,4	  0,00599808	-122,1
      194,34	  0,00581088	-129,0	  0,00604457	-122,2
     194,428	  0,00593301	-126,6	  0,00627475	-122,7
     194,516	  0,00589792	-126,0	  0,00582719	-128,1
     194,604	  0,00541998	-127,8	  0,00586661	-127,7
     194,692	  0,00492098	-130,6	  0,00568284	-129,7
      194,78	  0,00533726	-125,3	  0,00565498	-128,8
     194,868	  0,00562559	-127,8	  0,00555301	-130,2
     194,956	  0,00572227	-125,5	  0,00596984	-125,9
     195,044	  0,00587667	-125,9	  0,00542866	-129,7
     195,132	  0,00582297	-124,5	  0,00548939	-127,7
      195,22	  0,00555519	-125,4	  0,00600969	-124,7
     195,308	      0,0056	-123,7	  0,00578644	-126,3
     195,396	  0,00583739	-132,3	  0,00565618	-126,5
     195,484	  0,00571197	-129,8	  0,00578643	-124,1
     195,572	  0,00593539	-125,2	   0,0057173	-125,1
      195,66	  0,00553391	-124,3	  0,00574037	-125,9
     195,748	  0,00587151	-126,2	  0,00561017	-124,3
     195,836	  0,00584934	-124,9	  0,00575505	-127,6
     195,924	   0,0054985	-127,2	  0,00568464	-123,4
     196,012	  0,00597869	-126,4	  0,00590308	-128,1
       196,1	  0,00581931	-126,3	  0,00591856	-122,6
     196,188	  0,00570043	-127,4	  0,00585756	-121,5
     196,276	  0,00537019	-127,9	  0,00555067	-128,4
     196,364	  0,00577807	-123,3	  0,00584908	-127,9
     196,452	  0,00572543	-127,0	  0,00565424	-124,8
      196,54	  0,00578166	-124,5	  0,00557167	-125,8
     196,628	  0,00579297	-125,4	  0,00568615	-128,3
     196,716	  0,00573552	-125,1	  0,00575271	-125,3
     196,804	   0,0059496	-123,6	  0,00567096	-130,5
     196,891	  0,00584511	-124,5	   0,0058488	-124,7
     196,979	  0,00546719	-130,4	  0,00584949	-128,4
     197,067	  0,00525351	-130,4	  0,00578606	-126,9
     197,155	  0,00572822	-122,5	  0,00556194	-123,6
     197,243	  0,00599583	-122,2	  0,00537641	-128,9
     197,331	  0,00576834	-125,3	  0,00562868	-128,5
     197,419	  0,00593875	-121,4	  0,00602092	-124,9
     197,507	   0,0059012	-123,9	   0,0060741	-122,0
     197,595	  0,00585951	-126,0	  0,00582301	-127,1
     197,683	  0,00566295	-125,8	   0,0054352	-122,2
     197,771	  0,00560951	-126,5	  0,00567369	-130,6
     197,859	  0,00561045	-129,4	   0,0056511	-120,2
     197,947	   0,0055475	-128,5	   0,0056946	-125,6
     198,035	  0,00539774	-130,1	  0,00594043	-125,8
     198,123	  0,00565399	-129,7	  0,00541462	-126,7
     198,211	  0,00573849	-124,8	  0,00570067	-124,7
     198,299	    0,005558	-127,9	  0,00610172	-122,0
     198,387	  0,00571444	-128,2	  0,00582892	-120,6
     198,475	  0,00564189	-130,7	  0,00593892	-121,6
     198,563	  0,00560508	-124,3	  0,00602665	-120,1
     198,651	  0,00548345	-130,7	  0,00601587	-124,0
     198,739	  0,00590078	-124,0	  0,00540607	-129,4
     198,827	  0,00593797	-124,6	  0,00585912	-124,8
     198,915	  0,00570593	-125,9	  0,00603243	-124,9
     199,003	   0,0058708	-125,1	  0,00566486	-126,7
     199,091	  0,00591483	-126,1	  0,00594701	-123,0
     199,179	  0,00572053	-125,9	  0,00624288	-123,3
     199,267	  0,00549526	-127,6	  0,00572855	-130,5
     199,355	  0,00599276	-122,4	  0,00570734	-128,7
     199,443	  0,00568148	-123,0	  0,00613886	-122,2
     199,531	  0,00587341	-125,0	  0,00552594	-132,3
     199,619	  0,00572999	-128,5	  0,00568534	-126,2
     199,707	  0,00568802	-125,5	  0,00599559	-127,6
     199,795	  0,00589574	-124,9	  0,00567221	-126,8
     199,883	  0,00564159	-127,2	  0,00580868	-129,2
     199,971	  0,00572323	-127,7	  0,00577244	-125,7
     200,059	  0,00589718	-126,9	   0,0057801	-125,7
     200,147	  0,00565212	-127,7	  0,00571285	-123,5
     200,235	  0,00576264	-128,2	  0,00579286	-127,1
     200,323	  0,00576979	-124,2	  0,00586953	-127,6
     200,411	  0,00551443	-123,1	  0,00597671	-122,0
     200,499	   0,0057097	-124,0	  0,00611335	-122,3
     200,587	  0,00593208	-126,0	  0,00581088	-129,3
     200,674	  0,00572153	-123,8	  0,00586727	-129,4
     200,762	  0,00598505	-124,3	  0,00565565	-125,3
      200,85	  0,00585005	-125,0	  0,00604458	-124,7
     200,938	   0,0057895	-130,2	  0,00621141	-121,1
     201,026	  0,00590352	-126,0	  0,00592243	-125,2
     201,114	  0,00578543	-128,4	  0,00568279	-127,9
     201,202	  0,00604171	-127,4	  0,00541798	-131,4
      201,29	  0,00581194	-123,0	  0,00629704	-122,3
     201,378	  0,00583656	-121,9	   0,0057784	-130,2
     201,466	  0,00607187	-127,9	  0,00596573	-125,1
     201,554	  0,00611079	-123,8	  0,00589041	-126,0
     201,642	  0,00591626	-124,0	  0,00591596	-127,5
      201,73	  0,00582275	-126,0	   0,0059889	-129,2
     201,818	  0,00580121	-123,0	  0,00605716	-124,3
     201,906	  0,00583199	-123,9	  0,00588518	-124,6
     201,994	  0,00583211	-124,0	  0,00598508	-122,8
     202,082	  0,00569118	-123,1	  0,00598647	-123,4
      202,17	  0,00597079	-131,0	  0,00558122	-128,1
     202,258	  0,00588136	-122,4	  0,00585693	-129,7
     202,346	  0,00595635	-125,2	  0,00577911	-127,8
     202,434	  0,00557122	-125,7	  0,00600026	-127,7
     202,522	    0,005853	-121,7	  0,00574571	-124,6
      202,61	  0,00577068	-121,3	  0,00581834	-125,4
     202,698	  0,00595069	-123,6	   0,0060576	-122,2
     202,786	  0,00593974	-123,4	  0,00574169	-124,2
     202,874	  0,00596709	-126,8	  0,00598587	-123,1
     202,962	  0,00589173	-123,4	  0,00564831	-128,1
      203,05	  0,00588491	-129,1	  0,00578888	-128,8
     203,138	  0,00602168	-123,5	  0,00593988	-122,1
     203,226	    0,005941	-127,5	   0,0057257	-124,9
     203,314	  0,00592063	-125,3	  0,00606016	-121,9
     203,402	  0,00590622	-127,2	  0,00613879	-126,5
      203,49	  0,00582487	-123,7	  0,00560029	-130,1
     203,578	  0,00588273	-121,6	  0,00603494	-126,2
     203,666	  0,00571329	-122,6	  0,00576972	-123,1
     203,754	  0,00573064	-125,0	   0,0060088	-121,9
     203,842	   0,0060549	-124,4	  0,00602253	-120,6
      203,93	  0,00580579	-125,4	   0,0056947	-127,4
     204,018	  0,00599856	-128,9	  0,00611272	-122,6
     204,106	  0,00583381	-124,5	  0,00595341	-128,0
     204,194	  0,00572446	-126,2	  0,00618039	-124,0
     204,282	  0,00588355	-125,3	   0,0058323	-123,3
      204,37	  0,00613232	-125,6	   0,0058647	-128,0
     204,457	   0,0059771	-124,2	  0,00588961	-126,9
     204,545	  0,00598002	-125,4	  0,00591883	-126,8
     204,633	  0,00602131	-122,3	  0,00608065	-126,9
     204,721	  0,00607773	-124,8	  0,00585087	-128,4
     204,809	  0,00582183	-126,1	  0,00624445	-127,8
     204,897	  0,00605459	-122,6	  0,00621641	-124,6
     204,985	  0,00590518	-127,0	  0,00576751	-127,8
     205,073	   0,0060258	-126,9	  0,00622837	-126,0
     205,161	  0,00609737	-123,2	  0,00615918	-125,5
     205,249	  0,00605617	-123,6	  0,00596298	-126,3
     205,337	  0,00594325	-122,0	  0,00614005	-124,0
     205,425	  0,00606754	-123,4	  0,00607888	-122,3
     205,513	   0,0061834	-130,1	  0,00613932	-123,8
     205,601	  0,00590646	-124,8	  0,00602417	-125,9
     205,689	  0,00610824	-123,1	  0,00584107	-125,0
     205,777	  0,00583549	-123,3	  0,00591594	-126,3
     205,865	  0,00603554	-124,1	  0,00593813	-126,4
     205,953	   0,0058539	-127,7	  0,00619869	-123,9
     206,041	  0,00615204	-127,4	  0,00616191	-125,7
     206,129	  0,00604817	-127,2	   0,0062147	-122,8
     206,217	  0,00595928	-126,5	  0,00613211	-124,5
     206,305	  0,00614711	-129,1	  0,00600926	-123,3
     206,393	   0,0061363	-127,2	  0,00595042	-124,9
     206,481	  0,00601323	-123,8	  0,00601286	-126,5
     206,569	  0,00607223	-123,1	  0,00592562	-123,5
     206,657	  0,00624794	-126,3	  0,00603714	-120,0
     206,745	  0,00601073	-126,8	   0,0063237	-125,5
     206,833	  0,00588868	-122,8	  0,00602671	-123,5
     206,921	  0,00623295	-127,2	  0,00596596	-126,7
     207,009	  0,00620182	-125,6	    0,005998	-122,8
     207,097	  0,00587608	-124,1	  0,00612036	-121,4
     207,185	  0,00631592	-127,2	   0,0059917	-126,4
     207,273	  0,00608355	-127,4	  0,00624775	-120,3
     207,361	  0,00591356	-126,9	  0,00621101	-127,5
     207,449	  0,00587179	-126,9	  0,00620002	-123,7
     207,537	  0,00621575	-125,7	   0,0061154	-121,1
     207,625	  0,00613432	-126,2	    0,006041	-122,7
     207,713	  0,00608233	-129,0	  0,00622058	-127,0
     207,801	  0,00632563	-123,9	  0,00614616	-122,2
     207,889	  0,00615403	-124,2	  0,00628302	-123,4
     207,977	  0,00619164	-123,6	  0,00621487	-124,5
     208,065	  0,00643233	-127,3	  0,00642654	-124,1
     208,152	  0,00615259	-125,2	  0,00632609	-127,0
      208,24	  0,00645523	-126,9	  0,00631954	-125,5
     208,328	  0,00637122	-120,6	  0,00621385	-121,4
     208,416	  0,00628023	-124,5	  0,00618213	-126,4
     208,504	  0,00656567	-129,9	  0,00606087	-122,2
     208,592	  0,00605997	-118,6	  0,00634186	-122,3
      208,68	   0,0061446	-122,7	  0,00601589	-117,9
     208,768	  0,00615135	-120,9	   0,0063036	-124,7
     208,856	  0,00627629	-123,4	  0,00642022	-118,8
     208,944	    0,006223	-124,7	   0,0064374	-126,2
     209,032	  0,00622748	-125,8	  0,00648311	-125,5
      209,12	  0,00650896	-128,6	    0,006233	-131,5
     209,208	  0,00619411	-130,2	  0,00624138	-126,2
     209,296	  0,00632663	-124,8	  0,00611743	-122,3
     209,384	   0,0062803	-125,5	  0,00618275	-125,4
     209,472	  0,00614059	-123,0	  0,00611997	-126,0
      209,56	  0,00619398	-125,0	  0,00681878	-125,5
     209,648	  0,00635869	-125,9	  0,00626188	-127,8
     209,736	  0,00622366	-126,2	  0,00647734	-125,7
     209,824	  0,00651931	-126,7	  0,00634342	-126,2
     209,912	  0,00657715	-122,9	  0,00649974	-126,2
         210	  0,00664763	-127,1	  0,00662673	-126,3

