X-Data [Hz]	Laser (M - Filtered) [m/s]	Phase [Deg]	Laser (M - Filtered) [m/s]	Phase [Deg]	
	002: [07-09-24 18:23]		003: [07-09-24 18:26]	
        41,5	   0,0297125	83,7	   0,0325101	82,4
      41,502	   0,0304047	82,3	   0,0325731	81,9
     41,5039	   0,0308699	83,5	   0,0326078	82,0
     41,5059	   0,0316421	82,1	   0,0326756	81,9
     41,5078	   0,0321538	82,6	   0,0327323	82,6
     41,5098	   0,0324117	81,9	   0,0328285	81,4
     41,5117	   0,0324733	82,0	   0,0328239	82,1
     41,5137	   0,0326063	82,4	   0,0328296	81,7
     41,5156	   0,0326851	82,1	   0,0328967	81,5
     41,5176	   0,0327903	82,5	   0,0330561	82,6
     41,5196	   0,0328255	82,3	   0,0331119	82,6
     41,5215	    0,032911	82,9	   0,0330045	82,3
     41,5235	   0,0330205	83,2	   0,0331281	82,3
     41,5254	   0,0330541	82,0	   0,0332713	81,8
     41,5274	   0,0330724	82,6	   0,0332535	83,2
     41,5293	   0,0331573	82,3	   0,0333187	82,1
     41,5313	   0,0331961	83,1	   0,0333654	83,2
     41,5332	   0,0333045	83,3	   0,0333475	82,2
     41,5352	   0,0333309	82,7	   0,0335143	81,9
     41,5371	   0,0333764	82,9	   0,0334778	83,0
     41,5391	    0,033387	82,1	   0,0334451	82,3
     41,5411	   0,0333453	82,2	   0,0335757	83,4
      41,543	   0,0334604	82,9	   0,0337412	83,0
      41,545	   0,0335807	82,9	   0,0337345	83,0
     41,5469	   0,0336523	82,4	   0,0337732	82,3
     41,5489	   0,0336587	82,1	   0,0338119	83,3
     41,5508	   0,0337362	83,2	   0,0338904	83,5
     41,5528	    0,033788	82,7	   0,0339423	83,1
     41,5547	    0,033855	83,6	    0,033989	83,2
     41,5567	   0,0338936	83,7	   0,0340427	83,2
     41,5587	   0,0339659	82,8	   0,0341325	82,9
     41,5606	   0,0339698	83,1	   0,0341625	83,2
     41,5626	   0,0340604	83,3	   0,0343291	83,1
     41,5645	   0,0340831	83,6	   0,0342901	84,0
     41,5665	   0,0341493	84,2	   0,0342877	82,6
     41,5684	   0,0342856	83,0	   0,0343531	82,6
     41,5704	   0,0342742	83,6	   0,0345035	83,2
     41,5723	   0,0343396	82,9	   0,0345651	82,8
     41,5743	    0,034402	82,7	   0,0345713	84,1
     41,5762	   0,0344104	83,3	   0,0346326	84,1
     41,5782	   0,0345525	83,8	   0,0346444	83,6
     41,5802	   0,0345693	83,4	   0,0346648	83,7
     41,5821	   0,0345409	83,2	   0,0347942	83,3
     41,5841	   0,0346692	83,6	    0,034814	83,8
      41,586	   0,0346866	83,3	   0,0348764	83,6
      41,588	   0,0346713	84,4	   0,0349596	83,6
     41,5899	   0,0347959	84,1	   0,0350877	83,5
     41,5919	   0,0348427	83,1	   0,0350717	82,8
     41,5938	   0,0349171	83,8	   0,0350806	84,3
     41,5958	   0,0349689	83,4	   0,0351202	83,7
     41,5978	    0,035097	83,9	   0,0352203	84,4
     41,5997	   0,0351923	83,9	   0,0352902	84,2
     41,6017	   0,0352079	83,5	   0,0354092	83,4
     41,6036	   0,0351906	83,9	   0,0355058	83,9
     41,6056	   0,0352428	83,4	   0,0355493	84,0
     41,6075	   0,0353124	84,0	   0,0355978	84,3
     41,6095	   0,0353996	84,4	    0,035651	84,1
     41,6114	     0,03546	84,6	   0,0356677	83,7
     41,6134	   0,0355428	84,9	   0,0357493	84,0
     41,6153	   0,0355703	83,6	   0,0357476	83,5
     41,6173	   0,0356085	83,9	   0,0357662	84,9
     41,6193	   0,0356492	84,2	   0,0358981	84,5
     41,6212	   0,0357565	84,2	   0,0360258	85,1
     41,6232	   0,0357981	85,2	   0,0360788	84,7
     41,6251	   0,0359082	84,2	   0,0361128	83,7
     41,6271	   0,0359518	84,5	   0,0362176	84,0
      41,629	   0,0359938	84,3	   0,0362937	84,4
      41,631	   0,0360146	83,6	   0,0363115	84,4
     41,6329	   0,0360891	85,3	   0,0363328	84,9
     41,6349	   0,0360523	85,0	   0,0363754	84,3
     41,6369	   0,0361475	85,2	   0,0365106	84,9
     41,6388	   0,0362286	85,7	    0,036563	84,5
     41,6408	   0,0363281	84,4	   0,0366345	84,8
     41,6427	   0,0364474	84,9	   0,0366392	85,3
     41,6447	   0,0365252	84,6	   0,0366559	84,6
     41,6466	   0,0364798	84,9	   0,0367717	84,9
     41,6486	   0,0365611	85,3	   0,0368922	84,5
     41,6505	   0,0366192	84,5	   0,0369887	84,4
     41,6525	   0,0366259	85,2	   0,0370046	85,3
     41,6544	   0,0366989	84,8	   0,0371004	84,8
     41,6564	   0,0368351	86,3	   0,0370835	86,1
     41,6584	   0,0369435	85,5	   0,0372067	85,3
     41,6603	   0,0370349	84,8	   0,0373352	85,4
     41,6623	   0,0370078	85,6	   0,0373578	85,5
     41,6642	   0,0371273	84,6	   0,0374649	85,3
     41,6662	   0,0372205	84,8	   0,0375558	85,3
     41,6681	   0,0372409	85,8	   0,0375808	85,6
     41,6701	   0,0373114	85,2	   0,0376468	85,4
      41,672	   0,0373521	86,0	   0,0376745	85,7
      41,674	   0,0373961	85,8	   0,0376523	85,3
      41,676	   0,0375141	85,5	   0,0378535	84,7
     41,6779	   0,0375897	85,6	   0,0378578	86,1
     41,6799	   0,0376777	85,8	   0,0379214	85,4
     41,6818	   0,0377292	86,5	   0,0380498	86,6
     41,6838	   0,0378011	85,4	   0,0380696	86,1
     41,6857	     0,03785	85,6	   0,0380902	85,9
     41,6877	   0,0378797	85,2	   0,0382086	85,9
     41,6896	     0,03791	85,5	   0,0383375	85,1
     41,6916	   0,0381243	86,9	   0,0383695	85,8
     41,6936	   0,0381666	86,0	   0,0384299	86,8
     41,6955	   0,0382007	86,5	   0,0385546	86,0
     41,6975	   0,0382375	86,7	   0,0386018	86,6
     41,6994	   0,0383023	86,2	   0,0386591	85,9
     41,7014	    0,038416	86,2	   0,0387217	85,8
     41,7033	    0,038491	86,7	   0,0387458	86,1
     41,7053	   0,0385532	86,1	   0,0387749	85,7
     41,7072	   0,0385337	86,7	   0,0389593	86,9
     41,7092	   0,0386025	86,7	    0,039165	86,1
     41,7111	   0,0388171	86,8	   0,0391616	86,6
     41,7131	   0,0388619	86,9	   0,0391891	86,4
     41,7151	   0,0389625	86,4	   0,0391826	86,2
      41,717	    0,039011	86,7	   0,0392719	87,1
      41,719	   0,0389604	86,5	   0,0393227	87,1
     41,7209	   0,0389655	87,0	   0,0394658	86,5
     41,7229	   0,0391345	87,0	   0,0395936	87,6
     41,7248	   0,0392537	86,9	   0,0395814	87,4
     41,7268	   0,0394412	87,5	    0,039671	86,5
     41,7287	   0,0395105	87,0	   0,0397774	87,3
     41,7307	   0,0395724	86,2	   0,0398693	86,8
     41,7327	   0,0395723	87,9	   0,0399229	86,8
     41,7346	   0,0396086	87,6	    0,039947	87,6
     41,7366	   0,0396859	87,2	   0,0400122	87,1
     41,7385	   0,0397641	86,7	   0,0401484	87,5
     41,7405	    0,039823	86,8	   0,0402652	87,1
     41,7424	   0,0399453	88,0	   0,0403459	87,5
     41,7444	   0,0399621	87,4	   0,0403992	87,6
     41,7463	    0,040018	87,3	   0,0404822	87,4
     41,7483	    0,040185	87,9	    0,040583	88,1
     41,7502	    0,040243	88,0	   0,0406841	87,9
     41,7522	   0,0402706	87,7	   0,0407555	87,3
     41,7542	     0,04036	87,9	   0,0408959	87,7
     41,7561	   0,0404671	87,7	   0,0409044	87,5
     41,7581	   0,0405637	88,2	   0,0409581	87,3
       41,76	   0,0406689	88,2	   0,0410609	88,6
      41,762	   0,0407404	88,2	   0,0410882	87,8
     41,7639	   0,0407392	88,3	   0,0411374	89,0
     41,7659	   0,0408065	88,4	   0,0412745	88,8
     41,7678	    0,040952	88,6	   0,0414381	87,6
     41,7698	   0,0410922	88,4	   0,0415328	88,4
     41,7718	   0,0412536	88,6	   0,0416072	88,0
     41,7737	   0,0412411	89,1	   0,0416595	87,9
     41,7757	   0,0412517	88,3	   0,0417229	89,4
     41,7776	   0,0413981	88,4	   0,0417798	89,0
     41,7796	   0,0414591	88,6	   0,0418024	89,1
     41,7815	   0,0415141	88,1	   0,0419361	89,1
     41,7835	   0,0416977	89,6	   0,0420644	88,3
     41,7854	   0,0417713	89,2	   0,0422431	88,7
     41,7874	   0,0417494	89,2	   0,0423036	89,2
     41,7893	   0,0418277	89,9	   0,0422677	88,9
     41,7913	     0,04192	89,0	   0,0423699	89,0
     41,7933	   0,0421041	89,0	   0,0424776	89,3
     41,7952	   0,0421989	89,2	   0,0425333	89,4
     41,7972	   0,0422131	89,0	   0,0427496	89,3
     41,7991	   0,0423896	89,8	    0,042856	88,9
     41,8011	   0,0424572	90,2	   0,0428622	90,0
      41,803	   0,0426057	89,6	   0,0429067	89,6
      41,805	   0,0427112	89,9	    0,043097	89,5
     41,8069	    0,042685	89,2	   0,0432571	90,1
     41,8089	   0,0427688	89,1	   0,0434069	89,8
     41,8109	   0,0428489	90,1	   0,0434137	89,9
     41,8128	   0,0429057	89,7	   0,0434341	89,9
     41,8148	   0,0430176	90,6	   0,0435379	89,7
     41,8167	    0,043105	90,8	   0,0436257	90,2
     41,8187	   0,0432167	89,8	   0,0436826	90,3
     41,8206	   0,0432977	89,6	   0,0437644	90,2
     41,8226	   0,0433465	89,6	   0,0438505	90,8
     41,8245	    0,043506	90,5	    0,044018	90,0
     41,8265	   0,0436041	91,0	   0,0441661	90,2
     41,8284	   0,0436931	90,5	   0,0441807	90,4
     41,8304	   0,0437838	90,8	   0,0442681	90,3
     41,8324	   0,0438334	90,4	   0,0443992	90,7
     41,8343	     0,04391	90,2	   0,0444908	90,8
     41,8363	   0,0440276	90,3	   0,0446021	90,9
     41,8382	   0,0441557	90,3	   0,0446978	90,9
     41,8402	   0,0441938	90,1	    0,044787	90,9
     41,8421	    0,044278	91,8	   0,0448124	90,9
     41,8441	   0,0443395	91,6	    0,044923	90,4
      41,846	   0,0444639	91,9	    0,045124	91,0
      41,848	   0,0445881	91,7	   0,0452005	90,7
       41,85	   0,0447048	90,6	   0,0452664	91,7
     41,8519	   0,0447202	91,5	   0,0453482	91,7
     41,8539	   0,0448469	91,2	   0,0456044	91,4
     41,8558	     0,04497	91,0	    0,045698	91,7
     41,8578	   0,0450967	92,8	   0,0457029	91,9
     41,8597	   0,0452055	92,2	    0,045736	91,8
     41,8617	   0,0453316	91,7	   0,0459069	91,6
     41,8636	   0,0454147	92,3	   0,0460356	91,4
     41,8656	   0,0455291	91,5	   0,0461421	91,6
     41,8675	    0,045609	91,4	   0,0463084	92,3
     41,8695	    0,045684	92,3	   0,0463853	92,1
     41,8715	   0,0457903	92,0	   0,0465337	92,3
     41,8734	   0,0459477	93,6	   0,0465717	92,7
     41,8754	   0,0460847	93,3	   0,0466753	91,8
     41,8773	   0,0461312	92,5	   0,0467566	92,3
     41,8793	   0,0462093	92,4	    0,046899	92,4
     41,8812	   0,0463251	91,9	   0,0470042	92,4
     41,8832	   0,0463737	92,0	   0,0471837	93,2
     41,8851	   0,0465765	92,9	   0,0472383	93,7
     41,8871	   0,0466515	93,0	   0,0473667	93,4
     41,8891	   0,0467398	93,2	   0,0474391	93,6
      41,891	    0,046775	93,8	   0,0475829	92,4
      41,893	   0,0468703	93,2	   0,0477364	92,8
     41,8949	    0,047058	93,0	   0,0477744	93,6
     41,8969	   0,0471809	93,6	   0,0479158	93,0
     41,8988	   0,0472155	93,2	   0,0480457	93,1
     41,9008	   0,0473695	93,5	   0,0481653	94,4
     41,9027	   0,0474756	93,5	   0,0482149	93,9
     41,9047	   0,0476389	93,3	    0,048413	94,2
     41,9066	   0,0477483	94,3	   0,0485116	93,5
     41,9086	   0,0477369	93,7	   0,0485954	93,7
     41,9106	   0,0478603	93,6	   0,0487332	94,1
     41,9125	   0,0479741	94,1	   0,0489019	93,9
     41,9145	   0,0480879	94,1	   0,0490562	94,1
     41,9164	   0,0483219	94,1	   0,0491028	94,6
     41,9184	   0,0484295	94,6	   0,0491586	94,8
     41,9203	   0,0485331	94,6	   0,0492656	94,9
     41,9223	   0,0486301	94,5	   0,0494063	95,1
     41,9242	   0,0487541	95,7	   0,0495734	94,3
     41,9262	   0,0487903	95,3	   0,0496461	94,4
     41,9282	   0,0489617	94,4	   0,0498481	95,1
     41,9301	   0,0490271	94,8	   0,0499121	95,2
     41,9321	   0,0491876	95,1	   0,0500178	94,8
      41,934	   0,0493323	94,9	   0,0501859	96,0
      41,936	   0,0494747	95,6	   0,0502933	95,4
     41,9379	   0,0495589	95,5	    0,050462	94,9
     41,9399	   0,0497345	96,2	   0,0505911	96,7
     41,9418	   0,0498454	96,7	   0,0506966	96,6
     41,9438	   0,0499353	94,9	    0,050863	95,4
     41,9457	   0,0500069	95,8	   0,0509921	95,9
     41,9477	   0,0500839	95,3	   0,0512249	95,2
     41,9497	   0,0502224	95,3	   0,0512454	96,1
     41,9516	   0,0503468	96,8	   0,0514219	96,7
     41,9536	   0,0504491	96,5	   0,0515409	96,2
     41,9555	   0,0506676	96,1	   0,0516973	97,1
     41,9575	   0,0508715	97,2	   0,0518721	97,3
     41,9594	   0,0509369	97,1	   0,0520348	96,4
     41,9614	   0,0509904	96,2	   0,0521319	96,8
     41,9633	   0,0511466	97,1	   0,0522527	97,2
     41,9653	   0,0513188	96,2	   0,0523361	96,8
     41,9673	   0,0514209	96,0	   0,0525224	97,2
     41,9692	   0,0515838	97,8	   0,0526772	97,5
     41,9712	   0,0517211	97,6	    0,052799	97,4
     41,9731	   0,0518289	98,2	   0,0529053	98,1
     41,9751	   0,0519456	98,0	   0,0530544	97,8
      41,977	   0,0521365	97,3	   0,0531205	97,8
      41,979	   0,0523099	97,3	   0,0532537	98,5
     41,9809	    0,052382	98,1	   0,0533983	98,3
     41,9829	   0,0525163	97,4	   0,0535784	97,5
     41,9848	   0,0526594	98,3	   0,0537702	98,4
     41,9868	   0,0528026	98,7	   0,0539238	98,4
     41,9888	    0,052919	98,3	   0,0541138	98,2
     41,9907	    0,053072	98,5	    0,054264	98,1
     41,9927	   0,0531468	99,3	   0,0543871	99,3
     41,9946	   0,0533832	98,8	   0,0544933	99,1
     41,9966	   0,0534651	98,7	   0,0546808	99,2
     41,9985	   0,0536037	99,3	   0,0548134	99,0
     42,0005	   0,0537675	99,1	   0,0548929	99,0
     42,0024	   0,0539325	98,9	   0,0551326	99,5
     42,0044	   0,0540096	99,4	   0,0552376	99,6
     42,0064	   0,0542007	99,0	   0,0553932	99,4
     42,0083	   0,0542499	99,2	   0,0555628	99,7
     42,0103	   0,0544195	100,4	   0,0557409	100,4
     42,0122	   0,0545122	100,0	   0,0558748	100,5
     42,0142	   0,0546262	100,6	   0,0560546	100,3
     42,0161	   0,0548273	100,7	   0,0562536	100,4
     42,0181	   0,0550528	99,6	    0,056348	100,7
       42,02	   0,0552024	100,2	   0,0565163	100,8
      42,022	   0,0553758	99,9	   0,0566181	101,4
     42,0239	    0,055451	100,0	   0,0568493	100,1
     42,0259	   0,0556975	101,0	   0,0570117	100,8
     42,0279	   0,0557984	101,7	   0,0572601	101,9
     42,0298	   0,0560063	101,1	   0,0573114	101,6
     42,0318	   0,0561274	101,9	   0,0575018	102,7
     42,0337	   0,0562987	101,9	   0,0576685	102,7
     42,0357	   0,0563573	101,5	   0,0578757	101,7
     42,0376	    0,056499	101,8	   0,0580861	102,4
     42,0396	   0,0566823	101,8	   0,0582681	102,5
     42,0415	   0,0568104	101,4	   0,0584046	101,9
     42,0435	   0,0569772	102,5	   0,0585331	102,9
     42,0455	   0,0570977	102,5	    0,058721	103,1
     42,0474	   0,0573415	102,3	   0,0588804	103,0
     42,0494	   0,0574575	102,9	   0,0589894	102,8
     42,0513	    0,057644	103,6	   0,0592214	103,9
     42,0533	   0,0577772	102,9	   0,0593949	103,8
     42,0552	   0,0579194	103,0	    0,059591	104,5
     42,0572	   0,0580915	103,7	   0,0597401	104,3
     42,0591	   0,0583525	102,5	   0,0599219	104,2
     42,0611	   0,0584685	103,3	   0,0600643	104,2
      42,063	   0,0586802	103,9	   0,0602976	104,2
      42,065	   0,0588139	103,5	   0,0604389	103,9
      42,067	   0,0589084	103,5	   0,0606639	104,8
     42,0689	   0,0591966	104,7	   0,0606881	105,3
     42,0709	   0,0592477	104,5	   0,0608417	105,5
     42,0728	   0,0594522	105,0	   0,0610268	105,2
     42,0748	   0,0595777	105,2	   0,0613068	106,6
     42,0767	   0,0597485	104,4	   0,0614046	106,0
     42,0787	   0,0599494	105,0	   0,0616266	106,2
     42,0806	   0,0602118	105,3	   0,0617812	106,7
     42,0826	    0,060256	105,1	    0,061954	105,6
     42,0846	   0,0603981	104,6	   0,0621279	106,3
     42,0865	   0,0606781	106,2	   0,0624094	106,8
     42,0885	   0,0608827	106,1	   0,0626144	106,6
     42,0904	   0,0610468	106,4	   0,0627536	107,2
     42,0924	   0,0611374	106,6	   0,0628941	107,6
     42,0943	   0,0613174	106,6	   0,0631616	107,3
     42,0963	    0,061379	107,0	   0,0633254	107,6
     42,0982	   0,0615739	107,5	    0,063602	108,7
     42,1002	   0,0616935	107,8	   0,0636967	108,7
     42,1021	   0,0618577	106,6	   0,0638584	107,7
     42,1041	   0,0620215	107,5	    0,064024	108,5
     42,1061	   0,0623297	107,5	   0,0642253	108,2
      42,108	    0,062431	107,2	   0,0643917	108,4
       42,11	   0,0627121	108,0	     0,06454	108,7
     42,1119	   0,0628471	108,5	   0,0647366	109,5
     42,1139	   0,0630472	108,5	   0,0649343	109,3
     42,1158	   0,0632078	109,0	   0,0651567	109,7
     42,1178	   0,0634017	109,3	   0,0653684	110,4
     42,1197	   0,0635465	109,3	   0,0655593	110,0
     42,1217	   0,0637776	109,2	   0,0657986	110,8
     42,1237	   0,0638599	110,3	   0,0658785	111,1
     42,1256	   0,0641706	109,1	   0,0661262	110,5
     42,1276	   0,0643417	109,4	   0,0663255	110,8
     42,1295	   0,0645232	110,1	    0,066568	111,2
     42,1315	   0,0646993	109,7	   0,0666728	111,5
     42,1334	   0,0649031	110,9	   0,0668693	111,5
     42,1354	   0,0650546	111,1	   0,0670515	111,9
     42,1373	   0,0652669	111,4	   0,0672994	111,8
     42,1393	   0,0654605	111,4	   0,0675033	112,0
     42,1413	   0,0656582	112,1	   0,0676006	112,7
     42,1432	   0,0658137	112,3	   0,0678467	113,3
     42,1452	   0,0659708	111,7	   0,0680439	112,9
     42,1471	   0,0661325	112,2	   0,0683393	114,0
     42,1491	   0,0662841	112,6	   0,0686203	113,2
      42,151	   0,0665573	111,9	   0,0688051	113,3
      42,153	   0,0667254	112,1	    0,068935	114,3
     42,1549	   0,0669269	112,8	   0,0692122	114,1
     42,1569	   0,0671273	112,8	   0,0694128	113,6
     42,1588	   0,0673386	113,5	   0,0696274	114,2
     42,1608	   0,0675354	113,9	   0,0697953	115,2
     42,1628	   0,0677408	114,3	   0,0698761	115,0
     42,1647	   0,0679187	114,2	   0,0701287	114,8
     42,1667	   0,0680586	115,2	   0,0703966	116,7
     42,1686	   0,0681374	115,4	   0,0705359	116,8
     42,1706	   0,0683466	114,7	   0,0706804	116,2
     42,1725	   0,0684899	115,3	    0,070813	117,0
     42,1745	   0,0687134	115,4	   0,0709768	117,6
     42,1764	   0,0690016	115,3	   0,0711594	116,7
     42,1784	   0,0690935	116,0	   0,0713135	117,6
     42,1804	   0,0692096	116,1	   0,0714732	117,1
     42,1823	   0,0694309	116,1	   0,0716583	117,3
     42,1843	   0,0696137	116,1	   0,0718978	118,5
     42,1862	   0,0698199	117,7	   0,0720797	118,6
     42,1882	   0,0700102	117,7	   0,0722805	118,2
     42,1901	   0,0701441	117,8	   0,0724268	119,0
     42,1921	   0,0703155	117,7	   0,0725128	119,1
      42,194	   0,0704525	117,8	   0,0726471	119,5
      42,196	   0,0706436	118,1	   0,0727451	119,6
     42,1979	   0,0709684	118,5	   0,0728843	121,0
     42,1999	    0,071068	119,4	   0,0731093	119,6
     42,2019	    0,071307	118,5	   0,0732221	120,2
     42,2038	   0,0714604	118,5	   0,0733815	120,8
     42,2058	    0,071664	119,6	   0,0736508	121,5
     42,2077	   0,0718084	119,2	   0,0739002	121,5
     42,2097	   0,0720419	120,2	   0,0740214	121,8
     42,2116	   0,0721818	120,3	   0,0741354	122,1
     42,2136	   0,0723819	120,6	   0,0742862	121,5
     42,2155	   0,0725264	120,3	   0,0744878	122,1
     42,2175	   0,0726666	121,5	   0,0747693	123,7
     42,2195	   0,0728485	122,0	   0,0748967	123,6
     42,2214	   0,0730973	121,6	   0,0750727	123,5
     42,2234	   0,0732795	122,0	   0,0751861	123,9
     42,2253	   0,0734452	122,8	    0,075454	124,5
     42,2273	   0,0736945	123,3	   0,0756581	124,5
     42,2292	   0,0739233	122,6	   0,0759404	125,0
     42,2312	   0,0740188	123,5	   0,0761299	125,6
     42,2331	   0,0741825	122,7	   0,0763662	124,5
     42,2351	   0,0742965	122,9	   0,0765099	125,3
      42,237	   0,0744734	124,6	    0,076672	126,0
      42,239	   0,0745851	124,1	   0,0767945	126,0
      42,241	    0,074843	124,6	   0,0770729	125,9
     42,2429	   0,0749498	125,0	   0,0772013	126,4
     42,2449	   0,0751479	125,0	   0,0773618	127,2
     42,2468	   0,0752517	125,4	   0,0774552	127,0
     42,2488	   0,0753677	125,8	   0,0775538	128,3
     42,2507	   0,0756389	126,7	   0,0776593	128,3
     42,2527	   0,0758275	127,1	   0,0779593	128,1
     42,2546	   0,0759506	126,5	   0,0779945	128,8
     42,2566	   0,0760022	127,1	   0,0781934	129,7
     42,2586	    0,076148	127,8	   0,0783088	129,7
     42,2605	   0,0763343	127,1	   0,0784775	129,3
     42,2625	    0,076441	127,7	   0,0785582	130,1
     42,2644	   0,0766839	128,1	   0,0787625	129,9
     42,2664	   0,0769225	128,4	   0,0788911	130,1
     42,2683	   0,0770743	128,2	   0,0789725	130,6
     42,2703	    0,077174	129,3	   0,0791379	131,2
     42,2722	   0,0772699	129,1	   0,0793217	130,8
     42,2742	   0,0773943	129,5	   0,0793899	131,4
     42,2761	   0,0775559	129,5	   0,0794872	132,4
     42,2781	   0,0777307	130,9	   0,0795713	132,0
     42,2801	   0,0778312	130,9	   0,0796906	132,5
      42,282	   0,0780402	130,8	   0,0798126	132,1
      42,284	   0,0781117	131,6	   0,0799471	134,0
     42,2859	   0,0783129	132,5	   0,0800937	133,9
     42,2879	   0,0784188	132,5	   0,0801665	133,8
     42,2898	   0,0785772	132,4	   0,0801559	134,9
     42,2918	   0,0786323	133,1	    0,080234	134,6
     42,2937	   0,0787742	132,7	   0,0802795	134,5
     42,2957	   0,0788585	133,4	   0,0804717	135,4
     42,2977	   0,0789965	133,5	   0,0805677	135,8
     42,2996	   0,0789662	134,1	    0,080644	135,0
     42,3016	   0,0791056	133,6	   0,0807121	135,6
     42,3035	   0,0792022	133,5	   0,0808176	136,4
     42,3055	   0,0793683	134,7	   0,0808745	136,3
     42,3074	   0,0794943	134,9	   0,0809889	136,2
     42,3094	   0,0795424	134,6	   0,0810543	136,4
     42,3113	   0,0796835	134,9	   0,0811175	137,4
     42,3133	   0,0797836	136,3	   0,0811897	137,3
     42,3153	    0,079869	135,7	   0,0812669	138,0
     42,3172	   0,0800034	136,0	   0,0813163	138,3
     42,3192	   0,0801224	138,0	   0,0813604	138,9
     42,3211	   0,0802196	137,9	   0,0814821	138,6
     42,3231	   0,0802594	137,3	   0,0815072	140,2
      42,325	   0,0803369	138,4	   0,0815391	140,4
      42,327	     0,08045	138,8	   0,0816334	139,8
     42,3289	    0,080502	138,6	   0,0816749	140,3
     42,3309	   0,0805623	138,6	   0,0817927	140,9
     42,3328	   0,0806451	139,6	   0,0817896	141,6
     42,3348	   0,0806987	140,4	   0,0818355	140,6
     42,3368	   0,0808484	139,6	   0,0818641	141,1
     42,3387	   0,0809112	139,9	   0,0818936	142,0
     42,3407	   0,0809808	140,5	   0,0819443	142,4
     42,3426	   0,0810971	139,9	   0,0819916	141,5
     42,3446	   0,0811229	139,9	   0,0820716	142,3
     42,3465	   0,0812052	141,5	    0,082129	142,5
     42,3485	     0,08131	141,9	   0,0821237	142,3
     42,3504	   0,0813961	141,3	   0,0821576	143,4
     42,3524	   0,0813913	141,6	   0,0821734	143,7
     42,3544	   0,0814263	142,9	   0,0822174	143,9
     42,3563	    0,081553	142,8	   0,0822601	143,8
     42,3583	   0,0815512	143,1	    0,082223	145,4
     42,3602	   0,0815839	143,3	   0,0822801	145,5
     42,3622	    0,081668	144,6	    0,082371	145,0
     42,3641	   0,0817445	144,2	   0,0823327	145,7
     42,3661	   0,0817516	144,5	   0,0823395	145,7
      42,368	   0,0818136	145,4	   0,0823231	146,4
       42,37	   0,0819098	145,3	   0,0823331	146,5
     42,3719	   0,0819461	145,6	   0,0823688	147,2
     42,3739	   0,0819692	145,9	   0,0824388	147,5
     42,3759	   0,0819363	146,4	   0,0824441	147,4
     42,3778	   0,0819811	146,3	   0,0823657	147,5
     42,3798	   0,0819546	146,7	   0,0823974	147,9
     42,3817	   0,0820243	146,7	   0,0824607	148,6
     42,3837	   0,0820187	148,0	    0,082427	147,9
     42,3856	   0,0821201	148,0	   0,0824461	147,9
     42,3876	   0,0820139	147,4	   0,0824774	149,3
     42,3895	   0,0820542	148,4	   0,0824803	149,2
     42,3915	   0,0820765	148,6	   0,0824503	148,9
     42,3935	   0,0820658	148,0	    0,082428	149,3
     42,3954	   0,0820904	148,1	   0,0823771	150,0
     42,3974	   0,0820485	149,2	   0,0823153	150,2
     42,3993	   0,0820441	149,6	   0,0823582	150,2
     42,4013	   0,0820906	149,1	   0,0822973	150,7
     42,4032	   0,0820731	149,5	   0,0823032	151,1
     42,4052	   0,0821259	150,9	   0,0822516	151,3
     42,4071	   0,0820604	150,7	   0,0822231	152,3
     42,4091	   0,0819849	151,0	   0,0821814	152,7
      42,411	   0,0820419	151,4	   0,0821814	152,4
      42,413	   0,0819994	151,9	     0,08211	151,9
      42,415	   0,0819623	151,7	   0,0820583	152,0
     42,4169	   0,0819879	152,6	   0,0820299	153,7
     42,4189	   0,0820094	152,6	   0,0819782	153,4
     42,4208	   0,0819622	152,7	   0,0819801	153,6
     42,4228	    0,081937	153,0	   0,0818778	154,5
     42,4247	   0,0818673	153,5	   0,0818423	154,9
     42,4267	   0,0818669	154,1	    0,081865	154,7
     42,4286	   0,0818143	154,0	   0,0818491	154,7
     42,4306	   0,0818191	154,1	   0,0817732	155,3
     42,4326	   0,0817933	154,9	   0,0816668	155,2
     42,4345	   0,0817357	155,4	   0,0816612	155,4
     42,4365	   0,0817059	155,8	   0,0816459	155,5
     42,4384	   0,0816717	155,1	   0,0815427	156,5
     42,4404	   0,0816386	155,5	    0,081532	155,7
     42,4423	   0,0816151	156,2	   0,0814731	156,1
     42,4443	    0,081548	157,1	   0,0814329	156,5
     42,4462	   0,0814935	155,7	   0,0813948	157,3
     42,4482	   0,0815005	156,4	   0,0813316	156,7
     42,4501	   0,0814605	157,3	   0,0812921	156,9
     42,4521	   0,0814563	156,4	   0,0812282	158,1
     42,4541	   0,0815014	156,9	   0,0811574	158,0
      42,456	   0,0813166	157,4	   0,0810254	158,0
      42,458	   0,0812575	157,9	   0,0808828	157,9
     42,4599	   0,0812437	158,1	   0,0810006	158,8
     42,4619	     0,08117	157,8	   0,0808846	159,1
     42,4638	   0,0811272	158,4	   0,0807982	158,8
     42,4658	   0,0810735	159,0	   0,0807293	158,4
     42,4677	   0,0810378	159,2	   0,0806473	160,3
     42,4697	   0,0809887	158,7	   0,0806326	160,1
     42,4717	   0,0809529	160,7	   0,0805122	159,8
     42,4736	   0,0808668	160,0	   0,0804608	161,0
     42,4756	   0,0808341	160,2	   0,0804351	161,7
     42,4775	    0,080791	160,1	   0,0804201	161,6
     42,4795	   0,0807206	161,9	   0,0803399	161,2
     42,4814	   0,0806508	161,0	   0,0802381	161,5
     42,4834	   0,0806031	160,7	   0,0801837	162,8
     42,4853	   0,0805273	161,8	   0,0801417	162,6
     42,4873	   0,0804668	161,9	   0,0800721	162,3
     42,4892	   0,0803895	162,4	    0,079906	162,3
     42,4912	   0,0803546	161,9	    0,079851	163,4
     42,4932	   0,0802021	163,0	   0,0797322	163,1
     42,4951	   0,0802033	163,2	   0,0796055	163,0
     42,4971	   0,0800027	163,2	   0,0795749	163,3
      42,499	   0,0798979	163,5	    0,079569	164,3
      42,501	   0,0797713	163,9	   0,0794913	164,2
     42,5029	    0,079646	164,3	    0,079386	163,6
     42,5049	   0,0795715	164,3	   0,0792943	165,0
     42,5068	   0,0795207	164,4	   0,0792184	164,9
     42,5088	   0,0794981	165,0	   0,0791312	165,2
     42,5108	   0,0794119	165,4	   0,0789682	164,9
     42,5127	   0,0793099	165,1	   0,0788729	165,5
     42,5147	   0,0792413	165,5	   0,0787381	165,6
     42,5166	   0,0790892	166,0	   0,0786553	165,7
     42,5186	    0,079016	166,4	   0,0785384	165,6
     42,5205	   0,0789898	166,2	   0,0785679	166,2
     42,5225	   0,0789152	166,1	   0,0785164	166,0
     42,5244	   0,0787804	166,6	   0,0783527	166,5
     42,5264	   0,0786914	167,2	   0,0782725	166,7
     42,5283	   0,0785776	167,0	   0,0781905	166,8
     42,5303	   0,0784876	167,1	   0,0780102	168,2
     42,5323	   0,0784185	167,2	   0,0779578	167,2
     42,5342	    0,078357	167,8	   0,0779103	167,3
     42,5362	   0,0782626	167,1	   0,0778384	167,7
     42,5381	   0,0781368	167,9	   0,0777208	168,2
     42,5401	   0,0779982	168,0	   0,0776188	168,1
      42,542	    0,077931	169,0	   0,0775424	168,4
      42,544	   0,0778534	168,4	   0,0774247	168,7
     42,5459	    0,077766	168,8	   0,0772467	169,2
     42,5479	   0,0776267	168,6	   0,0771602	168,6
     42,5499	    0,077477	169,3	   0,0770529	168,9
     42,5518	   0,0774019	169,6	    0,077001	169,5
     42,5538	   0,0773193	169,2	   0,0769107	169,9
     42,5557	   0,0772406	169,7	   0,0768658	170,0
     42,5577	   0,0771234	170,1	   0,0767186	170,0
     42,5596	   0,0769948	170,8	   0,0765952	170,5
     42,5616	   0,0768218	169,9	   0,0765101	170,8
     42,5635	   0,0767875	170,4	   0,0763585	171,0
     42,5655	    0,076716	171,0	   0,0762783	170,9
     42,5674	   0,0766331	171,2	   0,0760791	171,0
     42,5694	   0,0764854	171,4	   0,0760118	171,6
     42,5714	   0,0763792	171,5	   0,0758264	172,0
     42,5733	   0,0762491	171,7	    0,075739	171,2
     42,5753	   0,0761671	172,2	   0,0756092	172,2
     42,5772	   0,0760799	172,5	   0,0756616	172,1
     42,5792	   0,0759041	172,1	   0,0755412	172,6
     42,5811	   0,0757745	173,4	   0,0754154	172,6
     42,5831	   0,0756731	172,9	   0,0752135	172,5
      42,585	    0,075451	172,8	   0,0751071	172,5
      42,587	   0,0754193	172,8	   0,0749916	173,7
      42,589	   0,0753289	173,4	    0,074855	173,2
     42,5909	   0,0751878	174,0	   0,0747209	173,3
     42,5929	   0,0751164	174,0	   0,0745802	173,5
     42,5948	   0,0749619	174,2	   0,0745511	174,7
     42,5968	   0,0749019	174,1	   0,0744984	174,5
     42,5987	   0,0747445	174,8	   0,0743095	174,4
     42,6007	   0,0746009	175,2	   0,0741628	174,6
     42,6026	   0,0743763	174,5	   0,0740424	175,4
     42,6046	   0,0742911	174,6	    0,073944	174,9
     42,6065	   0,0741835	175,4	    0,073818	175,3
     42,6085	   0,0741191	175,7	   0,0737173	175,2
     42,6105	     0,07401	175,4	   0,0735878	175,4
     42,6124	   0,0738849	175,4	   0,0734433	176,2
     42,6144	    0,073694	176,5	   0,0733816	175,6
     42,6163	   0,0736121	176,3	   0,0732615	175,8
     42,6183	    0,073481	176,4	   0,0731797	176,3
     42,6202	   0,0734287	176,4	   0,0730507	177,2
     42,6222	   0,0733181	177,4	   0,0729362	176,4
     42,6241	   0,0731414	177,5	   0,0727759	176,9
     42,6261	   0,0730117	177,0	   0,0722257	177,8
     42,6281	   0,0728838	176,8	   0,0725658	177,9
       42,63	   0,0727266	177,7	   0,0723785	177,5
      42,632	   0,0725177	177,8	   0,0722912	177,7
     42,6339	   0,0724965	177,7	   0,0722108	177,2
     42,6359	   0,0724412	177,8	    0,072073	178,2
     42,6378	   0,0723045	178,3	   0,0719081	178,5
     42,6398	   0,0721665	178,8	   0,0716599	178,2
     42,6417	   0,0720266	178,9	   0,0716138	177,6
     42,6437	   0,0719828	178,4	    0,071444	179,4
     42,6456	   0,0717757	179,5	   0,0710457	179,7
     42,6476	   0,0716914	179,1	   0,0712146	178,7
     42,6496	   0,0715751	180,1	   0,0711252	178,7
     42,6515	   0,0714129	180,0	   0,0710375	179,6
     42,6535	   0,0712674	179,7	   0,0705329	180,5
     42,6554	   0,0711738	179,8	   0,0708123	179,7
     42,6574	   0,0710257	180,1	   0,0707076	179,8
     42,6593	   0,0709269	180,7	   0,0705701	180,3
     42,6613	   0,0707793	180,5	   0,0703719	180,4
     42,6632	   0,0697276	182,0	   0,0702296	180,8
     42,6652	   0,0705136	181,4	   0,0701771	180,6
     42,6672	   0,0703117	181,5	   0,0700477	180,7
     42,6691	   0,0702403	181,4	   0,0699144	180,9
     42,6711	   0,0700477	181,2	   0,0697025	181,0
      42,673	   0,0699831	181,3	   0,0696246	181,5
      42,675	   0,0697947	181,9	    0,069272	181,4
     42,6769	   0,0697165	182,0	   0,0686057	182,6
     42,6789	   0,0695651	181,9	     0,06889	183,2
     42,6808	   0,0694686	182,1	   0,0690776	182,6
     42,6828	   0,0693535	182,7	   0,0689508	181,5
     42,6847	   0,0692013	183,3	   0,0688004	182,3
     42,6867	   0,0690885	182,3	   0,0687084	182,9
     42,6887	   0,0689576	182,3	    0,068578	183,0
     42,6906	   0,0688435	183,7	   0,0685024	182,5
     42,6926	   0,0686973	184,0	   0,0684111	182,8
     42,6945	   0,0685173	183,6	   0,0682636	183,3
     42,6965	   0,0683732	183,9	    0,068134	183,7
     42,6984	   0,0682519	183,6	   0,0679562	183,6
     42,7004	   0,0681564	184,4	   0,0677973	184,0
     42,7023	    0,068016	184,0	   0,0676684	184,0
     42,7043	    0,067908	184,5	   0,0675686	184,1
     42,7063	   0,0678033	184,4	   0,0674258	184,9
     42,7082	   0,0676787	184,8	   0,0672636	185,3
     42,7102	   0,0675766	185,0	    0,067117	184,5
     42,7121	   0,0674265	185,5	   0,0666701	185,0
     42,7141	    0,067261	185,6	   0,0656781	186,1
      42,716	   0,0670613	185,7	   0,0660435	185,4
      42,718	   0,0669599	186,0	   0,0653424	186,1
     42,7199	    0,066746	185,9	   0,0656162	185,9
     42,7219	   0,0667246	186,3	   0,0653394	187,7
     42,7239	   0,0666438	186,2	   0,0659815	186,9
     42,7258	   0,0665329	186,3	   0,0658855	186,7
     42,7278	   0,0663227	187,3	   0,0658476	187,1
     42,7297	   0,0661722	187,3	   0,0654356	186,5
     42,7317	   0,0659871	187,3	   0,0650907	187,3
     42,7336	   0,0659521	187,4	   0,0657358	187,0
     42,7356	   0,0655842	187,6	   0,0655382	187,5
     42,7375	   0,0656952	187,8	   0,0654526	186,7
     42,7395	   0,0655577	188,2	   0,0651701	187,6
     42,7414	   0,0653992	187,8	   0,0650366	187,0
     42,7434	   0,0647603	187,8	   0,0649083	188,4
     42,7454	   0,0651041	189,1	    0,064783	188,0
     42,7473	   0,0646225	188,6	    0,064758	187,9
     42,7493	   0,0647937	188,5	   0,0646518	187,3
     42,7512	   0,0641702	188,3	   0,0644228	188,7
     42,7532	   0,0643012	189,1	    0,064381	188,2
     42,7551	   0,0644887	189,7	   0,0642089	188,3
     42,7571	   0,0643658	189,0	   0,0640822	188,3
      42,759	   0,0639088	189,3	   0,0639703	188,6
      42,761	   0,0632731	190,4	   0,0638447	188,8
      42,763	   0,0637443	190,3	   0,0636825	189,0
     42,7649	    0,063452	189,8	   0,0635058	189,3
     42,7669	   0,0636775	189,7	    0,063507	188,7
     42,7688	   0,0626183	189,4	   0,0633199	189,4
     42,7708	   0,0634042	189,4	   0,0632447	189,6
     42,7727	    0,063253	190,5	   0,0629539	190,2
     42,7747	   0,0629854	190,7	   0,0629844	189,2
     42,7766	   0,0623648	190,7	   0,0628482	190,0
     42,7786	   0,0629493	189,9	   0,0625077	190,4
     42,7805	    0,062837	190,4	   0,0617821	192,1
     42,7825	   0,0626232	190,6	   0,0618238	192,7
     42,7845	   0,0618768	192,5	    0,062343	190,8
     42,7864	   0,0622572	191,4	   0,0618052	191,8
     42,7884	   0,0619222	191,6	   0,0620416	191,2
     42,7903	   0,0621893	191,0	    0,061782	191,6
     42,7923	   0,0618263	192,2	   0,0614486	192,1
     42,7942	   0,0618449	192,2	   0,0611697	191,2
     42,7962	   0,0615387	191,8	   0,0611361	191,4
     42,7981	   0,0615895	191,4	   0,0607906	193,3
     42,8001	   0,0614711	192,2	   0,0610379	192,5
     42,8021	   0,0613392	192,7	   0,0611189	192,6
      42,804	   0,0612793	191,7	   0,0609687	192,1
      42,806	   0,0611773	192,1	    0,060862	192,2
     42,8079	   0,0607717	192,6	   0,0607115	193,3
     42,8099	   0,0608665	193,6	   0,0605895	192,8
     42,8118	   0,0607273	193,4	   0,0604572	192,9
     42,8138	   0,0606429	193,6	   0,0602844	192,9
     42,8157	   0,0601619	193,7	   0,0601417	191,9
     42,8177	   0,0601807	193,5	   0,0599595	193,5
     42,8196	   0,0602473	194,3	   0,0599405	193,6
     42,8216	   0,0598982	194,4	   0,0598306	193,4
     42,8236	   0,0590763	193,7	   0,0597653	193,4
     42,8255	   0,0590729	194,0	   0,0597041	192,6
     42,8275	   0,0592994	194,8	   0,0595782	192,8
     42,8294	   0,0593878	194,5	   0,0594341	194,0
     42,8314	     0,05933	194,8	   0,0592826	194,4
     42,8333	   0,0592742	194,4	   0,0591229	193,4
     42,8353	   0,0592402	194,4	    0,058932	193,6
     42,8372	   0,0591107	194,7	   0,0587747	194,2
     42,8392	   0,0590086	194,3	   0,0586786	194,8
     42,8412	   0,0588778	194,9	    0,058477	194,9
     42,8431	   0,0586303	195,1	   0,0584597	194,9
     42,8451	   0,0585189	194,4	   0,0582716	194,5
      42,847	   0,0584656	194,9	   0,0580364	195,0
      42,849	   0,0583757	195,3	   0,0579856	196,2
     42,8509	   0,0582129	195,5	   0,0579137	196,2
     42,8529	   0,0580716	195,6	   0,0578058	196,0
     42,8548	   0,0579555	195,0	   0,0576196	195,5
     42,8568	   0,0578564	195,2	   0,0574972	195,2
     42,8587	    0,057697	196,4	   0,0573518	196,6
     42,8607	   0,0576196	196,9	   0,0572949	196,2
     42,8627	   0,0574713	196,0	   0,0571834	196,2
     42,8646	   0,0573197	196,2	   0,0570996	195,6
     42,8666	   0,0571538	196,8	    0,056952	196,3
     42,8685	    0,057003	197,3	   0,0568858	197,1
     42,8705	   0,0568547	197,3	   0,0568181	197,0
     42,8724	   0,0567512	197,5	   0,0565846	196,0
     42,8744	   0,0566758	197,4	    0,056505	196,5
     42,8763	    0,056535	197,1	   0,0563638	196,1
     42,8783	   0,0564349	198,3	   0,0562554	196,1
     42,8803	   0,0563548	197,9	    0,056054	197,2
     42,8822	   0,0562387	198,1	   0,0559826	197,4
     42,8842	   0,0561344	197,4	   0,0558523	196,7
     42,8861	   0,0559581	197,9	   0,0558086	197,5
     42,8881	    0,055897	197,8	   0,0555777	197,3
       42,89	   0,0557783	197,2	    0,055475	198,2
      42,892	   0,0556425	198,4	   0,0554185	197,9
     42,8939	   0,0554896	198,4	   0,0552795	198,1
     42,8959	   0,0553025	197,7	   0,0550911	198,0
     42,8979	   0,0550552	198,9	   0,0549921	198,2
     42,8998	   0,0550646	198,1	   0,0548663	199,0
     42,9018	   0,0549739	198,6	   0,0547638	199,8
     42,9037	   0,0548194	199,0	   0,0547173	198,9
     42,9057	   0,0547033	197,8	   0,0546698	198,4
     42,9076	   0,0545924	198,8	   0,0544708	198,7
     42,9096	   0,0544887	199,2	   0,0543494	198,3
     42,9115	   0,0544074	199,8	   0,0542359	199,0
     42,9135	   0,0542206	-159,5	   0,0540611	199,4
     42,9154	   0,0540826	-160,5	   0,0540366	199,2
     42,9174	   0,0539378	-160,4	   0,0539394	198,8
     42,9194	   0,0538126	-159,9	   0,0538312	199,0
     42,9213	   0,0537363	-160,1	    0,053721	199,4
     42,9233	    0,053656	-159,0	   0,0536672	-159,7
     42,9252	   0,0535253	-160,2	   0,0535309	-160,3
     42,9272	   0,0533963	-160,1	   0,0534381	-160,3
     42,9291	   0,0532451	-159,1	   0,0532869	-160,1
     42,9311	   0,0531412	-160,0	   0,0531167	-159,9
      42,933	    0,052891	-158,8	   0,0529971	-159,8
      42,935	   0,0528827	-160,1	   0,0528943	-159,1
      42,937	   0,0528629	-159,4	    0,052701	-159,9
     42,9389	   0,0527116	-159,6	   0,0526768	-159,6
     42,9409	   0,0525919	-159,6	   0,0525572	-158,7
     42,9428	   0,0524366	-158,7	   0,0524522	-159,5
     42,9448	   0,0523314	-158,3	   0,0523108	-158,3
     42,9467	   0,0522577	-159,3	   0,0522259	-159,3
     42,9487	   0,0520909	-158,9	   0,0521171	-159,0
     42,9506	   0,0519664	-158,3	   0,0521272	-159,8
     42,9526	   0,0518294	-158,2	   0,0519954	-158,7
     42,9545	   0,0517399	-157,7	   0,0518585	-158,9
     42,9565	   0,0516654	-157,7	   0,0517675	-158,2
     42,9585	   0,0515531	-158,3	   0,0516687	-158,7
     42,9604	   0,0514663	-158,2	   0,0515497	-158,7
     42,9624	    0,051293	-157,6	   0,0514088	-158,8
     42,9643	   0,0512446	-157,7	   0,0513103	-158,0
     42,9663	   0,0511131	-157,2	   0,0511756	-157,4
     42,9682	   0,0509871	-157,8	   0,0510728	-157,3
     42,9702	   0,0508747	-158,3	   0,0509634	-157,8
     42,9721	   0,0508325	-158,2	   0,0508738	-157,7
     42,9741	   0,0507178	-157,2	   0,0506903	-157,4
     42,9761	   0,0505766	-157,2	   0,0505174	-157,6
      42,978	   0,0504371	-157,5	   0,0504247	-157,1
       42,98	   0,0503081	-157,5	   0,0502954	-157,3
     42,9819	   0,0501468	-156,9	    0,050217	-157,4
     42,9839	   0,0500372	-157,1	   0,0501533	-157,6
     42,9858	   0,0499433	-156,6	   0,0500152	-157,5
     42,9878	   0,0497862	-156,2	   0,0499328	-157,3
     42,9897	   0,0497632	-156,5	   0,0498631	-156,8
     42,9917	   0,0496601	-156,5	   0,0498282	-156,8
     42,9936	    0,049464	-156,4	   0,0496585	-157,0
     42,9956	    0,049449	-156,3	   0,0495402	-156,9
     42,9976	   0,0493594	-155,5	   0,0495345	-156,7
     42,9995	   0,0492541	-156,0	   0,0494064	-155,3
     43,0015	   0,0490503	-156,2	   0,0492338	-155,7
     43,0034	   0,0490333	-156,3	   0,0491893	-155,7
     43,0054	   0,0489055	-156,8	   0,0489915	-156,0
     43,0073	   0,0487933	-155,7	   0,0489721	-156,2
     43,0093	   0,0487678	-155,7	   0,0488084	-155,3
     43,0112	   0,0486379	-155,7	   0,0486276	-156,0
     43,0132	   0,0485112	-155,3	   0,0485856	-155,4
     43,0152	   0,0483349	-155,8	   0,0485204	-155,7
     43,0171	   0,0482237	-155,2	   0,0484667	-156,0
     43,0191	    0,048152	-154,7	   0,0483776	-155,7
      43,021	   0,0480686	-154,4	   0,0482351	-155,5
      43,023	   0,0479902	-154,6	   0,0480697	-155,0
     43,0249	   0,0478634	-154,6	   0,0479604	-155,2
     43,0269	   0,0477991	-155,3	   0,0478341	-154,0
     43,0288	   0,0476825	-155,0	    0,047684	-155,1
     43,0308	   0,0475714	-155,6	   0,0476199	-154,8
     43,0327	   0,0474616	-154,9	   0,0475353	-154,3
     43,0347	    0,047373	-154,4	   0,0473836	-154,2
     43,0367	   0,0472379	-154,5	   0,0472506	-153,8
     43,0386	   0,0471095	-155,3	    0,047258	-154,4
     43,0406	   0,0470519	-154,8	    0,047257	-154,5
     43,0425	   0,0469354	-154,4	   0,0470687	-154,8
     43,0445	   0,0468514	-153,3	   0,0468922	-154,8
     43,0464	    0,046678	-153,1	   0,0467068	-154,4
     43,0484	   0,0465749	-153,4	   0,0466777	-154,2
     43,0503	   0,0464582	-153,5	   0,0466456	-154,2
     43,0523	   0,0464047	-153,6	   0,0465167	-153,7
     43,0543	   0,0463691	-154,5	    0,046373	-154,2
     43,0562	   0,0462233	-153,6	   0,0462095	-153,7
     43,0582	   0,0461569	-153,1	   0,0461452	-153,7
     43,0601	   0,0460548	-153,3	   0,0459966	-153,2
     43,0621	   0,0459789	-153,5	   0,0459742	-153,1
      43,064	   0,0458577	-153,8	   0,0458599	-153,5
      43,066	    0,045758	-153,3	   0,0457429	-153,8
     43,0679	   0,0455757	-152,5	   0,0457077	-153,7
     43,0699	   0,0454266	-152,6	   0,0456587	-153,7
     43,0718	   0,0454397	-152,8	   0,0455039	-153,2
     43,0738	      0,0453	-152,3	   0,0454279	-152,5
     43,0758	   0,0452131	-152,7	   0,0452471	-153,1
     43,0777	     0,04511	-152,9	   0,0451336	-152,7
     43,0797	   0,0450199	-152,6	    0,045045	-153,2
     43,0816	   0,0447959	-151,9	   0,0449886	-152,3
     43,0836	   0,0447768	-152,2	   0,0449235	-152,0
     43,0855	   0,0446866	-152,7	   0,0449825	-152,1
     43,0875	   0,0446644	-152,8	   0,0447759	-152,2
     43,0894	    0,044588	-153,0	   0,0446661	-152,8
     43,0914	   0,0444344	-152,1	   0,0445017	-153,1
     43,0934	   0,0443191	-151,5	   0,0443704	-153,0
     43,0953	   0,0441774	-151,1	   0,0442696	-151,9
     43,0973	   0,0440414	-150,7	   0,0441757	-152,4
     43,0992	   0,0440016	-151,6	   0,0440886	-151,4
     43,1012	   0,0439273	-152,0	   0,0439525	-151,7
     43,1031	   0,0438377	-151,7	   0,0438411	-151,3
     43,1051	    0,043748	-151,8	   0,0437156	-151,4
      43,107	   0,0436287	-151,4	   0,0437271	-152,0
      43,109	   0,0435423	-151,5	   0,0436381	-151,2
     43,1109	   0,0434318	-152,1	   0,0435755	-151,0
     43,1129	   0,0434397	-151,6	   0,0435153	-151,3
     43,1149	   0,0433661	-151,1	   0,0432948	-152,2
     43,1168	    0,043279	-151,2	   0,0431866	-152,0
     43,1188	   0,0431091	-150,7	   0,0430837	-151,9
     43,1207	   0,0429841	-149,5	   0,0430812	-151,7
     43,1227	   0,0428957	-150,0	   0,0429829	-151,2
     43,1246	   0,0428159	-150,5	   0,0428318	-150,8
     43,1266	   0,0427626	-150,7	   0,0427282	-150,5
     43,1285	     0,04265	-150,9	   0,0427062	-150,7
     43,1305	   0,0424956	-150,5	    0,042613	-150,9
     43,1325	   0,0425068	-150,4	   0,0424701	-150,9
     43,1344	   0,0424479	-150,1	   0,0423373	-149,9
     43,1364	     0,04227	-149,9	   0,0422895	-150,4
     43,1383	   0,0421736	-151,4	   0,0421755	-150,6
     43,1403	   0,0420087	-150,4	   0,0421357	-150,2
     43,1422	   0,0418782	-150,0	    0,041997	-151,6
     43,1442	   0,0418527	-149,6	   0,0419266	-150,9
     43,1461	     0,04181	-149,9	   0,0417823	-149,8
     43,1481	   0,0417092	-149,1	   0,0417138	-150,1
       43,15	   0,0416024	-149,9	   0,0416338	-150,1
      43,152	   0,0415689	-150,3	   0,0415242	-149,1
      43,154	   0,0414631	-149,9	   0,0414346	-149,6
     43,1559	    0,041368	-150,6	   0,0412819	-150,1
     43,1579	   0,0413188	-149,8	   0,0413101	-150,2
     43,1598	   0,0411987	-149,1	   0,0412424	-150,4
     43,1618	   0,0410275	-148,7	   0,0411571	-150,6
     43,1637	   0,0409211	-148,9	   0,0410544	-149,4
     43,1657	   0,0408112	-148,8	   0,0409407	-149,6
     43,1676	   0,0407296	-149,1	   0,0407571	-149,2
     43,1696	   0,0406526	-149,9	   0,0407172	-148,7
     43,1716	   0,0405744	-148,7	   0,0406381	-149,3
     43,1735	   0,0405374	-149,0	   0,0405638	-149,3
     43,1755	   0,0404658	-148,8	   0,0403864	-148,7
     43,1774	   0,0404116	-149,1	   0,0403666	-149,0
     43,1794	   0,0402738	-149,6	   0,0402449	-148,5
     43,1813	    0,040211	-148,8	   0,0401881	-149,0
     43,1833	    0,040099	-149,2	    0,040063	-149,3
     43,1852	   0,0400549	-148,3	   0,0400017	-148,4
     43,1872	   0,0399537	-148,1	   0,0399516	-149,2
     43,1891	   0,0398105	-147,3	   0,0398315	-148,6
     43,1911	   0,0396553	-147,9	   0,0397392	-148,1
     43,1931	   0,0396136	-148,3	   0,0396929	-148,1
      43,195	   0,0395586	-148,4	   0,0396014	-147,8
      43,197	   0,0395623	-149,0	   0,0395997	-148,5
     43,1989	   0,0394328	-148,4	   0,0394941	-149,0
     43,2009	   0,0393289	-148,0	   0,0393545	-149,0
     43,2028	   0,0392457	-147,7	   0,0392791	-148,6
     43,2048	   0,0391407	-147,5	   0,0391864	-148,7
     43,2067	   0,0391009	-147,0	   0,0391198	-148,1
     43,2087	   0,0390275	-147,7	   0,0390315	-147,3
     43,2107	   0,0389573	-148,1	   0,0389588	-147,9
     43,2126	   0,0387869	-147,8	   0,0389069	-147,5
     43,2146	   0,0387525	-148,5	   0,0388622	-148,2
     43,2165	    0,038634	-147,8	   0,0386839	-148,2
     43,2185	   0,0385956	-147,5	   0,0386586	-148,7
     43,2204	   0,0385477	-147,7	   0,0384552	-148,3
     43,2224	   0,0384998	-147,0	   0,0383471	-147,8
     43,2243	    0,038365	-147,4	   0,0382983	-147,2
     43,2263	   0,0383436	-147,4	   0,0382218	-147,9
     43,2282	   0,0381952	-146,7	   0,0381595	-147,0
     43,2302	   0,0380588	-147,0	   0,0381017	-147,2
     43,2322	   0,0379402	-146,2	   0,0380501	-147,7
     43,2341	    0,037862	-146,9	   0,0380013	-146,9
     43,2361	   0,0377767	-147,3	    0,037911	-147,6
      43,238	   0,0377467	-147,1	   0,0378029	-147,2
       43,24	   0,0377086	-147,2	   0,0377014	-147,3
     43,2419	   0,0376121	-146,9	   0,0375533	-146,6
     43,2439	   0,0375271	-146,3	   0,0374454	-147,2
     43,2458	    0,037479	-146,3	   0,0373782	-146,5
     43,2478	   0,0372928	-145,3	   0,0373789	-146,9
     43,2498	   0,0371401	-146,1	   0,0372955	-146,9
     43,2517	   0,0370434	-146,9	   0,0372292	-146,3
     43,2537	   0,0370459	-146,8	   0,0371788	-146,7
     43,2556	   0,0369361	-146,9	   0,0371634	-146,2
     43,2576	   0,0369834	-146,9	   0,0370496	-146,2
     43,2595	   0,0368678	-146,4	   0,0369362	-147,0
     43,2615	   0,0367725	-145,5	   0,0368469	-146,8
     43,2634	   0,0367631	-145,7	   0,0367684	-146,8
     43,2654	   0,0366742	-144,8	   0,0366789	-146,2
     43,2673	   0,0365638	-146,2	   0,0365531	-145,9
     43,2693	   0,0365103	-146,1	   0,0364967	-145,7
     43,2713	   0,0364276	-146,2	   0,0364506	-145,6
     43,2732	   0,0364087	-146,8	   0,0364412	-145,9
     43,2752	   0,0362947	-145,8	   0,0362813	-146,5
     43,2771	   0,0362641	-145,2	   0,0362551	-146,1
     43,2791	   0,0361707	-145,1	   0,0361161	-146,0
      43,281	   0,0360248	-145,2	   0,0360242	-146,1
      43,283	    0,035995	-145,2	   0,0359641	-145,4
     43,2849	   0,0359433	-145,6	   0,0359106	-145,6
     43,2869	   0,0359223	-146,2	   0,0358032	-145,6
     43,2889	   0,0358857	-145,5	   0,0357249	-145,4
     43,2908	   0,0357741	-145,8	    0,035672	-145,8
     43,2928	   0,0355868	-144,9	   0,0357097	-145,5
     43,2947	   0,0354338	-144,9	   0,0356408	-146,5
     43,2967	   0,0353262	-145,4	   0,0354963	-145,6
     43,2986	   0,0353399	-144,6	   0,0353392	-145,2
     43,3006	   0,0352887	-145,2	   0,0353457	-145,4
     43,3025	   0,0352767	-145,4	   0,0352267	-144,8
     43,3045	   0,0352368	-144,9	   0,0351173	-145,2
     43,3064	   0,0351658	-145,7	   0,0350847	-145,2
     43,3084	   0,0349539	-144,8	   0,0350383	-145,4
     43,3104	   0,0348924	-144,9	   0,0349358	-144,9
     43,3123	   0,0348447	-144,1	    0,034857	-145,1
     43,3143	   0,0347677	-144,3	   0,0347797	-145,5
     43,3162	   0,0347227	-145,0	   0,0345941	-144,5
     43,3182	   0,0347397	-145,0	   0,0346009	-145,2
     43,3201	   0,0346345	-144,8	   0,0346384	-144,4
     43,3221	    0,034499	-144,6	    0,034612	-144,8
      43,324	   0,0343831	-145,1	   0,0345197	-145,3
      43,326	   0,0343349	-144,4	   0,0343344	-144,5
      43,328	   0,0343015	-143,3	   0,0342268	-145,2
     43,3299	   0,0342666	-143,8	   0,0341596	-144,3
     43,3319	   0,0341359	-143,4	   0,0340977	-144,3
     43,3338	   0,0340642	-144,5	   0,0340979	-144,3
     43,3358	   0,0340652	-144,6	   0,0340285	-143,9
     43,3377	   0,0339168	-144,2	   0,0340013	-144,4
     43,3397	   0,0339329	-144,6	   0,0339157	-144,4
     43,3416	   0,0337276	-144,0	   0,0338283	-144,2
     43,3436	   0,0336527	-144,1	    0,033611	-144,6
     43,3456	   0,0336359	-144,1	   0,0336061	-143,5
     43,3475	   0,0336109	-143,1	   0,0336272	-143,9
     43,3495	   0,0334667	-143,0	   0,0336434	-144,2
     43,3514	   0,0334421	-144,0	   0,0335906	-143,7
     43,3534	   0,0333616	-144,6	    0,033484	-144,2
     43,3553	   0,0332994	-144,7	   0,0333224	-144,3
     43,3573	   0,0332852	-144,2	   0,0332302	-143,7
     43,3592	   0,0331923	-143,7	    0,033153	-143,6
     43,3612	   0,0331559	-143,3	   0,0331236	-142,7
     43,3631	    0,033043	-142,7	   0,0329917	-143,9
     43,3651	    0,032996	-142,6	   0,0329438	-143,7
     43,3671	   0,0329145	-142,8	   0,0329606	-143,7
      43,369	   0,0328071	-143,4	   0,0328774	-144,5
      43,371	   0,0327723	-143,6	   0,0327791	-143,8
     43,3729	   0,0327503	-143,6	   0,0327094	-143,8
     43,3749	   0,0325905	-143,4	   0,0325401	-142,9
     43,3768	   0,0325782	-143,4	   0,0325609	-142,7
     43,3788	   0,0325603	-142,5	   0,0326133	-143,0
     43,3807	   0,0323931	-142,1	   0,0325293	-143,5
     43,3827	   0,0323173	-142,5	   0,0324563	-143,5
     43,3847	    0,032248	-143,3	   0,0323529	-144,3
     43,3866	   0,0322111	-143,3	   0,0321794	-143,6
     43,3886	   0,0320512	-143,6	   0,0322201	-143,0
     43,3905	   0,0320268	-143,5	   0,0321801	-142,5
     43,3925	   0,0320189	-142,8	   0,0321245	-142,6
     43,3944	   0,0319266	-142,2	   0,0319145	-142,3
     43,3964	   0,0319046	-142,4	   0,0318468	-142,5
     43,3983	   0,0318931	-141,5	   0,0317701	-142,8
     43,4003	   0,0317657	-142,3	   0,0317465	-143,4
     43,4022	   0,0316686	-143,0	   0,0317062	-142,8
     43,4042	   0,0316543	-142,4	    0,031673	-143,1
     43,4062	   0,0316222	-143,4	   0,0316742	-142,7
     43,4081	   0,0316169	-143,0	   0,0315698	-142,3
     43,4101	   0,0315874	-142,3	   0,0314949	-143,1
      43,412	   0,0314582	-142,1	   0,0314278	-142,5
      43,414	   0,0313611	-141,9	   0,0314184	-142,5
     43,4159	   0,0312685	-141,9	   0,0312755	-142,9
     43,4179	    0,031216	-142,5	   0,0312098	-142,9
     43,4198	   0,0312054	-142,4	   0,0311149	-142,4
     43,4218	   0,0311545	-141,7	    0,031005	-142,4
     43,4238	    0,031122	-141,6	   0,0310458	-142,0
     43,4257	   0,0310183	-141,8	   0,0310664	-142,8
     43,4277	   0,0309561	-142,5	   0,0309823	-142,4
     43,4296	   0,0308892	-141,8	   0,0309122	-142,4
     43,4316	   0,0307505	-142,8	   0,0308467	-142,0
     43,4335	   0,0306797	-141,8	   0,0307448	-141,2
     43,4355	   0,0306515	-142,0	   0,0305887	-141,9
     43,4374	   0,0306502	-141,6	   0,0304446	-140,9
     43,4394	   0,0305525	-140,7	   0,0304602	-141,6
     43,4413	   0,0304616	-141,1	   0,0304284	-142,3
     43,4433	   0,0303657	-141,4	   0,0303374	-143,0
     43,4453	   0,0303278	-142,2	   0,0302664	-142,4
     43,4472	   0,0303305	-142,2	   0,0303509	-141,4
     43,4492	   0,0302883	-141,8	   0,0303442	-141,8
     43,4511	    0,030209	-141,5	   0,0301223	-141,3
     43,4531	   0,0300391	-141,5	   0,0300675	-140,8
      43,455	   0,0300921	-140,4	    0,029978	-140,8
      43,457	   0,0299828	-141,4	   0,0300259	-141,0
     43,4589	   0,0298725	-141,1	   0,0299992	-141,9
     43,4609	   0,0298511	-141,5	   0,0298732	-141,2
     43,4629	   0,0299473	-141,4	   0,0297526	-141,6
     43,4648	   0,0297835	-140,3	   0,0297799	-141,0
     43,4668	   0,0296724	-141,4	   0,0297406	-141,3
     43,4687	   0,0296699	-141,1	   0,0297381	-142,1
     43,4707	   0,0296887	-140,7	   0,0295865	-141,7
     43,4726	    0,029546	-141,5	   0,0294792	-141,7
     43,4746	    0,029495	-140,8	   0,0294055	-141,3
     43,4765	   0,0294544	-141,2	   0,0293325	-140,2
     43,4785	   0,0293791	-140,6	   0,0293604	-140,3
     43,4804	   0,0293116	-140,3	   0,0293602	-140,8
     43,4824	   0,0292941	-139,9	   0,0292944	-141,4
     43,4844	   0,0292468	-140,2	   0,0291432	-141,8
     43,4863	   0,0290964	-140,9	   0,0290808	-141,8
     43,4883	   0,0290333	-141,2	   0,0290701	-141,2
     43,4902	   0,0290476	-141,1	    0,029059	-141,0
     43,4922	   0,0289713	-141,0	   0,0289679	-140,5
     43,4941	   0,0289032	-140,9	   0,0288689	-141,3
     43,4961	   0,0289114	-140,2	   0,0287943	-140,2
      43,498	   0,0287849	-139,5	   0,0287141	-140,9
        43,5	   0,0287428	-139,7	   0,0287374	-141,0

