X-Data [Hz]	Laser (M - Filtered) [m/s]	Phase [Deg]	Laser (M - Filtered) [m/s]	Phase [Deg]	
	002: [07-09-24 14:12]		003: [07-09-24 14:16]	
        40,5	    0,050158	73,0	   0,0535097	73,6
     40,5029	   0,0523562	71,7	   0,0536084	73,6
     40,5059	   0,0536372	69,2	   0,0536455	73,6
     40,5088	   0,0539783	70,2	   0,0539017	73,2
     40,5117	   0,0546787	70,7	   0,0536071	74,0
     40,5147	   0,0550271	68,9	   0,0536286	73,8
     40,5176	   0,0546626	69,6	   0,0538302	73,1
     40,5205	   0,0548811	70,4	   0,0545834	71,0
     40,5235	   0,0553391	70,9	    0,054074	71,2
     40,5264	   0,0552585	71,6	   0,0542492	73,1
     40,5293	   0,0553895	71,6	   0,0542408	73,7
     40,5323	   0,0553282	69,5	   0,0544602	73,3
     40,5352	   0,0559776	72,2	   0,0544665	73,9
     40,5381	   0,0557614	71,9	   0,0542797	73,8
     40,5411	   0,0559128	71,5	   0,0541451	73,8
      40,544	    0,056016	70,6	   0,0545774	73,9
     40,5469	   0,0558996	71,7	   0,0545554	73,3
     40,5499	   0,0561668	69,6	   0,0542436	71,8
     40,5528	   0,0563288	71,9	   0,0551588	72,4
     40,5557	   0,0559683	71,7	    0,054801	70,9
     40,5587	   0,0558479	70,9	   0,0555133	70,6
     40,5616	    0,056193	69,6	   0,0548491	71,9
     40,5645	    0,056533	71,4	   0,0556316	72,3
     40,5674	   0,0555665	68,9	   0,0559259	71,2
     40,5704	   0,0560325	69,9	   0,0563845	71,7
     40,5733	   0,0560628	68,8	   0,0551582	70,9
     40,5762	   0,0568223	70,6	    0,055828	73,6
     40,5792	   0,0558553	69,6	   0,0553953	70,9
     40,5821	   0,0563208	70,6	   0,0560014	72,5
      40,585	   0,0569584	71,6	   0,0553426	71,3
      40,588	   0,0562725	69,8	   0,0560696	73,6
     40,5909	   0,0561641	70,3	   0,0555871	71,4
     40,5938	   0,0562404	68,6	   0,0559408	73,7
     40,5968	   0,0563099	70,3	   0,0560547	71,1
     40,5997	   0,0567182	70,0	   0,0562119	71,6
     40,6026	   0,0565655	70,2	   0,0559165	71,1
     40,6056	   0,0568786	69,8	   0,0559122	72,4
     40,6085	   0,0568088	69,2	   0,0566296	71,9
     40,6114	   0,0566434	70,2	   0,0576215	73,3
     40,6144	   0,0571774	69,4	   0,0558854	74,1
     40,6173	    0,057534	70,1	   0,0562585	73,4
     40,6202	   0,0577218	71,2	   0,0563967	71,1
     40,6232	   0,0573699	67,6	   0,0568493	71,2
     40,6261	   0,0575917	69,6	   0,0568705	72,4
      40,629	   0,0580377	71,5	   0,0567162	71,3
      40,632	   0,0572594	70,2	   0,0572702	70,6
     40,6349	   0,0572996	69,4	   0,0572991	73,9
     40,6378	   0,0577151	69,1	   0,0568757	71,2
     40,6408	   0,0578404	68,4	   0,0576306	71,3
     40,6437	   0,0584103	72,7	   0,0574875	71,6
     40,6466	   0,0579017	68,7	   0,0570944	71,1
     40,6496	   0,0575425	69,4	   0,0571535	71,8
     40,6525	   0,0579954	70,5	   0,0579036	71,4
     40,6554	    0,058784	71,2	   0,0576575	71,1
     40,6584	   0,0583124	69,6	   0,0577105	71,4
     40,6613	   0,0580549	69,3	   0,0578554	71,2
     40,6642	   0,0578068	69,3	   0,0577276	71,2
     40,6672	   0,0581479	69,2	   0,0573824	71,8
     40,6701	   0,0584938	70,3	   0,0576958	71,5
      40,673	    0,058669	69,7	   0,0582895	74,1
      40,676	   0,0589282	71,1	   0,0579318	72,0
     40,6789	    0,058411	69,6	    0,059022	71,5
     40,6818	   0,0588287	71,5	   0,0582037	71,3
     40,6847	   0,0596055	73,1	   0,0584902	72,5
     40,6877	   0,0595184	71,5	   0,0583901	74,3
     40,6906	   0,0595749	71,6	    0,057861	71,4
     40,6936	   0,0598154	73,4	   0,0593909	72,7
     40,6965	   0,0589217	69,3	   0,0580724	74,1
     40,6994	   0,0588876	69,9	   0,0581489	74,3
     40,7023	   0,0599725	71,0	   0,0589194	72,0
     40,7053	   0,0587508	70,2	   0,0592642	74,2
     40,7082	   0,0588401	70,0	   0,0579678	73,6
     40,7111	   0,0600363	73,0	   0,0584313	74,4
     40,7141	   0,0592093	69,7	   0,0589276	74,3
      40,717	   0,0609611	73,5	   0,0592627	73,8
     40,7199	   0,0609659	73,6	   0,0595376	74,0
     40,7229	   0,0598414	72,2	   0,0596518	73,9
     40,7258	   0,0593422	71,0	   0,0593642	71,6
     40,7287	    0,060515	72,4	   0,0610373	72,1
     40,7317	   0,0597488	70,7	   0,0606099	74,1
     40,7346	   0,0592298	69,6	   0,0594293	72,5
     40,7375	   0,0594911	70,3	   0,0601961	72,8
     40,7405	   0,0596422	69,8	   0,0598756	71,7
     40,7434	   0,0599309	69,0	    0,060033	72,3
     40,7463	   0,0604068	70,1	   0,0601192	71,5
     40,7493	   0,0605113	71,2	   0,0604352	72,0
     40,7522	   0,0612407	73,5	   0,0609041	72,3
     40,7551	   0,0595078	70,1	   0,0604713	72,0
     40,7581	   0,0606713	69,9	   0,0596152	72,1
      40,761	   0,0599347	69,7	   0,0626101	73,6
     40,7639	   0,0601127	70,1	   0,0621273	74,0
     40,7669	   0,0608878	73,1	   0,0603905	71,7
     40,7698	   0,0615352	71,1	   0,0605244	72,0
     40,7727	   0,0612796	70,6	    0,062356	73,9
     40,7757	   0,0611843	71,4	   0,0605846	72,4
     40,7786	   0,0609775	71,2	   0,0629694	74,0
     40,7815	   0,0610126	72,7	   0,0613938	74,3
     40,7845	   0,0610492	72,3	   0,0608327	74,5
     40,7874	   0,0618642	70,7	   0,0607608	73,0
     40,7903	   0,0616296	73,0	   0,0625484	72,0
     40,7933	   0,0620881	73,6	   0,0625218	73,4
     40,7962	   0,0608457	71,6	   0,0616795	72,5
     40,7991	   0,0616855	72,3	    0,061151	73,6
     40,8021	   0,0617839	73,3	   0,0623819	72,9
      40,805	   0,0613612	70,7	   0,0626707	71,9
     40,8079	   0,0625323	72,9	   0,0620441	72,5
     40,8109	   0,0615929	71,5	   0,0630627	73,1
     40,8138	   0,0610916	70,4	   0,0632613	74,1
     40,8167	   0,0617415	69,5	   0,0628211	73,9
     40,8196	   0,0617169	71,3	   0,0625168	72,8
     40,8226	   0,0624498	71,8	   0,0637155	73,6
     40,8255	   0,0630829	72,0	   0,0633344	73,0
     40,8284	   0,0626969	71,0	   0,0643133	72,7
     40,8314	   0,0624267	71,2	   0,0644952	73,0
     40,8343	   0,0621618	70,7	   0,0642319	74,5
     40,8372	   0,0623546	70,5	    0,063757	72,8
     40,8402	   0,0623101	71,2	   0,0635178	72,8
     40,8431	   0,0630363	73,2	   0,0649945	72,9
      40,846	   0,0630928	72,9	   0,0648313	74,1
      40,849	   0,0632696	73,0	   0,0630869	72,3
     40,8519	   0,0632495	72,1	   0,0652547	72,8
     40,8548	   0,0638448	73,6	   0,0652551	73,1
     40,8578	     0,06343	73,2	   0,0641457	73,3
     40,8607	   0,0632624	71,0	   0,0649941	74,6
     40,8636	   0,0635065	71,3	   0,0663004	74,4
     40,8666	   0,0633054	71,3	   0,0663424	74,9
     40,8695	   0,0633877	71,6	   0,0653113	73,3
     40,8724	   0,0634387	71,8	   0,0658872	74,4
     40,8754	   0,0646069	72,5	   0,0667113	74,4
     40,8783	   0,0642813	70,6	   0,0660368	74,8
     40,8812	   0,0636381	71,2	    0,065709	74,7
     40,8842	   0,0652314	71,4	   0,0645372	72,8
     40,8871	   0,0649521	72,8	   0,0654422	73,6
       40,89	   0,0649995	72,9	   0,0660963	73,1
      40,893	   0,0652509	70,9	   0,0666458	73,4
     40,8959	   0,0658324	73,9	   0,0663569	73,0
     40,8988	   0,0657183	74,6	   0,0657232	73,2
     40,9018	   0,0651563	73,7	   0,0677068	75,1
     40,9047	   0,0649011	73,5	   0,0672572	74,4
     40,9076	   0,0658379	74,5	   0,0669527	74,0
     40,9106	   0,0660008	74,3	   0,0670765	75,0
     40,9135	   0,0652559	73,0	   0,0681826	74,9
     40,9164	   0,0669616	73,7	   0,0684262	74,7
     40,9194	   0,0657526	71,6	   0,0682691	75,2
     40,9223	   0,0663128	71,9	   0,0686056	74,9
     40,9252	   0,0665097	71,9	   0,0667817	73,7
     40,9282	   0,0668385	73,0	   0,0671168	73,7
     40,9311	   0,0669475	73,6	   0,0677126	73,1
      40,934	   0,0673396	74,6	   0,0681825	73,4
      40,937	   0,0667488	74,3	   0,0688656	74,9
     40,9399	     0,06834	74,5	   0,0682263	75,3
     40,9428	   0,0682624	75,1	   0,0692026	74,2
     40,9457	   0,0675371	75,1	   0,0683228	75,3
     40,9487	   0,0664554	72,0	   0,0685186	75,2
     40,9516	   0,0671462	74,3	   0,0698094	75,0
     40,9545	   0,0668852	73,5	   0,0700686	75,3
     40,9575	    0,067637	72,7	   0,0682619	73,3
     40,9604	   0,0679575	72,4	   0,0690873	73,2
     40,9633	   0,0682466	72,5	   0,0686715	73,6
     40,9663	   0,0675761	71,8	   0,0692357	75,3
     40,9692	   0,0689667	73,2	    0,069576	73,5
     40,9721	   0,0692095	75,1	    0,070759	75,1
     40,9751	   0,0687177	72,6	   0,0700394	75,8
      40,978	   0,0694522	73,6	   0,0709805	75,7
     40,9809	   0,0695127	75,3	   0,0704502	75,4
     40,9839	   0,0687135	74,7	   0,0709286	75,7
     40,9868	   0,0691917	74,3	   0,0714432	75,4
     40,9897	   0,0698766	75,4	   0,0705372	74,0
     40,9927	   0,0705932	75,2	   0,0716135	75,5
     40,9956	   0,0692809	73,6	   0,0717607	75,6
     40,9985	   0,0700151	73,6	     0,07196	75,6
     41,0015	   0,0711028	75,1	   0,0713995	74,6
     41,0044	   0,0713521	75,3	   0,0717884	75,6
     41,0073	   0,0714829	75,3	   0,0715317	75,6
     41,0103	   0,0710633	75,5	    0,072487	75,8
     41,0132	   0,0710665	75,7	   0,0726933	75,8
     41,0161	   0,0720687	75,7	   0,0728147	75,6
     41,0191	   0,0716105	75,7	   0,0730585	75,4
      41,022	    0,070702	74,3	   0,0727418	75,4
     41,0249	   0,0712702	73,3	   0,0726017	76,0
     41,0279	    0,072224	75,2	   0,0723328	74,2
     41,0308	   0,0716654	74,0	   0,0732992	75,7
     41,0337	   0,0717892	74,0	   0,0731519	76,2
     41,0367	   0,0730683	75,4	   0,0738161	76,0
     41,0396	   0,0721439	75,8	   0,0739182	75,8
     41,0425	    0,072348	74,3	   0,0741847	76,0
     41,0455	   0,0733694	75,6	   0,0741575	76,0
     41,0484	   0,0730218	75,7	   0,0739139	75,6
     41,0513	   0,0729212	75,7	   0,0745272	75,7
     41,0543	   0,0734083	75,1	   0,0747682	75,8
     41,0572	   0,0732905	75,0	   0,0748883	76,3
     41,0601	   0,0741601	75,6	   0,0749982	76,5
      41,063	   0,0742902	75,8	   0,0751811	76,3
      41,066	   0,0744925	76,0	   0,0754383	76,2
     41,0689	   0,0734529	76,2	   0,0755681	76,3
     41,0718	   0,0746225	76,0	   0,0756641	76,3
     41,0748	   0,0749757	76,3	   0,0758342	76,2
     41,0777	   0,0751444	76,3	   0,0756654	76,1
     41,0806	    0,074862	75,8	    0,075968	76,4
     41,0836	   0,0740951	74,2	    0,075691	76,7
     41,0865	   0,0756197	75,8	   0,0765067	76,6
     41,0894	   0,0757298	76,2	   0,0766388	76,5
     41,0924	   0,0744575	74,3	   0,0768619	76,4
     41,0953	   0,0760864	76,4	   0,0770201	76,6
     41,0982	   0,0755771	76,4	     0,07709	76,6
     41,1012	   0,0763011	76,3	    0,077369	76,7
     41,1041	   0,0766174	76,4	   0,0774801	76,7
      41,107	   0,0765036	76,4	   0,0777785	76,8
       41,11	   0,0768717	76,3	   0,0778583	77,2
     41,1129	   0,0762867	75,6	    0,077947	76,8
     41,1158	   0,0772774	76,6	   0,0782814	76,8
     41,1188	   0,0774003	76,7	   0,0783261	76,8
     41,1217	   0,0775531	76,5	   0,0784902	76,8
     41,1246	   0,0777321	76,8	   0,0786773	76,9
     41,1276	   0,0778485	76,9	    0,078777	77,2
     41,1305	   0,0780534	76,7	   0,0790803	77,0
     41,1334	   0,0781374	76,6	   0,0792245	77,2
     41,1364	   0,0770743	75,0	   0,0794815	77,1
     41,1393	   0,0785711	76,8	   0,0794134	77,1
     41,1422	   0,0787305	77,1	   0,0785915	76,9
     41,1452	   0,0785539	77,0	   0,0789634	76,1
     41,1481	   0,0789251	76,8	   0,0801063	77,3
      41,151	   0,0792929	77,3	   0,0805483	77,6
      41,154	   0,0794128	77,1	   0,0806032	77,5
     41,1569	   0,0792058	76,4	    0,080723	77,5
     41,1598	     0,07983	76,8	   0,0811857	77,1
     41,1628	   0,0801809	77,0	   0,0812217	77,4
     41,1657	   0,0803003	77,0	   0,0813524	77,5
     41,1686	   0,0803393	77,5	   0,0814308	77,6
     41,1716	   0,0805505	77,0	   0,0818087	77,4
     41,1745	   0,0806622	76,9	   0,0815839	77,9
     41,1774	   0,0810476	77,3	   0,0821764	77,5
     41,1804	   0,0812151	77,2	   0,0821927	77,6
     41,1833	   0,0813276	77,5	   0,0824684	77,5
     41,1862	   0,0814875	77,6	   0,0827515	77,0
     41,1891	   0,0817859	77,5	   0,0830839	77,4
     41,1921	   0,0819248	77,7	   0,0832092	78,1
      41,195	   0,0820938	77,9	   0,0834189	77,2
     41,1979	   0,0822274	77,7	   0,0835396	77,8
     41,2009	   0,0825615	77,6	   0,0826788	77,8
     41,2038	   0,0826665	77,3	   0,0839826	77,8
     41,2067	   0,0829981	77,6	   0,0840281	78,0
     41,2097	   0,0830859	77,8	   0,0844735	78,1
     41,2126	   0,0826083	78,3	   0,0839302	78,4
     41,2155	    0,083518	78,3	   0,0845018	78,1
     41,2185	   0,0838093	77,8	   0,0843106	78,1
     41,2214	   0,0840266	78,0	   0,0854498	78,3
     41,2243	   0,0843511	78,0	   0,0857519	78,4
     41,2273	   0,0842978	77,9	    0,085982	78,5
     41,2302	   0,0845773	78,3	   0,0861441	78,6
     41,2331	   0,0848523	78,1	    0,085956	78,4
     41,2361	   0,0850657	78,1	   0,0862445	78,8
      41,239	   0,0853558	78,2	   0,0860408	78,8
     41,2419	   0,0854734	78,3	   0,0871576	78,5
     41,2449	   0,0857767	78,0	   0,0873868	78,8
     41,2478	   0,0859709	78,4	   0,0876693	78,8
     41,2507	    0,086194	78,4	     0,08786	78,7
     41,2537	   0,0865474	78,3	   0,0877486	79,0
     41,2566	   0,0865795	78,2	   0,0878895	78,8
     41,2595	   0,0869455	78,2	   0,0886168	79,2
     41,2625	   0,0871484	78,3	   0,0886415	79,0
     41,2654	   0,0874904	78,5	   0,0886754	79,0
     41,2683	   0,0877243	78,9	   0,0894423	79,0
     41,2713	   0,0880692	78,7	    0,089701	79,3
     41,2742	   0,0882439	78,5	    0,089494	79,2
     41,2771	   0,0884495	78,9	   0,0896969	79,1
     41,2801	    0,088493	78,8	   0,0904465	79,3
      41,283	   0,0887078	79,1	   0,0907373	79,6
     41,2859	   0,0890212	79,2	   0,0910591	79,7
     41,2889	   0,0894658	78,9	   0,0913684	79,6
     41,2918	   0,0896389	79,2	    0,090659	79,7
     41,2947	   0,0899624	79,1	   0,0919027	79,7
     41,2977	   0,0901566	79,0	   0,0917602	79,7
     41,3006	   0,0905456	79,0	   0,0925941	80,0
     41,3035	   0,0908349	79,0	    0,092738	80,2
     41,3064	   0,0910551	79,3	    0,092983	79,7
     41,3094	   0,0913563	79,3	   0,0932663	79,7
     41,3123	   0,0916385	79,2	    0,093692	79,8
     41,3153	   0,0920046	79,5	   0,0940682	80,1
     41,3182	   0,0921478	79,4	   0,0940902	80,3
     41,3211	   0,0924223	79,7	   0,0946275	80,3
      41,324	   0,0928037	79,6	   0,0945756	80,1
      41,327	   0,0930848	80,1	   0,0953102	80,1
     41,3299	   0,0933657	80,0	   0,0957403	80,4
     41,3328	   0,0936674	79,8	    0,095693	80,4
     41,3358	   0,0939624	79,9	    0,096193	80,9
     41,3387	   0,0941959	79,9	   0,0965488	80,6
     41,3416	     0,09454	80,1	   0,0966707	80,5
     41,3446	   0,0948618	80,2	   0,0968549	80,6
     41,3475	   0,0951651	80,2	   0,0977862	80,9
     41,3504	    0,095567	80,1	   0,0980887	81,1
     41,3534	   0,0959288	80,1	   0,0981044	81,2
     41,3563	   0,0961841	80,4	   0,0987425	81,1
     41,3592	   0,0964583	80,5	   0,0992073	81,4
     41,3622	   0,0967574	80,5	   0,0995602	81,5
     41,3651	   0,0971316	80,5	   0,0999433	81,5
      41,368	   0,0974093	80,6	   0,0999894	81,6
      41,371	   0,0978759	80,7	    0,100813	81,6
     41,3739	   0,0981815	80,7	    0,100981	81,6
     41,3768	   0,0984574	81,1	    0,101556	82,0
     41,3798	   0,0988534	81,1	    0,101795	81,4
     41,3827	   0,0991518	81,2	    0,102272	81,8
     41,3856	   0,0995662	81,2	    0,102836	81,8
     41,3886	   0,0999113	81,4	    0,103393	82,2
     41,3915	    0,100368	81,1	    0,104045	82,7
     41,3944	    0,100811	81,6	    0,104682	82,7
     41,3974	    0,101196	81,5	    0,105097	82,7
     41,4003	    0,101413	81,7	    0,105459	82,8
     41,4032	    0,101801	82,1	    0,105231	82,4
     41,4062	    0,102287	81,7	    0,107757	82,0
     41,4091	     0,10253	81,8	    0,114748	81,0
      41,412	    0,102954	81,8	    0,127383	81,6
      41,415	    0,103383	82,1	    0,146463	85,4
     41,4179	    0,103881	82,1	    0,162288	90,4
     41,4208	      0,1042	82,4	    0,182028	95,9
     41,4238	    0,104617	82,2	     0,19142	101,5
     41,4267	    0,105155	82,4	    0,199843	106,6
     41,4296	    0,105517	82,5	    0,212593	112,0
     41,4326	    0,105859	82,8	    0,220776	115,6
     41,4355	    0,106432	83,1	    0,226477	119,2
     41,4384	    0,106908	83,0	    0,230252	121,9
     41,4413	    0,107506	82,9	    0,233398	124,3
     41,4443	    0,107893	82,7	    0,235931	126,9
     41,4472	    0,108331	83,3	    0,238212	129,0
     41,4501	    0,108855	83,6	    0,239688	131,0
     41,4531	     0,10939	83,4	    0,241013	132,4
      41,456	    0,109725	83,5	    0,242464	133,8
     41,4589	    0,110333	83,5	    0,243444	135,2
     41,4619	    0,110828	83,6	    0,245069	136,6
     41,4648	    0,110998	83,6	    0,245936	137,7
     41,4677	    0,111858	84,4	    0,246575	138,6
     41,4707	    0,112473	84,3	    0,247058	139,6
     41,4736	    0,113023	84,5	    0,247365	140,9
     41,4765	    0,113274	84,6	    0,248003	142,1
     41,4795	    0,113992	84,8	     0,24891	142,7
     41,4824	    0,114602	84,7	    0,249075	143,2
     41,4853	    0,115258	84,8	    0,248825	144,1
     41,4883	    0,115847	85,1	    0,249627	145,0
     41,4912	    0,116404	85,4	    0,249801	146,0
     41,4941	    0,117065	85,6	    0,249672	146,2
     41,4971	    0,117445	85,3	    0,249955	146,9
        41,5	    0,118565	85,5	    0,250043	147,8
     41,5029	    0,119029	85,8	    0,250088	148,1
     41,5059	    0,119827	86,1	    0,249702	148,5
     41,5088	    0,120568	86,5	    0,250223	148,8
     41,5117	    0,121294	86,4	    0,250139	149,2
     41,5147	    0,121947	86,7	    0,250005	149,8
     41,5176	    0,122752	86,9	    0,249947	150,0
     41,5205	    0,123348	87,0	    0,249442	150,5
     41,5235	    0,123972	87,0	    0,248945	150,6
     41,5264	    0,124896	87,2	    0,249308	151,4
     41,5293	    0,126066	87,7	     0,24923	151,9
     41,5323	    0,126489	87,7	    0,248682	152,0
     41,5352	    0,127523	88,6	     0,24863	152,6
     41,5381	    0,128665	88,5	     0,24906	153,1
     41,5411	    0,129388	88,8	    0,248896	153,6
      41,544	    0,130971	89,0	    0,248683	154,1
     41,5469	    0,132088	89,4	    0,248179	154,3
     41,5499	    0,132665	89,4	    0,248143	154,4
     41,5528	    0,134282	89,9	    0,248259	155,0
     41,5557	    0,135166	90,4	    0,248021	155,4
     41,5587	    0,136419	91,2	    0,247736	155,4
     41,5616	    0,137585	91,3	    0,247723	156,0
     41,5645	    0,139154	91,8	    0,247218	156,8
     41,5674	     0,14032	91,9	    0,247245	157,1
     41,5704	    0,141833	92,3	    0,247119	157,1
     41,5733	    0,143331	93,3	    0,247028	157,5
     41,5762	    0,144954	93,4	    0,247085	157,8
     41,5792	    0,147063	94,3	      0,2466	158,2
     41,5821	    0,149084	95,1	    0,246324	158,4
      41,585	    0,150497	95,7	    0,246335	158,5
      41,588	    0,153808	96,6	    0,246106	158,9
     41,5909	    0,156574	97,4	    0,245825	159,2
     41,5938	    0,158995	98,1	    0,245531	159,6
     41,5968	     0,16239	99,7	     0,24535	159,9
     41,5997	    0,165713	100,8	    0,245184	160,4
     41,6026	    0,169392	102,3	    0,244983	160,8
     41,6056	    0,174449	104,5	    0,244755	160,9
     41,6085	     0,17862	106,4	    0,244541	161,1
     41,6114	    0,183512	108,9	    0,244313	161,5
     41,6144	    0,188788	111,4	    0,244103	161,6
     41,6173	     0,19589	114,7	    0,243733	161,8
     41,6202	    0,202589	118,5	    0,243567	162,3
     41,6232	    0,209188	122,9	    0,243443	162,8
     41,6261	    0,216131	127,9	    0,243182	163,3
      41,629	     0,22301	133,7	    0,242903	163,1
      41,632	    0,231925	141,4	    0,242647	163,5
     41,6349	     0,23814	148,2	    0,242337	163,6
     41,6378	    0,241999	153,8	    0,242035	164,0
     41,6408	     0,24426	158,6	    0,241729	163,9
     41,6437	    0,245457	162,5	      0,2413	164,1
     41,6466	    0,244884	164,7	    0,241121	164,8
     41,6496	    0,243556	165,4	    0,240917	165,3
     41,6525	    0,242899	166,1	    0,240708	164,9
     41,6554	    0,242065	166,5	    0,240493	165,5
     41,6584	     0,24137	166,7	    0,240061	165,7
     41,6613	    0,240956	166,2	    0,239833	166,3
     41,6642	    0,240818	166,4	    0,239596	166,2
     41,6672	    0,240513	166,9	    0,239274	166,5
     41,6701	    0,240263	167,1	    0,238929	166,9
      41,673	    0,239775	167,0	    0,238672	166,8
      41,676	    0,239611	167,4	    0,238266	166,9
     41,6789	    0,239128	167,8	    0,237956	167,2
     41,6818	    0,238844	167,9	    0,237724	167,7
     41,6847	     0,23868	168,1	    0,237648	167,5
     41,6877	    0,238294	168,3	    0,237447	168,1
     41,6906	    0,237867	168,9	    0,236995	168,6
     41,6936	    0,237587	168,9	     0,23662	168,5
     41,6965	    0,237337	168,9	    0,236389	168,6
     41,6994	    0,236969	169,5	    0,236114	168,9
     41,7023	    0,236563	169,7	    0,235782	169,3
     41,7053	    0,236074	169,7	    0,235463	169,5
     41,7082	    0,235971	169,7	    0,235183	169,4
     41,7111	    0,235692	170,4	    0,234783	170,0
     41,7141	    0,235395	170,3	    0,234666	170,1
      41,717	    0,234959	170,6	    0,234266	170,1
     41,7199	    0,234627	170,3	    0,233965	170,3
     41,7229	    0,234251	171,0	    0,233761	170,9
     41,7258	     0,23419	171,3	     0,23333	170,7
     41,7287	    0,233763	171,1	    0,233187	171,0
     41,7317	    0,233411	171,8	    0,232973	171,7
     41,7346	    0,233076	171,8	    0,232618	171,8
     41,7375	    0,232542	172,0	    0,232114	171,7
     41,7405	    0,231889	171,8	    0,231904	172,1
     41,7434	    0,231731	172,1	    0,231691	172,4
     41,7463	    0,231089	172,2	    0,231245	172,3
     41,7493	    0,231066	172,4	    0,230976	172,5
     41,7522	    0,230905	172,5	      0,2307	173,2
     41,7551	    0,230523	172,7	    0,230257	173,0
     41,7581	     0,23022	173,1	    0,230005	173,0
      41,761	    0,229646	172,8	    0,229423	173,4
     41,7639	    0,229452	173,4	    0,229331	173,4
     41,7669	    0,229166	173,7	    0,229133	173,4
     41,7698	    0,229009	174,1	    0,228887	173,8
     41,7727	    0,228648	174,1	    0,228366	174,2
     41,7757	    0,228313	174,6	    0,227757	174,4
     41,7786	    0,227987	174,5	    0,227518	174,1
     41,7815	    0,227638	174,5	    0,227544	174,8
     41,7845	    0,227274	174,5	    0,227314	175,4
     41,7874	    0,226842	174,9	    0,227028	175,4
     41,7903	    0,226636	175,1	    0,226564	175,6
     41,7933	    0,226306	175,2	    0,226301	175,9
     41,7962	     0,22563	175,2	    0,226023	175,7
     41,7991	    0,225719	176,0	    0,225583	175,6
     41,8021	       0,224	175,6	    0,225249	176,2
      41,805	    0,225086	176,1	    0,224631	176,4
     41,8079	    0,224457	176,6	    0,224329	176,9
     41,8109	    0,224246	176,7	    0,224385	176,3
     41,8138	    0,223957	176,6	    0,223958	176,8
     41,8167	    0,223476	177,0	    0,223723	176,8
     41,8196	    0,223236	177,1	    0,223459	177,2
     41,8226	    0,222953	177,3	    0,223095	177,4
     41,8255	    0,222574	177,3	    0,222823	177,6
     41,8284	    0,222228	177,7	    0,222201	177,5
     41,8314	    0,221885	177,7	    0,222058	177,8
     41,8343	    0,221581	177,5	    0,221684	177,9
     41,8372	     0,22122	177,9	    0,221069	178,3
     41,8402	    0,221023	178,1	    0,221262	178,6
     41,8431	    0,220595	178,5	    0,220779	178,5
      41,846	    0,220199	178,4	    0,220498	178,9
      41,849	    0,219928	178,8	     0,22021	179,1
     41,8519	    0,219438	179,2	    0,219756	179,3
     41,8548	    0,219156	179,0	    0,219469	179,4
     41,8578	    0,218847	179,5	    0,218906	179,5
     41,8607	    0,218467	179,6	     0,21861	179,6
     41,8636	     0,21808	179,6	    0,218509	179,8
     41,8666	     0,21784	180,0	    0,218172	179,9
     41,8695	    0,217401	180,3	    0,217863	180,5
     41,8724	    0,217155	180,0	    0,217421	180,2
     41,8754	    0,216781	180,5	     0,21719	180,1
     41,8783	    0,216407	180,7	    0,216679	180,6
     41,8812	    0,216117	180,5	    0,216549	180,7
     41,8842	     0,21573	180,6	    0,216264	180,8
     41,8871	    0,215386	181,0	    0,215826	181,1
       41,89	    0,215133	181,3	    0,215586	181,3
      41,893	    0,214755	181,4	     0,21526	181,1
     41,8959	    0,214265	181,4	    0,214898	181,6
     41,8988	    0,214101	181,7	    0,214374	181,7
     41,9018	    0,213718	181,4	    0,214262	181,7
     41,9047	    0,213408	182,1	    0,213903	182,0
     41,9076	    0,213035	182,3	    0,213641	182,2
     41,9106	    0,212591	181,9	    0,213294	182,3
     41,9135	    0,212345	182,5	    0,212949	182,5
     41,9164	    0,212011	182,9	    0,212554	182,5
     41,9194	    0,211635	182,7	    0,212272	183,0
     41,9223	    0,211343	182,9	    0,211886	182,9
     41,9252	    0,210911	183,2	    0,211585	183,2
     41,9282	    0,210628	183,0	    0,211274	183,4
     41,9311	    0,210226	183,5	    0,210777	183,6
      41,934	    0,209872	183,9	    0,210579	183,6
      41,937	    0,209156	183,6	    0,210162	183,9
     41,9399	    0,208624	183,7	    0,209688	184,0
     41,9428	    0,208672	184,0	    0,209266	184,4
     41,9457	    0,208314	184,1	      0,2092	184,1
     41,9487	    0,208157	184,4	    0,208404	184,5
     41,9516	    0,207764	184,9	    0,208457	184,8
     41,9545	     0,20696	184,7	    0,208102	184,8
     41,9575	    0,206955	184,6	    0,207545	185,1
     41,9604	    0,206704	185,1	    0,207484	185,1
     41,9633	    0,206431	185,1	    0,207113	185,3
     41,9663	    0,206136	185,4	    0,206566	185,3
     41,9692	    0,205601	185,7	    0,206306	185,7
     41,9721	    0,205355	185,5	    0,206138	185,7
     41,9751	     0,20495	185,6	    0,205519	185,5
      41,978	    0,204456	186,2	    0,205395	186,1
     41,9809	    0,204431	186,1	     0,20508	186,1
     41,9839	    0,204019	186,1	    0,204626	186,1
     41,9868	     0,20363	186,5	    0,204055	186,5
     41,9897	    0,203086	186,3	    0,203991	186,4
     41,9927	    0,202897	186,3	      0,2033	186,8
     41,9956	    0,202545	186,7	    0,203161	186,9
     41,9985	     0,20223	186,7	     0,20275	186,7
     42,0015	    0,201915	187,0	    0,202517	187,0
     42,0044	    0,201512	187,0	    0,202433	187,4
     42,0073	    0,201122	187,1	    0,201831	187,5
     42,0103	    0,201111	187,3	    0,201278	187,6
     42,0132	    0,200341	187,7	    0,201302	187,8
     42,0161	    0,200034	187,6	    0,200887	187,7
     42,0191	     0,19952	187,5	    0,200382	187,9
      42,022	    0,199041	187,8	    0,200004	188,0
     42,0249	    0,198909	187,6	    0,199716	187,9
     42,0279	     0,19855	188,2	    0,199633	188,7
     42,0308	    0,198345	188,5	    0,199176	188,4
     42,0337	    0,197863	188,2	    0,198615	188,9
     42,0367	     0,19764	188,4	    0,198291	188,8
     42,0396	    0,197309	188,9	    0,197955	188,7
     42,0425	    0,196974	188,8	    0,197843	189,1
     42,0455	    0,196534	189,3	    0,197595	189,4
     42,0484	    0,196132	189,3	    0,197288	189,4
     42,0513	    0,195816	189,0	    0,196878	190,0
     42,0543	     0,19545	189,3	    0,196228	189,9
     42,0572	     0,19517	189,3	    0,195845	189,7
     42,0601	    0,194821	189,7	    0,195395	190,0
      42,063	    0,194358	190,0	    0,195522	190,2
      42,066	    0,193923	189,9	     0,19495	189,9
     42,0689	    0,193748	190,0	    0,194389	190,5
     42,0718	    0,193091	190,2	    0,194475	190,6
     42,0748	    0,192839	190,2	    0,194025	190,7
     42,0777	     0,19263	190,2	    0,193743	190,9
     42,0806	    0,191892	190,5	    0,193419	191,0
     42,0836	    0,191775	190,3	    0,192933	191,0
     42,0865	    0,191684	191,2	    0,192541	191,3
     42,0894	     0,19133	191,2	    0,192048	191,0
     42,0924	     0,19046	190,7	    0,191824	191,4
     42,0953	    0,190136	191,3	    0,191483	191,2
     42,0982	    0,190253	191,3	    0,191153	191,7
     42,1012	    0,189405	191,5	    0,190644	191,7
     42,1041	     0,18949	192,0	    0,190512	191,9
      42,107	    0,189153	191,9	    0,190272	192,2
       42,11	    0,188592	192,4	    0,189958	192,1
     42,1129	    0,188313	192,3	    0,189515	192,1
     42,1158	    0,187963	192,2	    0,189031	192,2
     42,1188	    0,187437	192,6	     0,18874	192,3
     42,1217	    0,187261	192,7	    0,188574	192,4
     42,1246	    0,187125	192,9	    0,188094	192,8
     42,1276	    0,186707	193,1	    0,187913	192,6
     42,1305	    0,186348	193,1	    0,187276	192,9
     42,1334	      0,1858	193,5	    0,186979	193,1
     42,1364	     0,18575	193,4	    0,186931	193,1
     42,1393	    0,184942	193,3	      0,1866	193,3
     42,1422	    0,184796	193,7	    0,186255	193,5
     42,1452	     0,18458	193,6	    0,185603	193,6
     42,1481	    0,184425	193,9	    0,185386	193,6
      42,151	    0,184012	194,3	    0,185046	193,7
      42,154	    0,183392	194,3	    0,184703	194,3
     42,1569	    0,182828	194,2	    0,184302	194,0
     42,1598	    0,182852	194,5	    0,184012	194,2
     42,1628	    0,182534	194,4	    0,183401	194,4
     42,1657	    0,182131	194,7	    0,183432	194,4
     42,1686	    0,181781	194,8	    0,182996	194,8
     42,1716	    0,181574	194,7	    0,182487	194,9
     42,1745	    0,181115	194,8	    0,182444	194,9
     42,1774	    0,180658	195,0	    0,181922	195,0
     42,1804	    0,180391	195,2	    0,181547	195,0
     42,1833	    0,180198	195,3	    0,181095	195,2
     42,1862	    0,179665	195,4	     0,18101	195,8
     42,1891	    0,179491	195,6	    0,180546	195,4
     42,1921	    0,179068	195,6	    0,180282	195,5
      42,195	    0,178351	195,6	    0,179785	195,8
     42,1979	    0,178389	196,0	    0,179432	195,8
     42,2009	    0,178073	195,9	    0,179112	195,9
     42,2038	    0,177805	196,5	    0,179062	196,0
     42,2067	     0,17737	196,4	    0,178699	196,3
     42,2097	    0,176953	196,4	    0,178344	196,2
     42,2126	     0,17665	196,8	    0,178096	196,5
     42,2155	    0,176306	196,9	    0,177683	196,6
     42,2185	    0,175964	197,0	      0,1773	196,6
     42,2214	    0,175537	197,0	    0,177028	197,0
     42,2243	     0,17501	197,3	    0,176482	196,6
     42,2273	    0,174713	197,4	    0,176264	197,0
     42,2302	    0,174507	197,3	    0,175761	197,1
     42,2331	     0,17419	197,8	    0,175616	197,3
     42,2361	    0,173903	197,4	    0,175244	197,5
      42,239	    0,173596	197,7	    0,174912	197,4
     42,2419	    0,173119	197,8	    0,174591	197,8
     42,2449	    0,172806	197,5	    0,174267	197,9
     42,2478	    0,172529	198,1	    0,174012	197,7
     42,2507	    0,172206	197,8	    0,173665	198,3
     42,2537	    0,171798	198,4	     0,17318	198,0
     42,2566	    0,171394	198,3	    0,172899	198,2
     42,2595	    0,171164	198,4	    0,172666	198,1
     42,2625	    0,170792	198,9	    0,172309	198,3
     42,2654	    0,170437	198,6	    0,171963	198,7
     42,2683	    0,170031	199,1	    0,171643	198,4
     42,2713	    0,169579	199,4	    0,171385	199,0
     42,2742	    0,169419	198,9	     0,17101	198,8
     42,2771	    0,169171	199,3	    0,170612	198,9
     42,2801	    0,168667	199,3	    0,170364	199,2
      42,283	    0,168343	199,6	    0,170021	199,3
     42,2859	    0,168082	199,3	    0,169572	199,5
     42,2889	    0,167708	199,5	    0,169306	199,5
     42,2918	    0,167282	199,9	    0,168918	199,7
     42,2947	    0,166847	199,6	    0,168573	199,7
     42,2977	    0,166654	199,9	     0,16828	199,7
     42,3006	    0,166355	199,8	    0,167951	-159,8
     42,3035	    0,166055	-159,5	    0,167667	-160,2
     42,3064	    0,165646	-159,9	    0,167232	-159,9
     42,3094	    0,165264	-159,8	    0,166949	-160,0
     42,3123	    0,164882	-159,3	    0,166593	-159,6
     42,3153	    0,164537	-159,3	    0,166373	-159,7
     42,3182	    0,164274	-159,0	    0,166008	-159,7
     42,3211	    0,163925	-158,8	    0,165639	-159,1
      42,324	    0,163638	-158,9	    0,165349	-159,1
      42,327	    0,163263	-158,7	    0,165004	-159,0
     42,3299	    0,162994	-159,1	    0,164645	-158,8
     42,3328	    0,162567	-158,9	    0,164281	-158,6
     42,3358	    0,162186	-158,9	    0,163954	-158,8
     42,3387	    0,161833	-158,7	    0,163669	-158,8
     42,3416	    0,161522	-158,6	    0,163315	-158,6
     42,3446	    0,161231	-158,0	     0,16299	-158,7
     42,3475	    0,160953	-158,2	    0,162667	-158,2
     42,3504	      0,1605	-158,3	    0,162257	-158,5
     42,3534	    0,160257	-157,6	    0,162054	-158,0
     42,3563	    0,159835	-157,8	    0,161724	-158,1
     42,3592	    0,159491	-157,7	    0,161352	-157,5
     42,3622	    0,159192	-157,5	    0,160862	-157,7
     42,3651	    0,158922	-157,5	    0,160649	-157,6
      42,368	    0,158647	-157,5	    0,160327	-157,2
      42,371	    0,158255	-157,6	    0,159995	-157,7
     42,3739	    0,157834	-157,3	    0,159597	-157,2
     42,3768	    0,157624	-157,1	    0,159312	-157,5
     42,3798	     0,15721	-157,0	    0,159099	-157,3
     42,3827	    0,156944	-156,9	    0,158731	-157,1
     42,3856	    0,156472	-156,4	    0,158412	-157,0
     42,3886	    0,156188	-156,5	    0,158004	-156,9
     42,3915	    0,155904	-156,4	     0,15769	-156,7
     42,3944	    0,155522	-156,3	    0,157362	-156,2
     42,3974	      0,1552	-156,3	    0,157084	-156,6
     42,4003	     0,15488	-156,5	    0,156657	-156,2
     42,4032	    0,154554	-156,3	    0,156492	-156,3
     42,4062	    0,154248	-156,0	    0,156079	-156,2
     42,4091	    0,153886	-156,1	    0,155768	-156,3
      42,412	     0,15347	-155,8	    0,155368	-155,8
      42,415	    0,153237	-155,9	    0,154977	-155,8
     42,4179	    0,152919	-155,6	    0,154699	-155,8
     42,4208	    0,152584	-155,6	    0,154441	-155,4
     42,4238	    0,152219	-155,4	    0,154137	-155,7
     42,4267	    0,151892	-154,9	     0,15367	-155,1
     42,4296	     0,15156	-155,4	    0,153434	-155,4
     42,4326	    0,151218	-155,2	     0,15314	-155,1
     42,4355	    0,150893	-155,4	    0,152884	-155,5
     42,4384	    0,150503	-155,0	    0,152351	-155,3
     42,4413	    0,150301	-155,0	    0,152079	-155,2
     42,4443	    0,149935	-154,9	     0,15184	-154,8
     42,4472	    0,149647	-154,5	     0,15146	-154,8
     42,4501	    0,149272	-154,3	    0,151098	-154,4
     42,4531	    0,148956	-154,1	    0,150759	-154,6
      42,456	    0,148649	-154,3	    0,150572	-154,4
     42,4589	    0,148348	-154,3	    0,150158	-154,3
     42,4619	    0,148022	-154,3	    0,149844	-154,5
     42,4648	    0,147583	-153,9	    0,149549	-154,3
     42,4677	    0,147306	-154,2	    0,149206	-154,1
     42,4707	    0,147048	-153,7	    0,148767	-153,9
     42,4736	    0,146744	-153,7	    0,148571	-153,9
     42,4765	    0,146323	-153,6	    0,148217	-153,4
     42,4795	    0,146021	-153,5	     0,14786	-153,7
     42,4824	    0,145765	-153,3	    0,147638	-153,5
     42,4853	     0,14535	-153,1	    0,147386	-153,7
     42,4883	    0,145064	-153,4	    0,146925	-153,5
     42,4912	    0,144738	-153,1	    0,146601	-153,4
     42,4941	     0,14443	-153,3	    0,146243	-153,0
     42,4971	    0,144109	-152,9	    0,145934	-153,0
        42,5	    0,143797	-153,1	     0,14561	-152,9
     42,5029	    0,143458	-152,5	    0,145348	-152,7
     42,5059	     0,14321	-152,7	    0,145045	-153,1
     42,5088	    0,142801	-152,4	    0,144585	-152,5
     42,5117	     0,14249	-152,8	    0,144367	-152,7
     42,5147	    0,142229	-152,4	    0,144097	-152,5
     42,5176	    0,141843	-152,6	    0,143665	-152,6
     42,5205	    0,141548	-152,1	    0,143329	-151,9
     42,5235	    0,141255	-152,2	    0,143163	-152,2
     42,5264	    0,140863	-152,0	    0,142713	-152,0
     42,5293	    0,140624	-151,6	    0,142356	-152,1
     42,5323	    0,140337	-151,8	    0,142101	-151,8
     42,5352	    0,139943	-152,0	    0,141837	-152,2
     42,5381	    0,139788	-151,6	    0,141417	-151,5
     42,5411	    0,139353	-151,6	    0,141168	-151,6
      42,544	    0,139128	-151,6	    0,140821	-151,4
     42,5469	    0,138774	-151,0	    0,140552	-151,4
     42,5499	    0,138403	-151,3	    0,140304	-151,3
     42,5528	    0,138014	-150,8	    0,139866	-151,2
     42,5557	     0,13786	-151,4	    0,139524	-151,3
     42,5587	    0,137472	-151,3	    0,139309	-151,3
     42,5616	     0,13723	-151,0	    0,138947	-150,8
     42,5645	    0,136859	-150,8	     0,13856	-150,9
     42,5674	    0,136609	-150,9	    0,138274	-150,7
     42,5704	    0,136217	-150,3	    0,137998	-150,3
     42,5733	    0,136016	-150,6	    0,137691	-150,6
     42,5762	    0,135604	-150,2	    0,137486	-150,8
     42,5792	    0,135427	-150,6	    0,137012	-150,8
     42,5821	     0,13509	-150,3	    0,136707	-150,4
      42,585	    0,134698	-150,2	    0,136395	-150,0
      42,588	    0,134365	-150,2	    0,136093	-150,0
     42,5909	    0,133938	-150,4	    0,135807	-150,0
     42,5938	    0,133836	-149,6	    0,135529	-149,8
     42,5968	    0,133626	-150,0	    0,135266	-150,1
     42,5997	    0,133249	-149,6	    0,134929	-150,0
     42,6026	    0,132947	-149,8	     0,13452	-149,7
     42,6056	    0,132633	-149,5	      0,1342	-149,4
     42,6085	    0,132273	-149,5	    0,133911	-149,5
     42,6114	    0,131954	-149,5	    0,133588	-149,1
     42,6144	    0,131587	-149,4	    0,133312	-149,4
     42,6173	    0,131468	-149,1	    0,133113	-149,5
     42,6202	    0,131092	-149,4	    0,132709	-149,5
     42,6232	    0,130768	-149,0	    0,132447	-149,0
     42,6261	    0,130486	-149,0	    0,132081	-149,0
      42,629	    0,130198	-148,8	    0,131839	-148,7
      42,632	    0,129873	-148,9	    0,131582	-148,9
     42,6349	    0,129657	-148,6	    0,131135	-148,5
     42,6378	    0,129274	-148,4	    0,130948	-148,8
     42,6408	    0,129054	-148,4	    0,130539	-148,6
     42,6437	    0,128751	-148,7	    0,130262	-148,3
     42,6466	    0,128378	-148,2	    0,129913	-148,4
     42,6496	    0,128087	-148,4	    0,129535	-148,1
     42,6525	    0,127927	-147,9	    0,129399	-148,0
     42,6554	    0,127581	-148,0	     0,12911	-148,3
     42,6584	    0,127233	-147,8	    0,128724	-148,3
     42,6613	    0,126979	-148,1	    0,128398	-148,1
     42,6642	    0,126546	-147,9	    0,128126	-147,7
     42,6672	    0,126394	-148,1	    0,127859	-147,6
     42,6701	    0,126134	-147,5	    0,127584	-148,0
      42,673	    0,125816	-147,6	    0,127199	-147,5
      42,676	    0,125469	-147,3	    0,126903	-147,7
     42,6789	    0,125066	-147,3	    0,126647	-147,4
     42,6818	    0,124777	-147,4	    0,126358	-147,5
     42,6847	    0,124596	-147,5	    0,126025	-147,2
     42,6877	    0,124361	-147,3	    0,125664	-147,3
     42,6906	    0,124074	-147,2	    0,125392	-147,0
     42,6936	    0,123646	-146,7	    0,125241	-147,4
     42,6965	    0,123473	-147,2	    0,124917	-146,8
     42,6994	    0,123143	-146,6	    0,124551	-147,1
     42,7023	    0,122837	-147,1	    0,124221	-146,5
     42,7053	    0,122467	-146,6	    0,124042	-146,9
     42,7082	    0,122306	-146,6	    0,123632	-146,6
     42,7111	    0,121922	-146,2	    0,123346	-146,6
     42,7141	    0,121577	-146,8	    0,123014	-146,3
      42,717	    0,121319	-146,4	    0,122861	-146,6
     42,7199	    0,121139	-146,7	    0,122493	-146,3
     42,7229	    0,120758	-146,0	    0,122198	-146,4
     42,7258	    0,120501	-146,0	    0,121955	-146,4
     42,7287	    0,120141	-145,6	    0,121569	-145,9
     42,7317	    0,120001	-146,0	    0,121363	-146,0
     42,7346	    0,119726	-146,1	    0,121089	-145,9
     42,7375	     0,11931	-145,7	    0,120743	-146,1
     42,7405	    0,119091	-145,8	     0,12043	-145,8
     42,7434	     0,11877	-145,6	     0,12023	-145,9
     42,7463	    0,118479	-145,6	    0,119938	-145,6
     42,7493	    0,118227	-145,5	    0,119586	-145,7
     42,7522	    0,118067	-145,6	    0,119277	-145,4
     42,7551	    0,117637	-145,5	     0,11908	-145,8
     42,7581	    0,117295	-145,4	    0,118792	-145,4
      42,761	    0,117001	-144,8	    0,118437	-145,5
     42,7639	    0,116611	-145,0	    0,118213	-145,0
     42,7669	    0,116588	-145,0	    0,117939	-145,1
     42,7698	    0,116253	-145,2	    0,117666	-145,1
     42,7727	    0,115956	-144,9	    0,117357	-144,8
     42,7757	    0,115682	-144,8	     0,11709	-145,1
     42,7786	    0,115384	-144,4	    0,116699	-144,6
     42,7815	    0,115164	-144,8	    0,116415	-144,7
     42,7845	     0,11498	-144,8	    0,116277	-144,5
     42,7874	    0,114682	-144,6	    0,115992	-144,9
     42,7903	    0,114373	-144,5	    0,115665	-144,6
     42,7933	    0,114051	-144,0	    0,115361	-144,5
     42,7962	    0,113883	-144,7	    0,115183	-144,1
     42,7991	    0,113505	-144,1	    0,114813	-144,3
     42,8021	    0,113211	-144,4	    0,114572	-144,6
      42,805	    0,112983	-144,0	    0,114303	-144,2
     42,8079	    0,112767	-144,0	    0,113967	-144,2
     42,8109	    0,112423	-143,8	    0,113709	-143,8
     42,8138	    0,112041	-143,7	    0,113421	-144,0
     42,8167	    0,111771	-144,0	    0,113177	-144,0
     42,8196	    0,111666	-143,6	    0,112898	-143,8
     42,8226	    0,111314	-143,7	    0,112522	-143,6
     42,8255	    0,111068	-143,4	    0,112285	-143,5
     42,8284	    0,110747	-143,7	    0,112204	-143,9
     42,8314	    0,110437	-143,3	    0,111757	-143,5
     42,8343	      0,1102	-143,5	    0,111567	-143,4
     42,8372	    0,109921	-143,1	    0,111193	-143,3
     42,8402	    0,109687	-143,3	    0,110957	-143,3
     42,8431	    0,109476	-143,1	    0,110701	-143,1
      42,846	    0,109189	-142,9	    0,110458	-143,2
      42,849	    0,108854	-143,2	    0,110145	-142,9
     42,8519	    0,108592	-142,7	    0,109945	-142,8
     42,8548	    0,108331	-143,2	    0,109623	-143,1
     42,8578	    0,107887	-142,9	    0,109252	-143,1
     42,8607	    0,107897	-142,8	    0,109241	-142,7
     42,8636	    0,107541	-142,4	    0,108835	-142,6
     42,8666	    0,107364	-142,6	     0,10852	-142,6
     42,8695	    0,107016	-142,3	    0,108176	-142,9
     42,8724	    0,106848	-142,6	    0,107969	-142,7
     42,8754	    0,106487	-142,6	     0,10776	-142,6
     42,8783	    0,106233	-142,1	    0,107448	-142,1
     42,8812	    0,106006	-142,4	    0,107244	-142,5
     42,8842	     0,10572	-142,2	    0,106877	-142,5
     42,8871	    0,105522	-142,4	    0,106589	-142,5
       42,89	    0,105157	-142,1	    0,106497	-142,1
      42,893	    0,104946	-141,8	    0,106087	-141,9
     42,8959	    0,104827	-142,2	    0,105847	-142,4
     42,8988	    0,104541	-141,7	    0,105508	-141,9
     42,9018	    0,104222	-142,0	    0,105389	-142,3
     42,9047	    0,103894	-141,4	    0,104977	-141,7
     42,9076	    0,103692	-141,6	    0,104834	-141,7
     42,9106	    0,103449	-141,5	    0,104552	-141,6
     42,9135	    0,103199	-141,6	    0,104234	-141,8
     42,9164	    0,102956	-141,5	    0,104129	-141,5
     42,9194	    0,102702	-141,0	    0,103817	-141,3
     42,9223	    0,102397	-141,5	    0,103548	-141,6
     42,9252	    0,102095	-141,1	    0,103203	-141,3
     42,9282	    0,101945	-141,4	    0,102958	-141,4
     42,9311	     0,10151	-140,6	    0,102784	-141,1
      42,934	    0,101391	-141,1	    0,102455	-141,0
      42,937	    0,101106	-141,2	    0,102313	-141,3
     42,9399	    0,100878	-140,9	    0,102014	-140,9
     42,9428	    0,100562	-140,7	    0,101688	-141,2
     42,9457	    0,100392	-140,8	    0,101394	-140,7
     42,9487	    0,100156	-140,9	    0,101162	-140,9
     42,9516	   0,0999124	-141,0	    0,100961	-141,1
     42,9545	   0,0997739	-140,4	    0,100629	-140,6
     42,9575	    0,099463	-140,5	    0,100378	-140,7
     42,9604	   0,0992011	-140,7	    0,100193	-140,6
     42,9633	   0,0989078	-140,6	   0,0999453	-140,6
     42,9663	   0,0985818	-140,5	   0,0996927	-140,6
     42,9692	   0,0984566	-140,2	   0,0993348	-140,2
     42,9721	   0,0982405	-140,5	   0,0990385	-140,4
     42,9751	   0,0979654	-140,3	   0,0989138	-140,2
      42,978	   0,0977942	-139,9	   0,0983965	-140,3
     42,9809	   0,0974599	-139,9	    0,098446	-140,2
     42,9839	   0,0972476	-139,7	   0,0981418	-140,1
     42,9868	   0,0969667	-140,2	   0,0975788	-140,0
     42,9897	   0,0967971	-139,9	   0,0977786	-139,9
     42,9927	   0,0965083	-139,6	   0,0974462	-139,9
     42,9956	    0,096286	-139,6	   0,0971592	-139,7
     42,9985	   0,0960012	-139,8	   0,0968689	-139,8
     43,0015	   0,0958238	-140,0	   0,0967605	-139,9
     43,0044	   0,0955405	-139,4	   0,0965667	-139,3
     43,0073	   0,0953807	-139,5	   0,0962556	-139,8
     43,0103	   0,0950672	-139,7	    0,095883	-139,9
     43,0132	   0,0948757	-139,4	    0,095626	-139,5
     43,0161	   0,0946207	-139,5	   0,0954622	-139,6
     43,0191	   0,0944028	-139,2	   0,0952396	-139,4
      43,022	   0,0940124	-139,2	   0,0950757	-139,3
     43,0249	   0,0940095	-139,3	   0,0948036	-139,5
     43,0279	   0,0937337	-138,9	   0,0945306	-138,8
     43,0308	   0,0935013	-139,4	   0,0943166	-139,4
     43,0337	   0,0932167	-138,9	   0,0939981	-139,4
     43,0367	   0,0930164	-139,3	   0,0938047	-138,9
     43,0396	   0,0926842	-138,8	   0,0936015	-139,3
     43,0425	   0,0925478	-138,7	   0,0933821	-138,9
     43,0455	   0,0921521	-138,8	   0,0931577	-139,2
     43,0484	   0,0920739	-138,8	    0,092834	-138,3
     43,0513	   0,0918588	-138,7	   0,0926626	-138,6
     43,0543	   0,0916938	-138,7	   0,0925346	-138,9
     43,0572	    0,091415	-138,7	   0,0922263	-138,9
     43,0601	    0,091135	-138,9	   0,0919527	-138,7
      43,063	   0,0910126	-138,1	   0,0917003	-138,7
      43,066	   0,0907715	-138,4	   0,0915016	-138,4
     43,0689	   0,0905764	-138,7	   0,0913413	-138,8
     43,0718	   0,0903335	-138,5	   0,0911011	-138,2
     43,0748	   0,0901587	-138,3	   0,0907567	-138,6
     43,0777	   0,0899205	-138,1	   0,0906042	-138,7
     43,0806	   0,0895574	-137,9	   0,0903133	-138,4
     43,0836	   0,0893051	-138,1	   0,0900897	-138,2
     43,0865	   0,0891475	-137,9	   0,0899763	-138,3
     43,0894	   0,0890132	-138,2	   0,0896932	-138,1
     43,0924	   0,0886942	-138,2	   0,0894393	-138,2
     43,0953	   0,0885283	-138,0	   0,0891736	-137,5
     43,0982	   0,0882006	-137,8	   0,0889428	-138,2
     43,1012	   0,0880942	-137,9	   0,0887696	-138,0
     43,1041	   0,0878719	-137,4	   0,0885232	-137,8
      43,107	   0,0875916	-137,6	   0,0882996	-137,9
       43,11	   0,0874578	-137,4	   0,0881077	-137,6
     43,1129	   0,0872811	-137,8	   0,0878384	-137,8
     43,1158	   0,0870276	-137,7	   0,0877133	-137,7
     43,1188	   0,0867875	-137,3	   0,0874584	-137,6
     43,1217	    0,086468	-137,6	    0,087214	-137,6
     43,1246	   0,0863348	-137,5	   0,0869522	-137,5
     43,1276	   0,0861468	-137,4	   0,0867682	-137,1
     43,1305	   0,0858268	-137,2	   0,0866144	-137,7
     43,1334	   0,0856821	-137,4	   0,0864026	-137,4
     43,1364	   0,0855257	-137,5	   0,0861987	-137,0
     43,1393	   0,0852348	-136,9	   0,0858754	-137,2
     43,1422	   0,0849696	-137,1	   0,0856625	-137,2
     43,1452	   0,0848965	-137,6	    0,085447	-137,2
     43,1481	   0,0847684	-136,9	    0,085217	-137,0
      43,151	   0,0845419	-136,9	   0,0850333	-137,0
      43,154	   0,0842057	-137,0	   0,0849567	-137,2
     43,1569	   0,0840141	-136,8	   0,0846008	-137,0
     43,1598	   0,0837546	-137,0	   0,0843373	-136,9
     43,1628	   0,0835465	-136,8	   0,0842124	-137,0
     43,1657	   0,0834521	-136,7	   0,0840139	-136,6
     43,1686	   0,0832122	-136,9	   0,0837024	-136,5
     43,1716	   0,0829294	-136,3	   0,0835041	-137,0
     43,1745	   0,0827365	-136,7	   0,0833447	-136,7
     43,1774	   0,0826276	-136,9	   0,0830534	-136,7
     43,1804	   0,0824558	-136,2	   0,0828761	-136,6
     43,1833	    0,082154	-136,5	    0,082765	-136,4
     43,1862	   0,0819647	-136,4	   0,0824523	-136,8
     43,1891	   0,0816906	-136,1	   0,0823459	-136,3
     43,1921	   0,0815243	-136,3	   0,0820888	-136,4
      43,195	   0,0812977	-136,2	   0,0818741	-136,5
     43,1979	   0,0812308	-136,1	   0,0816075	-136,1
     43,2009	   0,0810401	-136,0	    0,081427	-136,1
     43,2038	   0,0806901	-135,9	   0,0813268	-136,6
     43,2067	   0,0805115	-136,1	   0,0810543	-136,1
     43,2097	   0,0803185	-136,1	   0,0808271	-136,0
     43,2126	   0,0801496	-136,0	   0,0806492	-136,3
     43,2155	   0,0799637	-136,0	   0,0804149	-135,9
     43,2185	   0,0797039	-136,3	   0,0802321	-135,9
     43,2214	   0,0795126	-135,6	   0,0800358	-136,2
     43,2243	   0,0793536	-135,8	   0,0798659	-135,9
     43,2273	   0,0791918	-136,1	   0,0796173	-136,0
     43,2302	   0,0789864	-135,6	   0,0793988	-135,8
     43,2331	   0,0788493	-135,6	   0,0792025	-135,7
     43,2361	   0,0786678	-135,9	   0,0791302	-135,6
      43,239	   0,0783873	-135,3	   0,0788267	-135,4
     43,2419	   0,0783031	-135,6	   0,0786139	-135,7
     43,2449	   0,0781012	-135,7	   0,0784563	-135,9
     43,2478	   0,0777868	-135,4	   0,0783083	-135,7
     43,2507	   0,0776676	-135,3	   0,0779805	-135,5
     43,2537	   0,0773717	-135,2	   0,0778972	-135,9
     43,2566	   0,0772226	-135,4	   0,0776399	-135,4
     43,2595	   0,0770857	-135,3	    0,077494	-135,3
     43,2625	   0,0768785	-135,5	   0,0774105	-135,6
     43,2654	   0,0765933	-135,1	   0,0770496	-135,3
     43,2683	   0,0764649	-135,2	   0,0768656	-135,0
     43,2713	   0,0763397	-135,3	   0,0767782	-135,5
     43,2742	   0,0760923	-135,1	   0,0765299	-135,2
     43,2771	   0,0758977	-135,4	   0,0762014	-134,9
     43,2801	    0,075778	-134,9	   0,0761323	-135,4
      43,283	   0,0755679	-134,9	   0,0758043	-135,1
     43,2859	   0,0753753	-134,9	   0,0757776	-134,6
     43,2889	   0,0752116	-134,9	   0,0756322	-135,2
     43,2918	   0,0749568	-134,8	   0,0753843	-135,1
     43,2947	   0,0748526	-135,1	   0,0752154	-134,5
     43,2977	   0,0746698	-134,6	   0,0750634	-135,2
     43,3006	   0,0743727	-134,8	   0,0748528	-134,9
     43,3035	   0,0743781	-134,6	   0,0745979	-134,6
     43,3064	   0,0741269	-134,6	   0,0744378	-135,1
     43,3094	   0,0738754	-134,6	   0,0742464	-134,9
     43,3123	   0,0738334	-134,6	   0,0740529	-134,3
     43,3153	   0,0734592	-134,5	   0,0739666	-134,9
     43,3182	   0,0733067	-134,8	    0,073653	-134,7
     43,3211	   0,0732578	-134,8	   0,0734987	-134,2
      43,324	   0,0731273	-134,4	   0,0734657	-134,6
      43,327	   0,0727849	-134,3	    0,073217	-134,8
     43,3299	   0,0726332	-134,2	   0,0729186	-134,3
     43,3328	   0,0724513	-134,3	   0,0728314	-134,5
     43,3358	   0,0723236	-134,3	   0,0725867	-134,7
     43,3387	    0,072174	-134,1	   0,0723515	-134,1
     43,3416	   0,0719367	-134,2	   0,0722226	-134,2
     43,3446	   0,0718174	-134,2	   0,0720894	-134,6
     43,3475	   0,0715618	-134,0	    0,071877	-134,0
     43,3504	   0,0714102	-134,1	   0,0717008	-134,2
     43,3534	   0,0712857	-134,4	   0,0715861	-134,4
     43,3563	   0,0711262	-134,1	   0,0713456	-134,0
     43,3592	   0,0709015	-134,1	   0,0711707	-133,9
     43,3622	   0,0707581	-134,2	   0,0711114	-134,5
     43,3651	   0,0706218	-134,1	   0,0708922	-134,0
      43,368	   0,0704768	-134,0	   0,0705926	-133,9
      43,371	   0,0703189	-133,8	     0,07058	-134,2
     43,3739	   0,0700255	-133,7	   0,0703631	-133,8
     43,3768	    0,069904	-133,7	   0,0701497	-133,8
     43,3798	   0,0699181	-134,1	   0,0699127	-134,0
     43,3827	   0,0694715	-133,6	   0,0698256	-134,0
     43,3856	   0,0694077	-133,6	   0,0696239	-133,6
     43,3886	   0,0693022	-134,0	    0,069521	-133,9
     43,3915	   0,0689954	-133,4	   0,0693162	-133,8
     43,3944	    0,068883	-133,4	   0,0691649	-133,7
     43,3974	    0,068835	-133,9	    0,068899	-133,5
     43,4003	   0,0685908	-133,4	   0,0688131	-133,7
     43,4032	   0,0683451	-133,2	   0,0685496	-133,5
     43,4062	   0,0682425	-133,8	    0,068439	-133,4
     43,4091	   0,0680709	-133,5	   0,0684429	-133,4
      43,412	   0,0677864	-132,9	   0,0681431	-133,8
      43,415	   0,0677736	-133,4	   0,0679724	-133,1
     43,4179	   0,0676916	-133,4	   0,0678451	-133,4
     43,4208	   0,0672989	-132,9	   0,0675229	-133,7
     43,4238	    0,067238	-133,5	   0,0675209	-133,1
     43,4267	   0,0671953	-133,2	    0,067305	-133,2
     43,4296	   0,0669943	-133,4	   0,0670036	-133,4
     43,4326	    0,066732	-133,1	   0,0670146	-133,1
     43,4355	   0,0666418	-133,0	   0,0667761	-133,1
     43,4384	   0,0664572	-133,4	   0,0666294	-133,4
     43,4413	   0,0662826	-133,0	   0,0665634	-133,2
     43,4443	   0,0661394	-133,0	   0,0663678	-133,3
     43,4472	   0,0660183	-133,2	   0,0661139	-133,1
     43,4501	   0,0657578	-133,0	    0,066091	-133,3
     43,4531	   0,0656328	-132,6	   0,0658697	-133,2
      43,456	   0,0655841	-133,1	   0,0656143	-132,8
     43,4589	   0,0654047	-133,0	   0,0654587	-132,9
     43,4619	    0,065194	-132,5	   0,0654059	-133,2
     43,4648	   0,0651259	-132,8	   0,0653278	-132,7
     43,4677	   0,0649068	-132,7	   0,0650311	-133,0
     43,4707	   0,0647833	-132,9	   0,0648567	-133,2
     43,4736	   0,0645991	-132,5	   0,0648403	-132,6
     43,4765	   0,0644369	-132,8	   0,0644856	-132,9
     43,4795	   0,0643617	-132,5	   0,0643941	-132,7
     43,4824	   0,0640544	-132,4	   0,0641884	-132,9
     43,4853	   0,0639387	-132,5	   0,0640703	-132,6
     43,4883	   0,0638375	-132,9	    0,063895	-132,5
     43,4912	   0,0636457	-132,4	    0,063782	-132,8
     43,4941	    0,063575	-132,4	   0,0636602	-132,7
     43,4971	   0,0634915	-132,5	   0,0633866	-132,5
        43,5	   0,0632903	-132,1	   0,0632372	-132,4

