X-Data [Hz]	Laser (M - Filtered) [m/s]	Phase [Deg]	Laser (M - Filtered) [m/s]	Phase [Deg]	
	002: [07-05-24 14:58]		003: [07-05-24 15:04]	
          40	   0,0393119	71,0	   0,0441405	70,9
     40,0039	   0,0417944	70,8	   0,0440971	70,7
     40,0078	   0,0432618	70,3	    0,044068	70,5
     40,0117	   0,0436029	70,9	   0,0440046	70,7
     40,0156	   0,0437298	71,0	    0,044067	70,7
     40,0196	   0,0439058	70,6	   0,0442559	70,8
     40,0235	   0,0439104	71,2	   0,0443071	71,0
     40,0274	   0,0439786	70,8	   0,0442936	71,2
     40,0313	   0,0440045	70,6	   0,0444363	71,1
     40,0352	    0,044162	70,5	   0,0444775	70,9
     40,0391	    0,044143	70,8	   0,0445164	70,9
      40,043	   0,0440835	70,4	   0,0445408	70,9
     40,0469	    0,044376	70,8	   0,0445221	70,6
     40,0508	   0,0442999	71,0	   0,0447097	70,5
     40,0547	   0,0444007	71,0	    0,044671	71,0
     40,0587	   0,0444541	70,6	    0,044811	70,7
     40,0626	   0,0445064	70,7	   0,0449152	70,7
     40,0665	   0,0445215	70,5	    0,044828	71,1
     40,0704	   0,0445828	70,5	   0,0448816	71,0
     40,0743	   0,0446518	70,9	   0,0448741	71,2
     40,0782	   0,0447174	70,8	   0,0450051	70,8
     40,0821	   0,0447228	70,8	   0,0450871	70,9
      40,086	   0,0446489	70,9	   0,0450163	70,9
     40,0899	   0,0447633	70,7	   0,0450883	71,1
     40,0938	   0,0449235	70,5	   0,0451359	71,1
     40,0978	   0,0449336	70,7	   0,0452543	70,9
     40,1017	   0,0448995	70,8	   0,0453348	70,9
     40,1056	   0,0448954	70,7	    0,045338	70,8
     40,1095	   0,0449126	70,9	   0,0453486	70,7
     40,1134	   0,0450551	71,0	   0,0453939	71,1
     40,1173	   0,0451837	70,7	   0,0454387	71,0
     40,1212	   0,0451176	71,0	   0,0454804	70,9
     40,1251	   0,0452982	70,9	   0,0455378	71,2
      40,129	   0,0452589	70,6	   0,0456626	70,9
     40,1329	   0,0453953	70,5	   0,0457112	70,7
     40,1369	   0,0453937	70,8	   0,0456506	70,9
     40,1408	   0,0454148	70,7	   0,0458021	71,0
     40,1447	   0,0455303	70,9	   0,0458472	70,9
     40,1486	   0,0455445	70,9	    0,045873	70,9
     40,1525	   0,0456397	70,8	   0,0458761	71,2
     40,1564	   0,0457404	70,7	   0,0460293	70,9
     40,1603	   0,0457704	70,9	   0,0460696	70,8
     40,1642	   0,0456323	70,9	   0,0460513	71,0
     40,1681	   0,0457274	70,8	   0,0460846	71,1
      40,172	   0,0458555	71,1	   0,0461018	71,1
      40,176	   0,0458326	70,9	   0,0462266	71,3
     40,1799	   0,0459113	71,0	   0,0461272	71,2
     40,1838	   0,0457671	70,9	   0,0462896	71,0
     40,1877	   0,0460047	70,9	   0,0463824	70,9
     40,1916	     0,04604	71,2	   0,0465062	71,0
     40,1955	   0,0458193	71,2	   0,0465555	71,0
     40,1994	   0,0461187	70,9	   0,0465364	71,0
     40,2033	   0,0460259	71,0	   0,0465366	71,5
     40,2072	    0,046276	70,9	   0,0466688	71,0
     40,2111	    0,046397	70,9	   0,0467838	70,9
     40,2151	   0,0463807	71,1	   0,0468242	70,9
      40,219	   0,0463846	71,1	   0,0468159	71,3
     40,2229	   0,0465115	70,9	   0,0469074	71,0
     40,2268	   0,0465211	70,6	   0,0468346	71,0
     40,2307	   0,0465485	70,9	   0,0469673	71,2
     40,2346	   0,0466882	71,0	   0,0470546	71,0
     40,2385	   0,0467238	70,8	   0,0471924	70,9
     40,2424	   0,0467933	71,0	   0,0471734	71,3
     40,2463	    0,046706	71,2	   0,0471542	71,3
     40,2502	    0,046873	70,9	   0,0472867	70,9
     40,2542	   0,0468535	70,7	   0,0472815	71,0
     40,2581	   0,0469811	71,0	   0,0473474	71,1
      40,262	   0,0470063	71,3	   0,0472926	71,1
     40,2659	   0,0470083	71,0	   0,0474254	71,3
     40,2698	   0,0470442	70,8	   0,0474286	71,1
     40,2737	   0,0470911	71,1	   0,0475114	71,1
     40,2776	     0,04721	71,2	   0,0475023	71,5
     40,2815	   0,0473415	71,0	   0,0476146	71,4
     40,2854	   0,0473119	71,1	   0,0477181	71,1
     40,2893	   0,0473238	70,7	   0,0477002	71,1
     40,2933	   0,0474065	70,8	   0,0477459	71,3
     40,2972	   0,0474599	71,2	   0,0478375	71,2
     40,3011	   0,0475394	71,1	   0,0478393	71,2
      40,305	   0,0475912	70,8	   0,0479835	71,1
     40,3089	   0,0476813	70,9	   0,0480597	71,2
     40,3128	   0,0477352	71,1	   0,0480373	71,1
     40,3167	   0,0477626	71,2	   0,0481204	71,2
     40,3206	   0,0477934	71,0	   0,0481544	71,3
     40,3245	   0,0478931	70,9	   0,0482343	71,2
     40,3284	   0,0479157	71,0	   0,0482696	70,9
     40,3324	   0,0479914	71,4	   0,0484179	71,2
     40,3363	   0,0479915	71,0	     0,04838	71,5
     40,3402	   0,0481238	71,1	   0,0484259	71,5
     40,3441	   0,0482026	71,1	   0,0485699	71,1
      40,348	   0,0481607	71,1	   0,0486226	71,1
     40,3519	   0,0482739	71,0	   0,0487003	71,2
     40,3558	   0,0483842	71,2	   0,0486644	71,6
     40,3597	   0,0484035	71,4	    0,048784	71,4
     40,3636	   0,0483897	71,2	   0,0489158	71,0
     40,3675	   0,0484363	71,0	    0,048923	71,3
     40,3715	   0,0485029	71,1	   0,0490409	71,6
     40,3754	   0,0485701	71,4	   0,0490224	71,3
     40,3793	   0,0486672	71,2	   0,0489927	71,2
     40,3832	   0,0488129	71,2	   0,0491523	71,4
     40,3871	   0,0486748	71,3	   0,0492178	71,6
      40,391	    0,048717	70,9	   0,0492324	71,6
     40,3949	   0,0489395	71,4	   0,0493298	71,4
     40,3988	   0,0489582	71,3	   0,0493641	71,2
     40,4027	   0,0486287	70,9	   0,0494148	71,3
     40,4066	   0,0490739	71,2	   0,0495125	71,6
     40,4106	   0,0491943	71,4	   0,0495002	71,4
     40,4145	   0,0491257	71,6	    0,049661	71,2
     40,4184	   0,0491568	71,4	   0,0497509	71,4
     40,4223	    0,049304	71,1	   0,0497811	71,8
     40,4262	   0,0493945	71,3	   0,0497901	71,6
     40,4301	   0,0494313	71,4	   0,0498529	71,5
      40,434	   0,0495708	71,4	   0,0500217	71,3
     40,4379	   0,0495259	71,2	    0,049977	71,5
     40,4418	   0,0496297	71,5	   0,0500345	71,8
     40,4457	   0,0497004	71,1	   0,0501727	71,8
     40,4497	   0,0495241	71,2	   0,0502781	71,4
     40,4536	   0,0499127	71,4	    0,050297	71,4
     40,4575	   0,0496202	71,0	   0,0502603	71,7
     40,4614	   0,0499498	71,3	   0,0503493	71,6
     40,4653	   0,0499062	71,2	   0,0504531	71,5
     40,4692	   0,0500515	71,3	   0,0505191	71,5
     40,4731	   0,0500204	71,6	   0,0505606	71,7
      40,477	   0,0502471	71,5	   0,0506918	71,4
     40,4809	    0,050324	71,1	     0,05071	71,7
     40,4848	    0,050395	71,2	   0,0507725	71,6
     40,4888	   0,0503565	71,6	   0,0508915	71,6
     40,4927	   0,0504924	71,7	   0,0509029	71,6
     40,4966	   0,0503346	71,5	   0,0510008	71,4
     40,5005	   0,0504934	71,7	   0,0510034	71,5
     40,5044	   0,0506833	71,5	   0,0512324	71,8
     40,5083	   0,0506068	71,4	   0,0511232	71,9
     40,5122	   0,0506444	71,5	   0,0512536	71,8
     40,5161	   0,0507295	71,6	   0,0513866	71,4
       40,52	   0,0509773	71,6	   0,0513611	71,4
     40,5239	   0,0509762	71,5	   0,0515348	71,9
     40,5279	   0,0510754	71,3	   0,0514354	71,9
     40,5318	   0,0510808	71,6	   0,0516641	71,5
     40,5357	   0,0512111	71,6	   0,0516357	71,5
     40,5396	   0,0510027	71,5	   0,0517622	71,8
     40,5435	   0,0510809	71,1	    0,051817	71,9
     40,5474	   0,0512217	71,1	   0,0519137	71,8
     40,5513	   0,0512401	71,4	   0,0518894	71,8
     40,5552	   0,0514939	71,4	    0,052006	71,8
     40,5591	   0,0514901	71,6	   0,0521827	71,5
      40,563	   0,0517194	71,5	   0,0520826	71,7
      40,567	   0,0517561	71,6	   0,0519794	71,8
     40,5709	   0,0515844	71,7	   0,0522254	71,9
     40,5748	   0,0518783	71,7	     0,05241	71,9
     40,5787	   0,0519519	71,5	    0,052415	71,9
     40,5826	   0,0520275	71,5	   0,0524909	71,7
     40,5865	   0,0521367	71,8	   0,0525653	71,8
     40,5904	   0,0512635	70,6	   0,0526762	72,2
     40,5943	   0,0517922	71,7	   0,0528049	72,2
     40,5982	   0,0518551	71,3	   0,0528184	71,7
     40,6021	   0,0520407	71,8	   0,0529039	71,7
     40,6061	   0,0521658	71,7	   0,0529627	72,0
       40,61	   0,0519874	70,6	   0,0530565	71,9
     40,6139	   0,0525166	71,4	   0,0530512	71,9
     40,6178	   0,0523073	71,6	   0,0531945	72,0
     40,6217	   0,0524335	71,8	   0,0531478	71,9
     40,6256	   0,0523223	71,2	   0,0533712	72,1
     40,6295	   0,0525703	71,7	   0,0533811	71,9
     40,6334	   0,0529446	72,1	   0,0529546	71,5
     40,6373	    0,052505	70,7	   0,0527931	71,5
     40,6413	    0,052977	71,4	   0,0536581	72,2
     40,6452	   0,0526547	71,0	   0,0529923	71,2
     40,6491	   0,0530944	71,7	   0,0533248	72,0
      40,653	   0,0532291	71,8	   0,0538136	72,0
     40,6569	   0,0529024	72,1	   0,0537522	72,4
     40,6608	   0,0527068	71,3	   0,0541023	72,0
     40,6647	   0,0529798	71,0	   0,0536467	71,2
     40,6686	   0,0531611	71,8	   0,0539527	71,9
     40,6725	   0,0534404	71,7	   0,0542447	71,8
     40,6764	    0,052992	70,8	   0,0538952	71,6
     40,6804	   0,0536433	71,3	   0,0542227	71,9
     40,6843	   0,0531644	71,4	   0,0543053	72,0
     40,6882	   0,0531833	71,2	   0,0544488	72,0
     40,6921	   0,0540797	72,1	   0,0544243	72,0
      40,696	   0,0538735	72,3	   0,0543834	72,0
     40,6999	   0,0543427	71,7	   0,0547748	72,2
     40,7038	   0,0540726	71,7	   0,0548772	72,7
     40,7077	   0,0541922	71,7	   0,0544043	72,2
     40,7116	   0,0543311	72,0	   0,0544018	71,7
     40,7155	   0,0541978	72,0	   0,0547532	71,8
     40,7195	   0,0537258	71,6	   0,0546865	71,6
     40,7234	   0,0539483	71,4	   0,0548256	71,7
     40,7273	   0,0542158	71,4	   0,0549474	72,2
     40,7312	   0,0543033	71,4	   0,0551501	72,4
     40,7351	   0,0541505	71,0	   0,0552767	72,6
      40,739	   0,0540672	71,3	   0,0555508	72,1
     40,7429	     0,05479	72,1	   0,0557449	72,2
     40,7468	   0,0543831	71,2	   0,0548844	71,6
     40,7507	   0,0542707	71,3	   0,0557206	72,4
     40,7546	   0,0548676	71,7	   0,0552064	71,3
     40,7586	   0,0548279	71,9	   0,0555583	71,6
     40,7625	   0,0550481	71,7	   0,0555821	72,3
     40,7664	   0,0547858	71,9	   0,0555966	71,1
     40,7703	   0,0549203	71,5	   0,0553554	72,1
     40,7742	   0,0549763	71,4	   0,0557845	72,0
     40,7781	    0,055561	71,9	   0,0559197	71,7
      40,782	    0,055152	71,3	   0,0555784	72,0
     40,7859	   0,0550503	71,5	   0,0564827	72,6
     40,7898	   0,0556616	72,0	   0,0566089	72,3
     40,7937	    0,055483	71,8	   0,0563191	72,6
     40,7977	   0,0558035	71,9	   0,0568738	72,4
     40,8016	   0,0556436	71,6	   0,0565194	72,0
     40,8055	    0,056063	72,0	   0,0559586	71,6
     40,8094	    0,055621	71,8	   0,0568589	71,9
     40,8133	   0,0559657	71,9	   0,0562508	71,7
     40,8172	   0,0560923	72,0	   0,0571518	72,5
     40,8211	    0,055852	71,8	   0,0568012	71,7
      40,825	   0,0563664	71,9	    0,056543	71,8
     40,8289	   0,0565798	72,5	   0,0566955	72,2
     40,8328	   0,0563328	71,7	   0,0568429	72,6
     40,8368	   0,0569074	71,7	    0,057192	72,6
     40,8407	   0,0570225	72,4	   0,0572505	71,6
     40,8446	   0,0564582	71,7	   0,0578029	72,5
     40,8485	    0,057563	72,4	   0,0570589	71,8
     40,8524	   0,0567292	71,7	   0,0572255	72,6
     40,8563	   0,0572336	72,5	   0,0576847	72,7
     40,8602	   0,0573211	72,0	   0,0579345	72,2
     40,8641	    0,057362	72,1	   0,0579652	72,6
      40,868	   0,0581865	72,9	   0,0581548	72,0
     40,8719	   0,0576304	72,2	   0,0574307	72,0
     40,8759	   0,0580634	72,2	   0,0583694	72,7
     40,8798	   0,0578827	72,1	   0,0574532	71,7
     40,8837	   0,0573011	71,7	   0,0590851	73,0
     40,8876	   0,0581287	71,8	   0,0581312	72,2
     40,8915	   0,0580764	72,8	   0,0578006	72,3
     40,8954	   0,0580303	71,6	   0,0593049	72,9
     40,8993	   0,0585226	72,2	   0,0595195	73,1
     40,9032	   0,0584211	72,4	   0,0587932	73,1
     40,9071	   0,0584243	72,8	    0,059483	73,0
      40,911	   0,0582342	71,8	   0,0594594	73,3
      40,915	   0,0590349	72,3	   0,0592419	72,4
     40,9189	   0,0588026	72,8	   0,0595903	72,6
     40,9228	   0,0586647	71,8	   0,0600865	73,1
     40,9267	   0,0589788	72,9	    0,059134	72,2
     40,9306	   0,0586448	71,8	   0,0596603	73,0
     40,9345	    0,058984	72,1	   0,0597851	72,9
     40,9384	   0,0592564	72,8	   0,0592736	72,7
     40,9423	   0,0591304	72,0	   0,0594552	72,5
     40,9462	    0,059881	73,1	   0,0598979	72,3
     40,9501	   0,0599172	72,8	   0,0598902	72,8
     40,9541	   0,0603043	73,1	   0,0598352	72,3
      40,958	   0,0602612	73,2	   0,0605057	72,9
     40,9619	   0,0604354	72,8	   0,0602562	72,5
     40,9658	   0,0603848	73,4	   0,0603588	73,1
     40,9697	   0,0601621	72,4	   0,0606501	73,1
     40,9736	   0,0607818	73,2	   0,0606502	73,3
     40,9775	   0,0603881	72,2	   0,0609937	73,1
     40,9814	   0,0608437	73,3	   0,0604673	72,5
     40,9853	   0,0612109	73,4	   0,0607059	72,7
     40,9892	   0,0606764	72,5	    0,060429	72,6
     40,9932	   0,0612392	73,5	   0,0609256	72,8
     40,9971	   0,0612617	72,9	   0,0610838	72,6
      41,001	   0,0616198	73,5	   0,0620113	73,5
     41,0049	   0,0613813	72,9	   0,0616807	73,0
     41,0088	   0,0616755	73,5	   0,0622646	73,6
     41,0127	   0,0612741	72,7	   0,0619362	73,0
     41,0166	   0,0620605	73,5	   0,0616468	72,8
     41,0205	   0,0614763	72,9	   0,0622495	73,1
     41,0244	   0,0622816	73,4	   0,0628961	73,7
     41,0283	   0,0618802	73,4	   0,0619319	73,6
     41,0323	   0,0626237	73,4	   0,0624239	73,0
     41,0362	   0,0626621	73,7	   0,0625109	73,2
     41,0401	   0,0621977	72,9	   0,0625966	72,9
      41,044	   0,0622576	73,8	   0,0620822	73,1
     41,0479	    0,062243	73,3	   0,0627371	73,7
     41,0518	   0,0632309	73,5	   0,0631112	73,5
     41,0557	   0,0626534	73,2	   0,0633045	73,9
     41,0596	    0,062969	73,0	     0,06381	73,5
     41,0635	   0,0632507	73,7	   0,0631228	73,6
     41,0674	   0,0636569	73,4	   0,0636661	73,8
     41,0714	   0,0631378	73,2	   0,0638376	74,0
     41,0753	   0,0635814	73,2	   0,0641545	73,4
     41,0792	   0,0634172	73,7	   0,0633587	73,1
     41,0831	   0,0636186	72,8	   0,0643671	74,0
      41,087	   0,0640502	74,0	   0,0638664	73,4
     41,0909	   0,0639974	73,1	   0,0644548	73,5
     41,0948	   0,0644283	74,2	   0,0639957	73,1
     41,0987	   0,0642742	73,7	   0,0650504	73,9
     41,1026	    0,064318	73,2	   0,0643314	73,5
     41,1065	   0,0645172	73,9	   0,0649442	73,6
     41,1105	   0,0650689	73,8	   0,0643489	73,3
     41,1144	   0,0652547	73,9	   0,0653628	74,3
     41,1183	   0,0645043	73,4	   0,0656195	73,8
     41,1222	   0,0648947	73,3	    0,066172	74,5
     41,1261	   0,0651894	73,3	   0,0651709	73,4
       41,13	   0,0657109	74,1	   0,0661553	74,3
     41,1339	    0,065795	74,0	   0,0659782	74,0
     41,1378	   0,0660308	73,9	   0,0666296	74,5
     41,1417	   0,0660764	74,1	   0,0664885	73,5
     41,1456	   0,0662726	74,1	   0,0663189	74,5
     41,1496	   0,0662092	73,9	   0,0670022	73,7
     41,1535	   0,0665276	74,2	   0,0674631	74,5
     41,1574	   0,0662686	73,5	   0,0672776	73,7
     41,1613	   0,0668743	74,3	    0,067183	74,4
     41,1652	   0,0669162	73,9	   0,0673406	73,6
     41,1691	   0,0671411	74,5	   0,0680027	74,5
      41,173	   0,0667559	73,8	   0,0682577	74,5
     41,1769	   0,0673678	74,6	   0,0680212	74,4
     41,1808	   0,0676614	74,2	   0,0677732	73,7
     41,1847	   0,0676026	74,5	    0,068274	74,7
     41,1887	    0,067862	74,2	   0,0687845	74,4
     41,1926	   0,0678875	74,1	   0,0679446	74,3
     41,1965	   0,0681721	74,2	   0,0687585	74,6
     41,2004	   0,0682976	74,3	   0,0685516	74,6
     41,2043	   0,0685489	74,2	   0,0689693	74,6
     41,2082	   0,0686112	74,3	   0,0685966	74,6
     41,2121	   0,0688345	74,4	   0,0692263	74,2
      41,216	    0,068944	74,5	   0,0693331	74,7
     41,2199	   0,0690961	74,4	    0,069679	74,5
     41,2239	   0,0693105	74,8	   0,0701618	74,9
     41,2278	   0,0693832	74,4	   0,0696322	74,2
     41,2317	   0,0694259	74,8	   0,0707472	75,3
     41,2356	   0,0697354	74,7	   0,0702143	74,4
     41,2395	   0,0699301	75,1	   0,0703389	75,1
     41,2434	   0,0700925	74,7	   0,0703164	74,6
     41,2473	   0,0701547	74,6	   0,0709937	75,2
     41,2512	   0,0704788	74,8	   0,0715468	75,0
     41,2551	   0,0704774	75,1	   0,0717059	75,2
      41,259	    0,070768	74,7	   0,0708081	74,3
      41,263	   0,0709341	74,9	   0,0716201	75,2
     41,2669	   0,0710767	74,6	    0,071803	74,9
     41,2708	   0,0711178	74,9	   0,0723862	75,3
     41,2747	   0,0713969	75,3	    0,071459	74,7
     41,2786	   0,0715596	75,2	   0,0727405	75,6
     41,2825	   0,0717203	75,4	    0,071888	74,8
     41,2864	   0,0719296	75,2	   0,0723976	75,2
     41,2903	   0,0720324	75,2	   0,0720374	75,2
     41,2942	   0,0723116	75,0	   0,0728231	75,2
     41,2981	   0,0724916	75,1	   0,0730256	75,5
     41,3021	   0,0725071	75,2	   0,0737965	75,5
      41,306	   0,0728064	75,1	   0,0727339	74,8
     41,3099	   0,0730197	75,2	   0,0731415	74,9
     41,3138	   0,0731226	75,2	   0,0740753	75,8
     41,3177	   0,0734539	75,5	   0,0727981	75,3
     41,3216	   0,0735232	75,5	    0,074896	75,9
     41,3255	   0,0737023	75,8	   0,0741959	76,1
     41,3294	   0,0739461	75,5	   0,0752067	76,1
     41,3333	   0,0741474	75,9	   0,0748551	76,1
     41,3372	   0,0742655	75,5	   0,0741851	75,3
     41,3412	   0,0745371	75,8	   0,0757232	76,1
     41,3451	   0,0746866	75,7	   0,0750178	75,4
      41,349	   0,0748705	75,6	   0,0759498	76,1
     41,3529	   0,0751773	76,1	   0,0762623	75,8
     41,3568	   0,0751806	75,7	   0,0767976	76,3
     41,3607	   0,0755034	76,1	   0,0768142	76,4
     41,3646	   0,0756728	75,7	   0,0756465	76,1
     41,3685	    0,075851	76,0	   0,0772943	76,7
     41,3724	   0,0761556	75,8	   0,0776097	76,5
     41,3763	   0,0762778	75,8	    0,077339	76,6
     41,3803	    0,076539	75,9	   0,0778884	76,4
     41,3842	   0,0767982	75,9	   0,0776405	76,7
     41,3881	   0,0769447	76,0	   0,0777599	75,8
      41,392	   0,0771455	76,2	   0,0787595	76,7
     41,3959	   0,0773746	76,2	   0,0786349	76,9
     41,3998	    0,077581	76,1	   0,0784947	76,4
     41,4037	   0,0777836	75,8	   0,0791361	77,2
     41,4076	   0,0778521	76,2	   0,0792383	76,7
     41,4115	   0,0782499	76,1	   0,0797367	76,9
     41,4154	    0,078354	76,4	    0,080168	76,8
     41,4194	   0,0786346	76,5	   0,0804198	76,9
     41,4233	   0,0788715	76,7	   0,0806093	77,2
     41,4272	   0,0789998	76,5	    0,080903	77,1
     41,4311	   0,0793739	76,7	   0,0810963	77,4
      41,435	   0,0794707	76,6	   0,0814458	77,2
     41,4389	   0,0798805	76,5	   0,0817259	77,6
     41,4428	   0,0801038	76,7	   0,0818638	77,4
     41,4467	   0,0802681	76,7	   0,0821414	77,3
     41,4506	   0,0805152	77,0	   0,0823098	77,4
     41,4545	   0,0807591	77,0	   0,0826699	77,2
     41,4585	   0,0810416	77,1	   0,0830099	77,7
     41,4624	   0,0812866	76,7	   0,0832058	77,4
     41,4663	    0,081532	76,9	   0,0835077	77,8
     41,4702	   0,0816675	77,1	   0,0835125	77,8
     41,4741	   0,0819089	77,4	    0,084145	77,9
      41,478	   0,0822582	77,1	   0,0836557	78,1
     41,4819	   0,0825264	77,2	    0,084602	77,7
     41,4858	   0,0828321	77,1	   0,0849413	78,0
     41,4897	   0,0830255	77,3	   0,0849068	77,9
     41,4936	   0,0833161	77,2	    0,085415	78,1
     41,4976	   0,0836042	77,4	   0,0857406	78,5
     41,5015	   0,0837979	77,7	   0,0860437	78,2
     41,5054	   0,0840843	77,6	   0,0863407	78,5
     41,5093	   0,0843788	77,4	   0,0865883	78,3
     41,5132	   0,0846289	77,5	   0,0869259	78,2
     41,5171	   0,0849305	77,6	   0,0863635	78,6
      41,521	   0,0851666	78,0	   0,0871716	78,4
     41,5249	   0,0855037	78,0	   0,0870055	78,2
     41,5288	   0,0858307	77,9	   0,0877702	78,9
     41,5327	   0,0861128	77,9	   0,0885516	78,6
     41,5367	   0,0863865	77,8	   0,0888498	78,8
     41,5406	   0,0866451	78,0	   0,0879825	79,2
     41,5445	   0,0869928	78,2	   0,0883416	78,7
     41,5484	   0,0872558	78,5	   0,0891838	79,3
     41,5523	   0,0875993	78,5	   0,0901039	79,0
     41,5562	   0,0878625	78,1	   0,0904714	79,1
     41,5601	   0,0881938	78,5	   0,0907296	79,5
      41,564	   0,0885675	78,4	   0,0911806	79,6
     41,5679	   0,0887964	78,4	   0,0915595	79,6
     41,5718	   0,0892037	78,9	   0,0918058	79,7
     41,5758	   0,0894366	78,7	   0,0922955	79,4
     41,5797	   0,0898035	78,6	   0,0925797	79,8
     41,5836	   0,0902495	78,9	   0,0929574	79,9
     41,5875	   0,0904373	79,0	   0,0933242	79,9
     41,5914	   0,0908443	79,0	   0,0937036	80,2
     41,5953	   0,0912215	79,0	   0,0940979	80,1
     41,5992	   0,0915569	78,9	   0,0940778	80,1
     41,6031	   0,0919258	78,9	   0,0945561	80,3
      41,607	   0,0922696	79,5	   0,0954401	80,1
     41,6109	   0,0926234	79,4	     0,09535	80,7
     41,6149	   0,0929826	79,5	   0,0959213	80,7
     41,6188	   0,0933377	79,6	   0,0961227	80,7
     41,6227	   0,0937392	79,4	   0,0964025	80,8
     41,6266	    0,094082	79,8	   0,0968933	81,1
     41,6305	   0,0944903	79,9	   0,0974852	81,1
     41,6344	   0,0949066	79,8	   0,0979421	81,1
     41,6383	   0,0951775	79,9	   0,0986342	81,2
     41,6422	   0,0955897	80,1	   0,0991949	81,3
     41,6461	    0,096088	80,0	    0,099725	81,4
       41,65	   0,0963829	80,5	   0,0999869	82,1
      41,654	   0,0968906	80,2	    0,100671	81,7
     41,6579	   0,0973303	80,3	   0,0996256	81,8
     41,6618	   0,0977389	80,5	    0,101725	81,9
     41,6657	   0,0981074	80,9	    0,101473	82,4
     41,6696	   0,0985559	80,8	    0,102479	82,5
     41,6735	   0,0990893	80,9	    0,103204	82,6
     41,6774	   0,0994825	80,7	    0,103415	82,1
     41,6813	   0,0998984	80,9	     0,10422	82,6
     41,6852	    0,100413	81,6	     0,10499	82,8
     41,6891	    0,100832	81,4	    0,103369	82,8
     41,6931	    0,101382	81,5	    0,105254	83,4
      41,697	    0,101817	81,4	    0,104391	83,5
     41,7009	     0,10216	81,8	    0,105986	83,9
     41,7048	    0,102863	81,6	    0,107582	83,8
     41,7087	    0,103353	81,7	    0,108499	83,8
     41,7126	    0,103775	82,1	    0,109253	84,1
     41,7165	    0,104369	82,2	    0,109377	84,5
     41,7204	    0,104867	82,5	    0,109867	83,9
     41,7243	    0,105442	82,3	    0,111382	84,4
     41,7282	    0,105672	82,7	    0,111501	85,0
     41,7322	     0,10615	83,5	    0,111885	85,5
     41,7361	    0,107047	83,1	    0,112849	85,7
       41,74	    0,107798	82,9	    0,114326	85,4
     41,7439	    0,108258	83,5	    0,113782	85,9
     41,7478	    0,108981	83,6	    0,115041	86,4
     41,7517	    0,109092	84,0	    0,116131	86,4
     41,7556	     0,11006	83,9	    0,116972	86,7
     41,7595	    0,110572	84,1	    0,117783	87,0
     41,7634	    0,111634	83,9	    0,119414	86,6
     41,7673	    0,112234	84,2	    0,120026	87,9
     41,7713	    0,112924	84,6	    0,122417	87,7
     41,7752	    0,113785	84,5	    0,124782	88,2
     41,7791	    0,113843	84,8	    0,128514	88,5
      41,783	    0,115117	85,2	    0,134129	89,9
     41,7869	    0,115547	85,3	    0,141659	91,3
     41,7908	    0,116275	85,5	    0,150388	93,8
     41,7947	    0,116715	86,0	    0,160128	96,6
     41,7986	    0,117218	86,6	    0,170353	100,2
     41,8025	     0,11813	86,5	    0,178847	104,0
     41,8064	    0,119327	86,4	    0,186344	107,9
     41,8104	    0,120411	86,9	    0,191807	111,2
     41,8143	    0,120561	87,6	    0,196486	113,9
     41,8182	    0,122014	87,0	    0,200218	117,3
     41,8221	    0,123091	87,8	       0,205	120,4
      41,826	     0,12425	88,3	    0,207546	122,1
     41,8299	    0,125188	88,2	    0,211235	124,0
     41,8338	    0,126599	88,5	    0,212913	126,5
     41,8377	    0,127436	89,2	    0,215896	128,5
     41,8416	    0,128355	89,6	    0,216873	129,7
     41,8456	    0,129757	89,4	    0,218394	131,0
     41,8495	    0,131381	89,5	    0,220393	132,8
     41,8534	    0,132284	90,5	    0,220908	134,1
     41,8573	    0,134514	90,7	    0,222121	135,2
     41,8612	    0,135616	90,8	    0,222164	136,5
     41,8651	    0,137486	91,5	    0,223524	137,8
      41,869	    0,139186	92,5	    0,223413	138,3
     41,8729	    0,141044	92,6	    0,224799	139,3
     41,8768	    0,142509	92,9	    0,225012	140,5
     41,8807	    0,143995	93,7	    0,225661	141,5
     41,8847	    0,146235	94,4	    0,225281	141,7
     41,8886	    0,148352	94,8	    0,225701	142,8
     41,8925	    0,150631	95,6	    0,226273	143,7
     41,8964	    0,152549	97,0	    0,226423	144,2
     41,9003	     0,15569	97,9	     0,22647	144,8
     41,9042	    0,158084	98,8	    0,226738	145,8
     41,9081	    0,161216	100,1	     0,22696	147,0
      41,912	     0,16409	101,1	    0,226891	147,1
     41,9159	    0,168045	102,7	    0,226194	148,1
     41,9198	    0,172419	104,9	    0,226173	148,2
     41,9238	    0,177469	107,3	     0,22657	148,8
     41,9277	    0,182118	109,6	    0,226819	149,8
     41,9316	    0,186744	112,4	    0,226071	150,4
     41,9355	    0,192278	116,8	    0,226406	150,5
     41,9394	     0,19887	120,9	    0,226825	151,3
     41,9433	    0,205982	125,1	    0,227086	152,3
     41,9472	    0,212268	129,8	     0,22609	152,4
     41,9511	    0,217444	135,6	    0,226337	152,6
      41,955	    0,221473	140,3	    0,226613	153,6
     41,9589	    0,225454	145,1	    0,226754	154,2
     41,9629	    0,228005	148,9	     0,22585	154,4
     41,9668	    0,228426	151,4	    0,224737	154,5
     41,9707	    0,229292	153,2	    0,225781	155,7
     41,9746	    0,228854	154,9	    0,226333	155,8
     41,9785	    0,228656	155,4	    0,225545	156,0
     41,9824	    0,228277	156,1	     0,22566	156,7
     41,9863	    0,227206	156,6	    0,224752	157,1
     41,9902	    0,227165	156,9	    0,222625	157,3
     41,9941	    0,226909	157,4	    0,224449	158,2
      41,998	    0,226503	158,0	    0,224487	158,4
      42,002	    0,226497	158,0	     0,22317	158,8
     42,0059	    0,225939	158,2	    0,223896	159,2
     42,0098	    0,225685	159,3	    0,223996	159,9
     42,0137	    0,225206	159,6	    0,222918	159,8
     42,0176	    0,224793	159,6	    0,223496	160,6
     42,0215	     0,22437	160,4	    0,222907	160,7
     42,0254	    0,223903	161,0	    0,222488	161,0
     42,0293	    0,223344	161,0	    0,222545	161,8
     42,0332	     0,22352	161,7	     0,22268	162,0
     42,0371	    0,222614	161,7	    0,220962	162,0
     42,0411	    0,222816	162,1	    0,220499	162,3
      42,045	    0,222113	162,7	    0,220968	162,7
     42,0489	    0,221698	163,0	    0,220693	163,4
     42,0528	     0,22176	163,5	    0,220544	163,9
     42,0567	    0,221804	163,7	    0,220052	163,9
     42,0606	    0,220621	163,8	    0,219882	164,2
     42,0645	    0,220452	164,5	    0,219898	164,9
     42,0684	    0,220304	164,9	    0,219507	165,2
     42,0723	    0,219783	165,0	    0,218861	165,5
     42,0762	    0,219748	165,4	    0,218472	165,9
     42,0802	    0,219168	166,0	    0,218399	166,0
     42,0841	    0,218889	166,2	    0,218259	166,4
      42,088	     0,21816	166,7	    0,217749	167,3
     42,0919	    0,217727	166,8	    0,217572	167,1
     42,0958	     0,21779	167,1	     0,21777	167,3
     42,0997	     0,21774	167,3	    0,216494	168,0
     42,1036	    0,216362	167,8	     0,21667	167,9
     42,1075	    0,216578	167,9	    0,216033	168,4
     42,1114	    0,216017	168,5	    0,215961	168,7
     42,1153	    0,215766	168,7	    0,215404	169,0
     42,1193	    0,215459	169,0	    0,214294	168,8
     42,1232	    0,215362	169,2	    0,214816	169,6
     42,1271	    0,214732	169,6	    0,214462	169,8
      42,131	    0,214032	170,2	     0,21419	170,1
     42,1349	    0,213849	170,2	    0,213276	170,3
     42,1388	    0,213994	170,2	    0,212886	170,6
     42,1427	    0,213116	171,0	    0,212687	170,8
     42,1466	    0,213149	171,2	    0,211934	170,8
     42,1505	    0,212427	171,3	    0,211098	171,2
     42,1544	    0,212157	171,8	    0,211561	171,7
     42,1584	    0,211605	171,7	    0,211413	171,9
     42,1623	    0,211011	172,2	    0,210754	172,5
     42,1662	    0,210648	172,3	    0,210648	172,3
     42,1701	    0,210516	172,8	     0,21032	172,6
      42,174	    0,209511	173,0	    0,210267	173,4
     42,1779	    0,209293	173,4	    0,208885	173,4
     42,1818	    0,208954	173,2	    0,209057	173,8
     42,1857	    0,208448	173,8	    0,208276	173,8
     42,1896	    0,208448	174,0	     0,20826	174,1
     42,1936	    0,208193	174,2	    0,208115	174,8
     42,1975	    0,207461	174,3	    0,207517	174,5
     42,2014	    0,206573	175,0	    0,207166	175,1
     42,2053	    0,206168	175,2	    0,206498	175,3
     42,2092	    0,206572	175,1	    0,206004	175,2
     42,2131	    0,205856	175,9	    0,205837	175,9
      42,217	    0,205803	175,5	    0,205212	175,8
     42,2209	    0,204134	176,0	    0,204852	176,3
     42,2248	    0,204415	176,5	    0,204708	176,8
     42,2287	    0,204286	176,4	    0,204173	176,7
     42,2327	    0,204054	177,1	    0,204029	177,1
     42,2366	    0,203396	177,1	     0,20274	176,8
     42,2405	    0,202832	177,3	    0,202859	177,5
     42,2444	    0,202912	177,7	    0,202415	177,4
     42,2483	    0,203126	178,1	    0,202492	178,0
     42,2522	    0,202209	178,3	    0,202078	178,5
     42,2561	    0,201315	178,5	    0,201552	178,5
       42,26	       0,201	178,9	    0,201565	178,9
     42,2639	    0,200421	179,1	    0,201102	179,1
     42,2678	    0,199505	178,6	    0,199915	179,2
     42,2718	    0,199333	179,9	    0,199866	179,1
     42,2757	    0,199258	179,6	    0,199537	179,5
     42,2796	    0,198523	180,2	     0,19975	180,0
     42,2835	    0,197925	180,0	     0,19842	180,0
     42,2874	    0,198284	180,1	    0,199714	180,6
     42,2913	    0,197522	180,6	    0,198913	180,8
     42,2952	    0,196487	180,4	     0,19635	180,7
     42,2991	    0,195981	180,9	    0,196432	180,8
      42,303	    0,195242	181,2	    0,197114	181,1
     42,3069	    0,195618	181,5	    0,196895	181,5
     42,3109	    0,194656	182,0	    0,195703	181,9
     42,3148	     0,19524	181,6	    0,195235	182,0
     42,3187	    0,195058	182,2	    0,195318	182,2
     42,3226	    0,193222	182,0	    0,194743	182,7
     42,3265	    0,193807	182,4	    0,194655	182,7
     42,3304	    0,192333	182,2	    0,192892	182,9
     42,3343	    0,191371	182,9	     0,19318	183,0
     42,3382	    0,191189	183,0	    0,193216	183,0
     42,3421	    0,192171	183,7	    0,192926	183,5
      42,346	    0,190377	183,7	    0,192211	183,7
       42,35	    0,191005	183,9	    0,192412	184,1
     42,3539	    0,190331	184,4	    0,191772	184,2
     42,3578	    0,189889	184,2	    0,191812	184,4
     42,3617	    0,189256	184,4	    0,191109	184,9
     42,3656	    0,188926	184,3	    0,189651	184,4
     42,3695	    0,187432	184,7	    0,189692	184,9
     42,3734	    0,187226	185,0	     0,19029	184,9
     42,3773	    0,187708	185,5	    0,189611	185,3
     42,3812	     0,18737	185,9	    0,188437	185,5
     42,3851	    0,187195	185,6	    0,188933	185,6
     42,3891	    0,185717	185,9	    0,187715	186,3
      42,393	    0,185075	185,5	    0,188267	186,3
     42,3969	    0,186359	186,5	    0,187319	187,0
     42,4008	    0,185192	186,0	    0,185768	186,4
     42,4047	    0,184753	186,7	    0,185468	186,9
     42,4086	    0,184531	186,6	    0,185037	186,6
     42,4125	    0,183641	187,6	    0,184618	186,8
     42,4164	    0,183169	187,4	    0,184411	186,6
     42,4203	    0,182417	187,8	    0,184827	187,6
     42,4242	    0,182198	187,8	    0,184649	187,7
     42,4282	    0,182028	187,9	    0,184458	188,1
     42,4321	    0,181743	188,0	    0,183937	188,7
      42,436	    0,181347	188,0	    0,183085	188,5
     42,4399	    0,181304	188,4	    0,182618	188,7
     42,4438	    0,179381	188,5	    0,182934	189,0
     42,4477	    0,179126	188,9	    0,180569	189,1
     42,4516	    0,181064	188,9	    0,181505	189,2
     42,4555	    0,178703	189,6	    0,180575	189,2
     42,4594	    0,178825	189,5	    0,179734	189,1
     42,4633	    0,177682	190,0	    0,179588	189,6
     42,4673	    0,177133	189,6	    0,178726	189,4
     42,4712	    0,177387	190,7	    0,178665	189,7
     42,4751	    0,177827	190,2	    0,178071	189,8
      42,479	    0,177162	190,6	     0,17731	189,9
     42,4829	    0,175743	190,4	    0,176202	189,9
     42,4868	    0,176176	191,0	    0,177462	190,8
     42,4907	    0,175735	190,5	    0,176069	190,6
     42,4946	    0,175497	191,1	    0,175906	191,1
     42,4985	    0,174947	191,2	    0,176835	191,4
     42,5024	    0,173079	191,4	    0,175652	191,8
     42,5064	    0,173234	191,7	    0,176213	191,7
     42,5103	    0,173248	192,0	    0,176353	192,5
     42,5142	    0,172079	192,1	    0,175953	192,3
     42,5181	    0,172152	192,2	    0,174569	192,5
      42,522	    0,171882	192,1	    0,173945	192,0
     42,5259	    0,171898	193,0	    0,173351	192,6
     42,5298	    0,171871	193,0	    0,172685	192,6
     42,5337	    0,171446	193,3	    0,172651	192,7
     42,5376	    0,169628	193,2	    0,172324	192,5
     42,5415	    0,170204	193,9	    0,171894	192,8
     42,5455	    0,169482	193,6	    0,171565	193,1
     42,5494	    0,168881	193,8	     0,17046	193,2
     42,5533	    0,168398	194,1	    0,169848	193,5
     42,5572	    0,168562	194,3	    0,169628	193,3
     42,5611	    0,167854	193,6	    0,169921	193,9
      42,565	    0,167515	194,3	     0,16848	194,3
     42,5689	    0,167859	194,5	    0,169205	193,9
     42,5728	     0,16702	195,0	    0,167921	194,8
     42,5767	    0,166034	194,7	    0,166599	193,8
     42,5806	    0,164452	194,9	    0,167561	194,6
     42,5846	    0,165764	195,0	    0,166443	194,7
     42,5885	    0,163698	194,6	    0,165738	195,3
     42,5924	     0,16415	195,7	    0,166965	195,6
     42,5963	    0,164915	195,8	    0,166953	195,8
     42,6002	    0,162937	195,7	    0,165806	195,5
     42,6041	    0,163436	196,1	    0,165567	195,5
      42,608	    0,163067	196,5	    0,164999	195,7
     42,6119	    0,161952	196,6	    0,165227	196,6
     42,6158	    0,161632	196,6	    0,164721	196,7
     42,6197	    0,161277	196,4	    0,163125	196,0
     42,6237	    0,160783	197,2	     0,16233	196,6
     42,6276	    0,161287	196,9	    0,162792	196,5
     42,6315	    0,159476	197,6	    0,162802	197,5
     42,6354	    0,160388	197,4	    0,161938	196,8
     42,6393	    0,159227	197,5	     0,16216	197,8
     42,6432	    0,158761	197,3	    0,161722	197,4
     42,6471	     0,15962	198,1	    0,161296	198,1
      42,651	     0,15886	198,2	    0,161043	198,1
     42,6549	    0,157672	198,3	    0,160775	198,7
     42,6588	    0,157783	198,0	    0,160342	198,2
     42,6628	    0,157075	198,6	    0,159702	198,4
     42,6667	    0,156736	198,5	    0,158981	198,7
     42,6706	    0,156881	198,9	    0,158802	198,9
     42,6745	    0,155709	198,8	    0,158143	198,5
     42,6784	    0,154899	199,0	    0,158174	199,1
     42,6823	    0,154837	199,3	    0,157609	199,5
     42,6862	    0,154483	199,7	    0,156935	198,9
     42,6901	    0,154355	199,4	    0,156543	199,3
      42,694	    0,153531	-160,0	    0,156481	199,7
     42,6979	    0,153078	-160,2	    0,155215	199,9
     42,7019	    0,152585	-159,9	    0,155857	200,0
     42,7058	    0,152546	-159,8	    0,154747	199,6
     42,7097	    0,152103	-159,4	    0,154576	199,9
     42,7136	    0,151551	-159,6	    0,153988	-159,7
     42,7175	    0,150897	-159,4	    0,153928	-159,3
     42,7214	    0,150668	-159,6	    0,153336	-159,0
     42,7253	    0,150384	-159,2	    0,153025	-158,8
     42,7292	    0,150015	-159,2	    0,152298	-158,7
     42,7331	     0,14953	-158,5	     0,15244	-158,5
      42,737	    0,148957	-158,5	    0,151644	-158,7
      42,741	     0,14817	-158,6	    0,151413	-158,7
     42,7449	    0,148747	-158,5	    0,150802	-158,8
     42,7488	    0,147759	-158,2	    0,150425	-157,9
     42,7527	    0,147636	-157,8	    0,150393	-157,6
     42,7566	    0,147226	-157,5	    0,149859	-157,9
     42,7605	    0,147421	-157,8	    0,149593	-157,5
     42,7644	    0,146607	-156,9	    0,149402	-157,3
     42,7683	    0,146839	-157,8	    0,149104	-157,3
     42,7722	     0,14614	-157,1	    0,148783	-156,7
     42,7761	    0,145975	-156,8	    0,148334	-156,8
     42,7801	    0,144608	-156,8	    0,147973	-156,7
      42,784	    0,144889	-156,4	    0,147047	-156,5
     42,7879	     0,14503	-156,5	    0,147059	-156,3
     42,7918	    0,144021	-155,7	    0,146529	-156,2
     42,7957	    0,143111	-155,9	     0,14622	-156,1
     42,7996	    0,143413	-156,0	    0,145541	-156,1
     42,8035	    0,143383	-155,6	    0,145289	-156,1
     42,8074	    0,142653	-155,8	    0,144981	-155,8
     42,8113	    0,142552	-155,6	    0,144583	-155,5
     42,8153	    0,142178	-155,5	    0,143872	-155,8
     42,8192	    0,141742	-155,2	     0,14354	-155,6
     42,8231	    0,140312	-155,5	    0,142786	-155,1
      42,827	    0,140248	-155,6	    0,141042	-155,7
     42,8309	    0,139229	-155,0	    0,141887	-154,6
     42,8348	    0,139972	-154,3	    0,142106	-154,9
     42,8387	    0,139884	-154,7	     0,14177	-154,3
     42,8426	    0,138903	-154,5	    0,140433	-154,6
     42,8465	    0,138722	-154,5	    0,140986	-154,3
     42,8504	    0,137944	-154,4	    0,139361	-154,1
     42,8544	    0,137746	-154,2	    0,140275	-154,1
     42,8583	    0,137833	-154,0	    0,139856	-153,7
     42,8622	    0,137404	-153,7	     0,13947	-153,4
     42,8661	    0,136591	-154,2	    0,139082	-153,8
       42,87	    0,135461	-153,3	    0,138427	-152,9
     42,8739	    0,135566	-153,2	     0,13687	-153,4
     42,8778	    0,135269	-153,4	    0,137346	-153,0
     42,8817	    0,135126	-153,1	    0,137281	-153,1
     42,8856	    0,134225	-152,9	    0,136716	-153,0
     42,8895	    0,133704	-153,0	    0,136741	-152,9
     42,8935	    0,134244	-152,8	    0,136273	-152,7
     42,8974	    0,133361	-152,6	    0,135671	-152,7
     42,9013	    0,132936	-152,5	    0,135513	-152,5
     42,9052	    0,132652	-152,1	    0,134883	-152,4
     42,9091	    0,132753	-152,3	    0,134665	-152,0
      42,913	    0,132255	-151,7	    0,134315	-152,0
     42,9169	    0,131851	-151,9	    0,133882	-151,9
     42,9208	    0,131447	-151,7	    0,133504	-151,5
     42,9247	    0,130807	-151,4	     0,13282	-151,4
     42,9286	    0,130502	-151,8	    0,132265	-151,6
     42,9326	    0,130397	-151,4	    0,131865	-151,2
     42,9365	     0,12989	-151,2	    0,131242	-151,3
     42,9404	    0,129558	-151,3	    0,130299	-151,2
     42,9443	    0,129014	-151,1	    0,131171	-151,4
     42,9482	     0,12862	-150,5	    0,130248	-151,0
     42,9521	    0,128195	-150,6	    0,129927	-150,5
      42,956	    0,127922	-150,6	     0,12973	-150,7
     42,9599	    0,127573	-150,5	    0,129599	-150,6
     42,9638	    0,127417	-150,6	    0,129243	-150,1
     42,9677	    0,126639	-150,1	    0,128863	-150,2
     42,9717	    0,126508	-150,4	    0,128216	-150,1
     42,9756	    0,125658	-150,2	    0,127771	-149,7
     42,9795	    0,125582	-149,8	     0,12762	-150,1
     42,9834	    0,125154	-150,0	    0,126848	-149,7
     42,9873	    0,124739	-149,8	    0,126813	-149,9
     42,9912	     0,12387	-149,4	    0,126527	-149,8
     42,9951	    0,124262	-149,3	    0,125843	-149,5
      42,999	    0,123865	-149,5	    0,125468	-149,5
     43,0029	    0,123278	-149,2	     0,12522	-149,1
     43,0068	    0,122829	-149,4	    0,125114	-148,8
     43,0108	     0,12248	-149,4	    0,124543	-149,1
     43,0147	    0,122222	-148,9	    0,124329	-148,9
     43,0186	    0,121586	-148,9	     0,12362	-148,4
     43,0225	    0,120997	-148,7	    0,123398	-149,1
     43,0264	    0,120651	-148,3	    0,122879	-148,3
     43,0303	    0,120304	-148,3	    0,122599	-148,3
     43,0342	    0,120411	-148,1	     0,12218	-148,5
     43,0381	    0,120029	-148,1	    0,122086	-148,0
      43,042	    0,119859	-148,4	     0,12155	-147,9
     43,0459	    0,119443	-148,4	    0,120425	-148,1
     43,0499	    0,119149	-147,8	    0,120607	-147,6
     43,0538	    0,118641	-147,5	     0,12033	-147,6
     43,0577	    0,118568	-147,5	    0,120323	-147,9
     43,0616	    0,118159	-147,1	    0,119847	-147,5
     43,0655	    0,117577	-147,4	    0,119187	-147,4
     43,0694	    0,117066	-147,5	    0,118986	-147,6
     43,0733	    0,117087	-147,5	    0,118518	-147,0
     43,0772	    0,116489	-147,1	    0,118384	-147,0
     43,0811	    0,116422	-147,1	    0,117704	-146,8
      43,085	    0,115754	-146,6	     0,11733	-146,9
      43,089	    0,115774	-146,6	    0,116905	-146,6
     43,0929	    0,115155	-146,5	    0,116717	-146,6
     43,0968	    0,115059	-146,7	    0,116641	-146,6
     43,1007	    0,114412	-146,4	    0,115815	-146,2
     43,1046	    0,114049	-146,7	    0,115533	-146,2
     43,1085	    0,113853	-146,3	    0,115324	-146,4
     43,1124	    0,113576	-145,9	    0,114927	-146,1
     43,1163	    0,113274	-146,1	     0,11482	-146,3
     43,1202	    0,112395	-145,6	    0,114316	-146,1
     43,1241	    0,112344	-145,4	      0,1137	-145,5
     43,1281	     0,11222	-145,9	    0,113571	-145,4
      43,132	    0,111783	-145,8	    0,113119	-145,6
     43,1359	    0,111323	-145,5	    0,112674	-145,3
     43,1398	    0,110848	-145,1	    0,112532	-145,3
     43,1437	    0,110501	-145,0	    0,112148	-145,1
     43,1476	    0,110008	-145,0	     0,11167	-145,2
     43,1515	    0,109834	-145,2	     0,11161	-145,0
     43,1554	    0,109707	-145,0	    0,111007	-144,9
     43,1593	    0,109054	-144,7	    0,110688	-145,0
     43,1632	    0,108696	-144,5	    0,110093	-144,7
     43,1672	    0,108629	-144,5	    0,109647	-144,5
     43,1711	    0,108059	-144,4	      0,1096	-144,6
      43,175	    0,107945	-144,7	    0,109444	-144,5
     43,1789	    0,107349	-144,2	    0,109095	-144,2
     43,1828	    0,107077	-143,7	    0,108678	-144,3
     43,1867	    0,106654	-144,4	    0,108329	-144,2
     43,1906	    0,106489	-144,3	    0,107634	-144,0
     43,1945	    0,106218	-144,2	    0,107808	-143,9
     43,1984	     0,10578	-144,1	    0,107316	-143,8
     43,2023	    0,105016	-144,1	    0,106829	-143,7
     43,2063	    0,104974	-143,2	    0,106299	-143,7
     43,2102	    0,104449	-143,1	    0,106209	-143,6
     43,2141	    0,104569	-143,5	    0,106024	-143,8
      43,218	    0,103961	-143,8	    0,105718	-143,5
     43,2219	    0,103964	-143,5	    0,105476	-143,2
     43,2258	    0,103474	-142,8	     0,10463	-143,4
     43,2297	    0,102846	-142,9	    0,104781	-143,3
     43,2336	    0,102845	-143,1	    0,104449	-143,3
     43,2375	    0,102474	-143,0	    0,104013	-142,9
     43,2414	    0,101811	-142,9	    0,103724	-142,9
     43,2454	    0,101451	-143,0	    0,103185	-143,0
     43,2493	    0,101524	-142,4	    0,102637	-142,6
     43,2532	    0,101074	-142,2	    0,102233	-142,3
     43,2571	    0,100759	-142,3	    0,102401	-142,6
      43,261	    0,100764	-142,6	    0,101823	-142,0
     43,2649	    0,100123	-142,2	    0,101437	-141,8
     43,2688	   0,0995161	-142,3	    0,101371	-142,4
     43,2727	   0,0995709	-141,8	    0,100954	-142,6
     43,2766	   0,0993115	-142,5	    0,100708	-142,1
     43,2805	   0,0991962	-142,2	    0,100377	-141,7
     43,2845	   0,0986265	-141,7	    0,100082	-142,1
     43,2884	   0,0982147	-141,5	   0,0996271	-142,1
     43,2923	   0,0982231	-141,8	    0,099185	-141,7
     43,2962	   0,0979181	-142,0	    0,099104	-141,6
     43,3001	   0,0973443	-141,2	   0,0985731	-141,0
      43,304	   0,0972694	-141,3	   0,0981672	-141,7
     43,3079	   0,0967361	-141,0	     0,09811	-141,7
     43,3118	    0,096377	-141,7	   0,0976375	-141,1
     43,3157	   0,0963989	-141,6	   0,0973584	-140,9
     43,3196	   0,0955062	-140,9	   0,0967644	-141,1
     43,3236	   0,0955978	-141,0	   0,0967139	-141,5
     43,3275	   0,0951537	-141,2	   0,0960966	-140,8
     43,3314	   0,0951716	-141,2	   0,0961035	-140,9
     43,3353	   0,0946551	-141,0	   0,0957456	-140,6
     43,3392	   0,0945382	-140,4	   0,0955261	-140,8
     43,3431	   0,0939772	-140,7	   0,0949394	-140,5
      43,347	   0,0938004	-140,8	   0,0948403	-140,2
     43,3509	   0,0932844	-140,2	   0,0944886	-140,6
     43,3548	   0,0932682	-140,3	   0,0942583	-140,3
     43,3587	   0,0928475	-139,8	   0,0938969	-140,6
     43,3627	   0,0927326	-140,4	   0,0932662	-139,9
     43,3666	   0,0921517	-140,6	   0,0934193	-140,3
     43,3705	   0,0920566	-140,2	   0,0931638	-140,3
     43,3744	   0,0915921	-139,6	   0,0925311	-139,6
     43,3783	   0,0908672	-140,2	   0,0923101	-139,5
     43,3822	   0,0913598	-140,3	   0,0922415	-139,8
     43,3861	   0,0907139	-139,5	    0,091975	-139,6
       43,39	   0,0906941	-139,7	   0,0915576	-139,3
     43,3939	   0,0901761	-139,0	    0,091247	-139,5
     43,3979	   0,0896454	-139,9	   0,0908341	-139,6
     43,4018	   0,0897399	-139,1	   0,0905764	-139,4
     43,4057	    0,089108	-138,8	   0,0905246	-139,6
     43,4096	   0,0889948	-138,8	   0,0899733	-139,7
     43,4135	   0,0887945	-139,6	   0,0895646	-139,1
     43,4174	   0,0883734	-139,3	   0,0894221	-138,9
     43,4213	   0,0880055	-138,6	   0,0890426	-138,6
     43,4252	   0,0878482	-138,9	   0,0888262	-139,1
     43,4291	   0,0874552	-139,7	   0,0885961	-139,2
      43,433	   0,0874997	-138,9	   0,0883628	-138,9
      43,437	   0,0868784	-138,4	   0,0878037	-138,6
     43,4409	   0,0867316	-138,4	   0,0877329	-138,9
     43,4448	   0,0863869	-139,4	   0,0873891	-139,4
     43,4487	   0,0861375	-138,2	   0,0871755	-138,6
     43,4526	   0,0857766	-137,9	   0,0868115	-138,5
     43,4565	   0,0855311	-138,0	     0,08668	-138,5
     43,4604	   0,0852715	-138,2	   0,0863429	-139,1
     43,4643	   0,0851314	-137,9	    0,086169	-138,2
     43,4682	    0,084658	-137,3	    0,085698	-138,1
     43,4721	   0,0846183	-138,1	   0,0855417	-138,6
     43,4761	   0,0843947	-137,8	   0,0849781	-137,8
       43,48	   0,0841149	-138,1	   0,0849608	-137,6
     43,4839	   0,0836906	-137,6	   0,0847613	-138,3
     43,4878	   0,0834622	-138,1	   0,0836938	-138,0
     43,4917	    0,083143	-137,5	   0,0841946	-137,9
     43,4956	   0,0829471	-137,2	   0,0839039	-137,7
     43,4995	   0,0828549	-137,7	   0,0834991	-137,8
     43,5034	   0,0824682	-137,7	   0,0831438	-137,6
     43,5073	   0,0818186	-137,3	   0,0830061	-137,6
     43,5112	   0,0819649	-137,7	   0,0827858	-137,4
     43,5152	     0,08131	-137,5	   0,0824032	-137,6
     43,5191	   0,0815428	-137,2	   0,0821599	-137,4
      43,523	   0,0812365	-137,4	   0,0819345	-137,2
     43,5269	   0,0808287	-137,6	   0,0816484	-137,2
     43,5308	   0,0804237	-137,6	   0,0813726	-137,6
     43,5347	   0,0804826	-136,9	   0,0811153	-137,0
     43,5386	   0,0801356	-137,2	    0,080928	-137,1
     43,5425	   0,0800101	-137,1	   0,0805717	-137,2
     43,5464	   0,0795987	-137,3	   0,0803362	-136,8
     43,5503	   0,0793421	-137,1	   0,0800684	-137,0
     43,5543	   0,0791861	-137,0	   0,0798664	-137,1
     43,5582	   0,0785592	-136,8	   0,0796632	-137,2
     43,5621	   0,0785924	-136,5	   0,0792674	-136,9
      43,566	   0,0783814	-136,6	   0,0791349	-137,0
     43,5699	   0,0781163	-136,9	   0,0787918	-136,8
     43,5738	   0,0777523	-136,8	   0,0785906	-136,3
     43,5777	   0,0776921	-136,5	   0,0783216	-136,7
     43,5816	    0,077336	-136,4	   0,0780869	-136,9
     43,5855	   0,0768266	-136,5	   0,0777832	-136,6
     43,5894	   0,0769707	-136,2	   0,0775055	-136,4
     43,5934	   0,0765869	-136,5	   0,0773432	-136,5
     43,5973	   0,0764339	-136,7	   0,0770076	-136,4
     43,6012	   0,0761829	-136,4	   0,0767829	-136,1
     43,6051	   0,0759925	-136,4	    0,076624	-136,3
      43,609	    0,075769	-136,3	   0,0762812	-136,6
     43,6129	   0,0748655	-135,9	   0,0759684	-136,1
     43,6168	   0,0751967	-136,0	   0,0759231	-136,0
     43,6207	    0,074852	-135,9	   0,0754856	-136,2
     43,6246	    0,074384	-135,8	   0,0753513	-135,6
     43,6285	   0,0744577	-135,9	   0,0750043	-136,0
     43,6325	   0,0740994	-136,1	   0,0748498	-136,1
     43,6364	   0,0738154	-135,9	   0,0746449	-135,7
     43,6403	   0,0737549	-135,6	   0,0742688	-136,1
     43,6442	   0,0734554	-135,5	   0,0741099	-136,0
     43,6481	   0,0732385	-135,6	   0,0737257	-135,6
      43,652	   0,0729823	-135,3	   0,0736626	-135,5
     43,6559	   0,0727807	-135,4	   0,0733238	-135,5
     43,6598	   0,0721551	-135,6	   0,0731187	-135,4
     43,6637	   0,0723764	-135,3	   0,0729038	-135,2
     43,6676	   0,0721061	-135,4	   0,0727832	-135,5
     43,6716	   0,0711735	-135,3	   0,0724749	-135,5
     43,6755	   0,0716749	-134,9	   0,0722241	-135,2
     43,6794	   0,0713914	-135,1	   0,0720032	-135,5
     43,6833	   0,0712531	-135,0	   0,0716981	-134,9
     43,6872	   0,0709938	-135,0	   0,0715287	-134,8
     43,6911	   0,0707112	-135,2	   0,0712839	-135,2
      43,695	   0,0704725	-135,2	    0,070958	-134,9
     43,6989	   0,0702829	-134,9	   0,0708459	-135,1
     43,7028	   0,0700659	-134,9	   0,0705551	-135,3
     43,7067	   0,0699124	-134,7	   0,0703948	-134,8
     43,7107	   0,0693125	-134,4	   0,0701319	-134,8
     43,7146	    0,069399	-134,7	   0,0698871	-134,7
     43,7185	   0,0689849	-134,4	   0,0696509	-134,5
     43,7224	   0,0685977	-134,5	    0,069459	-134,4
     43,7263	   0,0686732	-134,7	   0,0692166	-134,8
     43,7302	   0,0682083	-134,4	   0,0689583	-134,7
     43,7341	   0,0683379	-134,7	   0,0684243	-134,8
      43,738	   0,0680374	-134,6	   0,0682662	-134,6
     43,7419	   0,0678724	-134,3	   0,0683187	-134,5
     43,7458	   0,0676953	-134,1	   0,0681048	-134,0
     43,7498	   0,0673339	-134,3	   0,0678847	-134,9
     43,7537	   0,0671881	-133,8	   0,0677622	-134,2
     43,7576	   0,0670396	-134,0	   0,0666415	-134,8
     43,7615	   0,0662929	-134,1	   0,0672503	-133,5
     43,7654	   0,0665774	-134,2	   0,0671683	-134,0
     43,7693	    0,066485	-134,1	   0,0663018	-134,2
     43,7732	   0,0661766	-134,2	   0,0665989	-134,2
     43,7771	   0,0659116	-134,0	   0,0664919	-134,1
      43,781	   0,0659603	-134,2	   0,0657608	-134,6
     43,7849	   0,0655563	-133,9	   0,0660252	-134,1
     43,7889	   0,0654405	-134,0	   0,0658012	-133,9
     43,7928	    0,065024	-133,8	   0,0655465	-133,8
     43,7967	   0,0650631	-133,5	   0,0653736	-133,7
     43,8006	   0,0647768	-133,6	   0,0651958	-133,7
     43,8045	   0,0645589	-133,4	   0,0649464	-133,4
     43,8084	     0,06439	-133,4	   0,0648682	-133,5
     43,8123	   0,0640581	-133,7	   0,0644416	-133,7
     43,8162	   0,0639716	-133,3	   0,0644493	-133,2
     43,8201	    0,063691	-133,7	   0,0640967	-133,7
      43,824	   0,0630445	-133,7	   0,0639229	-133,9
      43,828	   0,0633933	-133,4	   0,0637217	-133,4
     43,8319	   0,0628472	-133,8	   0,0632447	-133,6
     43,8358	   0,0627464	-133,2	   0,0633141	-133,4
     43,8397	   0,0627292	-133,2	   0,0629135	-133,2
     43,8436	   0,0626466	-133,1	   0,0629159	-133,4
     43,8475	   0,0624838	-133,3	   0,0627114	-133,2
     43,8514	   0,0619659	-133,1	   0,0624118	-133,2
     43,8553	    0,061905	-132,8	   0,0623181	-133,0
     43,8592	   0,0618286	-132,8	   0,0622425	-133,3
     43,8631	   0,0616435	-133,0	    0,062032	-132,9
     43,8671	   0,0615791	-132,9	   0,0613275	-132,8
      43,871	   0,0612507	-133,1	   0,0612517	-133,1
     43,8749	   0,0610525	-132,5	   0,0607623	-132,8
     43,8788	   0,0609334	-132,9	   0,0604551	-132,9
     43,8827	   0,0605403	-132,6	   0,0609797	-132,8
     43,8866	   0,0605683	-132,3	   0,0604535	-132,7
     43,8905	   0,0599889	-132,3	   0,0603571	-133,3
     43,8944	    0,060249	-132,4	   0,0602938	-132,6
     43,8983	    0,059978	-132,9	   0,0598481	-132,9
     43,9022	   0,0597462	-132,8	   0,0600832	-132,8
     43,9062	   0,0595728	-132,5	   0,0595618	-132,7
     43,9101	   0,0593868	-132,9	   0,0593081	-132,9
      43,914	   0,0593827	-132,5	   0,0595723	-132,6
     43,9179	   0,0590702	-132,7	   0,0593159	-132,8
     43,9218	   0,0589433	-132,3	   0,0591329	-132,6
     43,9257	   0,0587652	-132,4	   0,0589377	-132,5
     43,9296	   0,0586578	-132,4	   0,0587126	-132,5
     43,9335	   0,0583689	-132,1	    0,058297	-132,1
     43,9374	   0,0580918	-132,6	   0,0583733	-132,5
     43,9413	   0,0580422	-132,2	   0,0582166	-132,2
     43,9453	   0,0580223	-132,5	   0,0578885	-132,0
     43,9492	   0,0576749	-132,2	   0,0574354	-132,2
     43,9531	   0,0571893	-132,3	   0,0575046	-132,0
      43,957	   0,0571293	-132,1	   0,0575095	-132,3
     43,9609	   0,0571518	-132,1	   0,0569777	-131,9
     43,9648	   0,0567564	-132,2	   0,0568684	-132,1
     43,9687	   0,0567951	-132,0	    0,056998	-131,8
     43,9726	   0,0562366	-132,1	   0,0565259	-131,9
     43,9765	   0,0561892	-131,5	   0,0564616	-132,0
     43,9804	   0,0559435	-132,2	   0,0563141	-131,4
     43,9844	   0,0560077	-131,3	   0,0563511	-131,9
     43,9883	   0,0559067	-131,8	   0,0557187	-131,5
     43,9922	   0,0558416	-131,7	    0,055549	-132,0
     43,9961	    0,055662	-131,6	   0,0558431	-131,6
          44	   0,0549245	-131,8	   0,0550121	-131,6

