X-Data [Hz]	Laser (M - Filtered) [m/s]	Phase [Deg]	Laser (M - Filtered) [m/s]	Phase [Deg]	
	002: [07-09-24 17:43]		003: [07-09-24 17:46]	
        41,5	   0,0076667	81,3	   0,0078085	80,1
      41,502	  0,00776467	81,0	  0,00776873	79,3
     41,5039	  0,00787094	79,8	  0,00782005	77,6
     41,5059	  0,00781449	80,2	  0,00791231	79,8
     41,5078	  0,00780301	80,0	  0,00793294	78,6
     41,5098	  0,00785231	82,8	  0,00787532	80,4
     41,5117	  0,00795316	78,5	  0,00787942	79,4
     41,5137	   0,0079596	78,7	  0,00784477	82,3
     41,5156	  0,00788225	80,5	  0,00791192	79,7
     41,5176	  0,00791256	80,1	  0,00802764	82,5
     41,5196	  0,00795371	80,1	  0,00797316	84,2
     41,5215	  0,00796031	78,5	  0,00787232	81,3
     41,5235	  0,00794858	81,5	  0,00792604	81,3
     41,5254	  0,00798334	80,2	  0,00797596	80,1
     41,5274	  0,00805994	81,6	  0,00803485	77,8
     41,5293	  0,00801197	81,0	   0,0080444	80,6
     41,5313	  0,00805204	79,6	  0,00800068	79,8
     41,5332	  0,00809306	82,4	  0,00801702	81,7
     41,5352	  0,00804406	78,7	  0,00805463	79,0
     41,5371	  0,00797879	81,8	  0,00803668	79,5
     41,5391	  0,00811343	84,1	  0,00798531	80,6
     41,5411	   0,0080857	79,4	  0,00800575	78,2
      41,543	  0,00801182	82,0	  0,00811056	81,4
      41,545	  0,00801102	79,2	  0,00809932	81,0
     41,5469	  0,00808177	79,7	  0,00808852	80,3
     41,5489	  0,00813314	81,7	  0,00799005	82,1
     41,5508	  0,00810346	81,1	  0,00813243	79,0
     41,5528	  0,00810659	82,5	  0,00812615	81,0
     41,5547	  0,00817809	80,1	  0,00809166	82,7
     41,5567	  0,00813033	81,4	  0,00820386	81,7
     41,5587	  0,00809319	80,3	   0,0081206	83,7
     41,5606	  0,00822841	82,9	  0,00816303	79,1
     41,5626	  0,00823409	83,6	  0,00816579	81,3
     41,5645	  0,00828674	78,5	  0,00824262	80,6
     41,5665	   0,0081956	80,8	  0,00819365	80,1
     41,5684	  0,00817167	78,8	  0,00822311	82,5
     41,5704	  0,00822762	80,3	  0,00829967	77,6
     41,5723	  0,00827487	81,8	   0,0082535	82,9
     41,5743	  0,00835424	80,8	  0,00821492	79,4
     41,5762	  0,00822326	82,3	  0,00825558	81,3
     41,5782	  0,00823717	80,0	  0,00828746	82,2
     41,5802	  0,00839056	83,5	  0,00830087	81,6
     41,5821	  0,00835553	83,0	  0,00835499	82,1
     41,5841	  0,00835097	81,6	  0,00834643	78,6
      41,586	  0,00829365	82,1	  0,00832869	80,7
      41,588	  0,00826716	78,9	  0,00824852	81,9
     41,5899	  0,00833602	80,9	  0,00833188	79,8
     41,5919	  0,00844135	81,4	  0,00843839	81,8
     41,5938	   0,0084265	80,3	  0,00838759	80,9
     41,5958	  0,00843084	83,7	  0,00841186	82,1
     41,5978	  0,00839879	80,0	  0,00837843	82,3
     41,5997	  0,00836716	82,1	  0,00835377	81,7
     41,6017	  0,00840857	82,4	  0,00835603	82,9
     41,6036	  0,00842469	81,5	  0,00851569	80,1
     41,6056	  0,00849035	84,4	  0,00851375	79,3
     41,6075	   0,0084869	82,0	  0,00849324	80,1
     41,6095	  0,00834093	81,8	   0,0084763	79,4
     41,6114	  0,00844482	83,8	  0,00844895	83,9
     41,6134	  0,00855802	80,1	  0,00849191	81,0
     41,6153	   0,0086456	80,4	  0,00854605	82,1
     41,6173	  0,00857057	81,3	  0,00863115	82,7
     41,6193	  0,00858341	83,0	  0,00846635	81,3
     41,6212	  0,00858212	84,5	  0,00843075	82,5
     41,6232	  0,00849897	79,9	  0,00855626	80,9
     41,6251	  0,00843497	81,9	  0,00863435	80,8
     41,6271	  0,00858188	80,6	  0,00862657	82,0
      41,629	  0,00865612	79,8	  0,00853201	80,0
      41,631	  0,00861172	82,9	  0,00853145	80,9
     41,6329	  0,00868987	81,6	  0,00851229	80,8
     41,6349	  0,00871233	83,3	  0,00862395	78,5
     41,6369	  0,00870768	80,1	  0,00862629	83,7
     41,6388	  0,00872992	81,9	  0,00860987	84,1
     41,6408	  0,00865981	83,8	  0,00863596	83,8
     41,6427	  0,00868681	82,4	  0,00865627	84,3
     41,6447	   0,0087514	84,4	  0,00872879	79,6
     41,6466	  0,00875173	79,4	  0,00872837	82,5
     41,6486	  0,00868234	80,6	  0,00873673	81,0
     41,6505	  0,00865496	81,7	  0,00876143	84,3
     41,6525	  0,00869665	80,5	  0,00876634	84,1
     41,6544	  0,00872211	82,3	  0,00876691	80,8
     41,6564	  0,00882471	82,3	  0,00876784	83,2
     41,6584	  0,00880987	81,8	  0,00876345	82,8
     41,6603	  0,00881234	82,0	  0,00864254	83,2
     41,6623	  0,00880622	81,8	   0,0086852	83,0
     41,6642	  0,00876048	82,9	  0,00885695	80,1
     41,6662	  0,00885812	83,8	  0,00894768	82,9
     41,6681	  0,00881787	82,7	   0,0087948	83,1
     41,6701	  0,00892515	83,3	  0,00872667	79,9
      41,672	  0,00889359	80,4	  0,00879542	83,0
      41,674	  0,00889421	80,9	  0,00886134	81,3
      41,676	  0,00887703	82,1	  0,00897514	84,4
     41,6779	  0,00890512	79,8	  0,00896664	84,5
     41,6799	  0,00890589	86,7	  0,00895819	80,9
     41,6818	  0,00899427	83,7	  0,00900223	83,3
     41,6838	  0,00895059	81,8	  0,00900519	82,1
     41,6857	  0,00892556	83,2	  0,00901651	82,3
     41,6877	  0,00892118	81,3	  0,00896562	84,6
     41,6896	  0,00891802	82,0	  0,00895894	81,7
     41,6916	  0,00907454	81,2	  0,00892167	84,7
     41,6936	  0,00906505	83,8	  0,00896352	83,7
     41,6955	  0,00910732	85,1	  0,00904691	81,1
     41,6975	  0,00905194	83,5	  0,00912378	83,2
     41,6994	  0,00911226	82,3	  0,00908822	82,3
     41,7014	  0,00912577	83,2	  0,00905344	83,5
     41,7033	   0,0091572	81,3	  0,00909261	83,8
     41,7053	  0,00917452	82,8	  0,00916525	81,5
     41,7072	  0,00907706	83,3	  0,00906671	84,3
     41,7092	  0,00912288	83,2	  0,00904259	82,1
     41,7111	  0,00905682	84,9	  0,00911158	82,1
     41,7131	  0,00911896	82,6	  0,00913423	85,7
     41,7151	  0,00912794	84,0	  0,00906847	83,3
      41,717	  0,00914316	84,5	  0,00919889	84,4
      41,719	  0,00920934	82,9	  0,00919937	84,8
     41,7209	  0,00925488	84,0	  0,00923952	80,5
     41,7229	  0,00929251	82,3	  0,00928179	83,9
     41,7248	  0,00927456	82,4	  0,00930579	81,3
     41,7268	  0,00927563	82,1	  0,00932063	82,5
     41,7287	  0,00919218	81,0	  0,00930604	85,1
     41,7307	  0,00933057	86,9	  0,00923506	84,7
     41,7327	   0,0093584	86,1	  0,00928344	84,4
     41,7346	  0,00936692	82,9	  0,00926303	82,8
     41,7366	  0,00935395	84,9	  0,00930345	82,5
     41,7385	  0,00929882	81,9	  0,00938798	84,3
     41,7405	  0,00925249	82,8	  0,00944841	84,3
     41,7424	   0,0093802	85,0	  0,00944321	85,4
     41,7444	  0,00940988	83,0	  0,00943481	84,4
     41,7463	  0,00939391	85,4	    0,009419	82,3
     41,7483	  0,00936461	86,1	  0,00943063	82,8
     41,7502	  0,00943711	83,1	   0,0094653	82,0
     41,7522	  0,00949051	83,9	  0,00951907	80,0
     41,7542	  0,00954092	81,0	  0,00950783	82,9
     41,7561	  0,00956078	82,6	  0,00943746	83,7
     41,7581	  0,00945975	84,1	  0,00947403	82,9
       41,76	  0,00941602	84,1	  0,00953882	85,5
      41,762	  0,00945468	84,0	  0,00947781	85,2
     41,7639	  0,00945405	86,4	  0,00950972	83,9
     41,7659	  0,00956403	83,0	  0,00955238	85,6
     41,7678	  0,00964434	84,8	  0,00961056	83,0
     41,7698	  0,00964164	84,1	  0,00961269	85,5
     41,7718	  0,00961388	83,5	  0,00962626	84,9
     41,7737	  0,00965581	83,9	  0,00965669	83,5
     41,7757	  0,00968882	84,3	  0,00966052	83,8
     41,7776	  0,00967871	83,7	  0,00968069	82,5
     41,7796	   0,0096229	85,1	  0,00962823	86,0
     41,7815	  0,00961046	84,0	  0,00967069	85,2
     41,7835	  0,00972477	84,6	  0,00967994	84,0
     41,7854	  0,00979574	84,3	  0,00971722	84,3
     41,7874	  0,00978902	83,7	  0,00979081	86,1
     41,7893	  0,00971868	86,0	   0,0097418	83,7
     41,7913	  0,00980646	84,3	  0,00972824	84,7
     41,7933	  0,00979934	82,2	   0,0098398	84,0
     41,7952	  0,00978445	84,8	  0,00982857	83,2
     41,7972	  0,00986779	83,3	  0,00979549	85,7
     41,7991	  0,00983622	85,1	  0,00987116	86,4
     41,8011	  0,00981573	86,1	  0,00983154	84,3
      41,803	  0,00985175	85,1	  0,00985443	88,7
      41,805	  0,00997291	85,9	  0,00988749	83,4
     41,8069	  0,00989111	85,7	  0,00995207	82,8
     41,8089	  0,00992651	82,6	    0,010002	85,6
     41,8109	  0,00991949	84,7	  0,00997876	84,0
     41,8128	  0,00989184	85,7	  0,00992311	86,3
     41,8148	  0,00992379	85,4	  0,00997769	86,2
     41,8167	   0,0100537	86,6	   0,0100669	85,2
     41,8187	   0,0101072	84,7	    0,010019	87,0
     41,8206	   0,0100766	84,3	   0,0100483	83,6
     41,8226	   0,0100154	86,7	   0,0100116	84,2
     41,8245	  0,00998782	83,9	   0,0100046	85,1
     41,8265	   0,0100142	87,2	   0,0100624	83,6
     41,8284	   0,0100792	85,6	   0,0101078	84,4
     41,8304	   0,0101599	85,7	   0,0101008	88,9
     41,8324	   0,0101629	87,2	     0,01021	84,7
     41,8343	   0,0101924	88,5	   0,0102547	85,3
     41,8363	    0,010178	85,4	   0,0101537	85,6
     41,8382	   0,0101013	87,2	   0,0101799	83,0
     41,8402	   0,0100803	83,6	   0,0101688	86,7
     41,8421	   0,0102095	84,7	   0,0101864	84,9
     41,8441	   0,0102527	86,8	   0,0102992	86,1
      41,846	   0,0102539	83,9	   0,0103291	87,2
      41,848	   0,0102058	87,6	   0,0103747	84,8
       41,85	   0,0102781	88,2	   0,0103471	85,7
     41,8519	    0,010348	85,4	   0,0103252	87,2
     41,8539	   0,0103901	86,6	   0,0103647	84,9
     41,8558	   0,0104193	84,8	   0,0103644	83,6
     41,8578	   0,0103775	83,9	   0,0103496	86,2
     41,8597	    0,010373	85,5	   0,0103407	86,0
     41,8617	   0,0104631	85,6	   0,0104762	86,1
     41,8636	   0,0104766	87,5	   0,0105112	88,7
     41,8656	   0,0104935	88,0	   0,0105231	85,7
     41,8675	   0,0104946	85,6	   0,0105113	86,1
     41,8695	      0,0105	85,0	   0,0105201	86,6
     41,8715	   0,0104356	86,5	   0,0104816	85,1
     41,8734	   0,0104602	85,7	   0,0104737	88,2
     41,8754	   0,0105432	88,0	     0,01049	86,6
     41,8773	   0,0106212	87,5	   0,0105709	85,3
     41,8793	   0,0107221	85,3	   0,0106811	87,9
     41,8812	   0,0107076	87,9	   0,0107218	86,7
     41,8832	    0,010655	89,1	   0,0107095	86,2
     41,8851	   0,0105896	85,8	   0,0106906	87,9
     41,8871	   0,0106706	87,1	   0,0107117	85,5
     41,8891	   0,0107322	86,6	   0,0106971	86,6
      41,891	   0,0107006	84,7	   0,0107561	87,4
      41,893	    0,010716	87,7	   0,0107122	85,2
     41,8949	   0,0107324	87,2	   0,0106557	85,3
     41,8969	   0,0107382	87,6	   0,0107905	88,4
     41,8988	   0,0108227	87,3	   0,0108732	87,3
     41,9008	   0,0108011	85,1	   0,0109272	87,3
     41,9027	   0,0107374	85,4	   0,0108757	89,2
     41,9047	   0,0108125	88,3	   0,0108203	87,8
     41,9066	   0,0108261	87,7	   0,0108317	86,4
     41,9086	   0,0108457	88,9	   0,0108216	90,2
     41,9106	   0,0108934	88,6	   0,0108743	84,6
     41,9125	   0,0109473	86,2	   0,0109562	86,7
     41,9145	   0,0109972	85,6	   0,0110106	89,3
     41,9164	   0,0109476	89,0	   0,0110287	87,0
     41,9184	   0,0109579	88,8	   0,0110484	88,7
     41,9203	   0,0109787	90,3	   0,0110745	88,3
     41,9223	    0,011037	90,4	    0,011098	86,9
     41,9242	    0,011141	84,7	   0,0111126	87,4
     41,9262	   0,0110291	85,6	   0,0110602	87,8
     41,9282	   0,0110571	87,6	   0,0110873	85,2
     41,9301	   0,0111133	87,4	   0,0111253	85,3
     41,9321	   0,0111036	92,6	   0,0111631	89,6
      41,934	   0,0111294	89,7	   0,0111337	88,2
      41,936	   0,0112069	88,3	   0,0111468	90,3
     41,9379	   0,0111726	90,6	   0,0112453	88,8
     41,9399	   0,0111633	86,8	   0,0113086	86,8
     41,9418	   0,0112187	87,7	   0,0113582	87,3
     41,9438	   0,0112152	88,5	   0,0113425	87,3
     41,9457	   0,0113382	87,4	   0,0113689	86,4
     41,9477	   0,0113715	88,5	   0,0114093	88,7
     41,9497	   0,0113246	90,2	   0,0114387	90,7
     41,9516	   0,0113716	91,0	   0,0114682	87,2
     41,9536	   0,0114188	89,3	   0,0113906	90,1
     41,9555	   0,0114222	89,5	   0,0113908	87,9
     41,9575	   0,0113769	87,7	   0,0114611	86,3
     41,9594	   0,0113806	87,6	   0,0114919	88,8
     41,9614	   0,0114012	90,3	   0,0115311	89,4
     41,9633	   0,0114939	88,4	   0,0115989	87,7
     41,9653	   0,0114706	88,2	   0,0116346	89,2
     41,9673	   0,0115408	90,8	   0,0116154	89,1
     41,9692	   0,0115386	88,8	    0,011575	87,6
     41,9712	   0,0116181	89,3	   0,0115065	92,1
     41,9731	   0,0116994	90,6	   0,0115687	89,2
     41,9751	   0,0116761	89,5	   0,0116977	88,4
      41,977	    0,011702	88,7	   0,0117911	90,9
      41,979	   0,0117164	90,0	   0,0118771	91,6
     41,9809	   0,0117058	86,7	   0,0118194	87,8
     41,9829	    0,011659	87,5	   0,0118304	87,7
     41,9848	   0,0117539	91,3	   0,0118435	89,9
     41,9868	   0,0118055	89,8	   0,0118481	89,2
     41,9888	   0,0118885	92,6	    0,011889	91,2
     41,9907	   0,0119699	93,2	   0,0119433	91,8
     41,9927	   0,0119015	90,9	   0,0119644	88,8
     41,9946	   0,0118083	90,0	   0,0119785	89,4
     41,9966	   0,0117675	91,5	    0,011984	90,9
     41,9985	   0,0118597	89,5	   0,0119701	89,5
     42,0005	   0,0119133	88,2	   0,0120215	91,6
     42,0024	   0,0119271	92,9	   0,0120504	89,9
     42,0044	   0,0119928	90,7	   0,0120775	89,8
     42,0064	   0,0120773	91,4	   0,0120553	90,4
     42,0083	   0,0120893	92,8	   0,0120989	90,6
     42,0103	   0,0121173	88,7	   0,0120711	90,1
     42,0122	   0,0121248	89,0	   0,0120933	88,6
     42,0142	   0,0120859	90,8	   0,0121512	91,3
     42,0161	   0,0121207	90,4	   0,0121443	91,1
     42,0181	   0,0120714	91,3	   0,0122056	92,6
       42,02	   0,0120642	91,8	   0,0122419	92,8
      42,022	   0,0121157	90,3	   0,0123536	88,9
     42,0239	   0,0122025	89,6	   0,0124575	88,8
     42,0259	   0,0123004	93,7	   0,0123939	92,0
     42,0279	   0,0123534	93,6	   0,0123414	92,4
     42,0298	   0,0123856	92,0	   0,0123522	92,1
     42,0318	   0,0124188	93,2	   0,0123857	92,5
     42,0337	   0,0124336	90,9	   0,0124599	90,5
     42,0357	   0,0125542	89,9	   0,0125278	89,8
     42,0376	   0,0125481	90,4	   0,0126423	92,5
     42,0396	   0,0124813	91,5	    0,012637	91,1
     42,0415	   0,0124613	88,6	   0,0126216	90,9
     42,0435	   0,0124582	93,7	   0,0125686	92,3
     42,0455	   0,0125204	92,5	   0,0126158	91,3
     42,0474	    0,012656	93,0	   0,0126325	89,9
     42,0494	   0,0127067	93,0	    0,012597	95,3
     42,0513	   0,0126428	91,5	   0,0126896	91,9
     42,0533	   0,0127202	91,0	   0,0128034	90,9
     42,0552	   0,0126896	94,1	   0,0128766	95,3
     42,0572	   0,0127295	93,3	   0,0129217	94,2
     42,0591	   0,0127691	90,6	   0,0129224	90,6
     42,0611	   0,0127453	92,0	   0,0129123	92,4
      42,063	   0,0127229	92,0	   0,0129317	94,0
      42,065	   0,0127564	91,4	   0,0129161	92,9
      42,067	   0,0129177	95,3	   0,0129286	91,7
     42,0689	   0,0128767	93,6	    0,012996	92,8
     42,0709	   0,0128817	92,4	   0,0129523	91,5
     42,0728	   0,0129244	92,9	   0,0130103	94,4
     42,0748	    0,012972	91,4	   0,0131287	94,5
     42,0767	   0,0129592	91,5	   0,0131555	93,0
     42,0787	   0,0129994	92,5	   0,0131561	92,3
     42,0806	   0,0130334	94,0	    0,013148	94,6
     42,0826	    0,013031	93,3	   0,0132055	92,6
     42,0846	    0,013139	93,6	   0,0131628	92,1
     42,0865	   0,0131905	94,8	   0,0132093	95,6
     42,0885	   0,0133241	94,2	   0,0132315	94,8
     42,0904	   0,0132986	93,5	   0,0132281	91,7
     42,0924	   0,0132647	96,4	   0,0133016	91,6
     42,0943	   0,0133006	95,3	    0,013364	93,0
     42,0963	   0,0133123	94,0	   0,0134529	93,3
     42,0982	   0,0133067	96,6	    0,013546	94,8
     42,1002	     0,01329	96,6	   0,0135713	95,1
     42,1021	   0,0132488	92,8	   0,0135525	94,8
     42,1041	   0,0133062	93,7	   0,0135664	94,0
     42,1061	   0,0133854	93,8	   0,0135448	95,6
      42,108	   0,0134773	92,1	   0,0135407	95,6
       42,11	   0,0135939	95,4	   0,0136671	93,0
     42,1119	    0,013619	95,8	     0,01368	96,4
     42,1139	   0,0136552	94,1	   0,0137943	95,3
     42,1158	   0,0136193	93,3	   0,0137656	95,6
     42,1178	   0,0136125	97,4	   0,0137738	94,1
     42,1197	   0,0136998	94,4	   0,0137629	96,7
     42,1217	   0,0136978	95,8	   0,0137778	93,4
     42,1237	   0,0137378	96,1	   0,0138935	96,3
     42,1256	   0,0138157	92,9	   0,0138894	95,4
     42,1276	   0,0138242	93,3	   0,0138837	94,7
     42,1295	   0,0138189	94,9	    0,013876	94,6
     42,1315	   0,0138318	94,6	   0,0139886	97,4
     42,1334	   0,0139172	94,4	   0,0139898	96,1
     42,1354	   0,0138955	96,8	   0,0141104	96,3
     42,1373	   0,0139694	96,7	    0,014236	97,6
     42,1393	   0,0140528	95,2	   0,0141846	98,4
     42,1413	   0,0140787	96,5	   0,0142219	94,3
     42,1432	   0,0140942	98,6	   0,0142325	95,9
     42,1452	   0,0141657	96,1	    0,014319	96,8
     42,1471	   0,0141708	97,6	   0,0143183	95,6
     42,1491	   0,0142121	97,0	    0,014317	96,5
      42,151	   0,0142895	93,9	   0,0143504	97,7
      42,153	   0,0142869	93,8	   0,0144932	96,6
     42,1549	   0,0143338	97,7	   0,0145281	96,1
     42,1569	   0,0143522	96,6	   0,0144664	97,1
     42,1588	    0,014355	98,0	   0,0144272	97,4
     42,1608	   0,0143859	97,4	   0,0145121	97,4
     42,1628	   0,0144202	98,4	   0,0146239	100,1
     42,1647	    0,014484	96,5	   0,0146595	100,2
     42,1667	   0,0144924	97,4	   0,0147264	96,8
     42,1686	   0,0145721	100,8	   0,0148017	96,7
     42,1706	   0,0146203	99,7	   0,0148012	98,0
     42,1725	   0,0145961	96,7	   0,0148589	97,3
     42,1745	   0,0146395	97,8	   0,0148877	97,2
     42,1764	   0,0146595	98,8	    0,014879	98,6
     42,1784	   0,0147486	98,0	   0,0148482	96,0
     42,1804	    0,014776	97,6	   0,0149359	95,4
     42,1823	   0,0147938	98,8	   0,0150107	100,2
     42,1843	   0,0148417	97,7	   0,0149912	99,3
     42,1862	   0,0149839	97,1	   0,0150994	98,0
     42,1882	   0,0151015	98,3	   0,0151673	98,5
     42,1901	   0,0150938	97,5	   0,0151605	98,8
     42,1921	   0,0151497	99,8	   0,0151666	99,6
      42,194	   0,0151154	100,6	   0,0151303	99,1
      42,196	   0,0150758	99,4	   0,0152595	100,4
     42,1979	    0,015072	98,4	   0,0152917	100,6
     42,1999	   0,0151663	98,8	   0,0153993	97,6
     42,2019	   0,0151775	101,8	   0,0154166	99,9
     42,2038	   0,0152634	100,2	   0,0154177	99,5
     42,2058	   0,0152983	98,5	     0,01552	99,5
     42,2077	   0,0153902	99,5	    0,015487	98,1
     42,2097	   0,0153759	98,7	   0,0155901	99,4
     42,2116	   0,0154737	98,7	   0,0156481	100,0
     42,2136	   0,0154255	99,4	   0,0156857	98,4
     42,2155	    0,015488	98,4	   0,0157074	102,3
     42,2175	    0,015499	98,9	   0,0157125	100,5
     42,2195	   0,0155863	103,3	   0,0157794	98,4
     42,2214	   0,0156866	101,8	   0,0158448	100,6
     42,2234	   0,0156783	99,2	   0,0158902	103,3
     42,2253	   0,0156804	98,2	   0,0158845	101,7
     42,2273	   0,0156916	102,6	   0,0158818	100,7
     42,2292	   0,0157565	102,0	   0,0159629	102,5
     42,2312	   0,0158312	100,4	   0,0160102	102,7
     42,2331	   0,0158128	103,0	   0,0160217	100,4
     42,2351	   0,0158407	100,4	   0,0160912	100,0
      42,237	   0,0159321	100,3	   0,0162078	103,2
      42,239	   0,0159909	100,2	    0,016226	103,6
      42,241	   0,0160413	103,3	   0,0162509	98,9
     42,2429	   0,0161062	102,4	   0,0163353	100,5
     42,2449	   0,0161881	101,1	   0,0163765	102,4
     42,2468	   0,0162305	103,0	   0,0164073	100,5
     42,2488	   0,0162483	101,5	   0,0163776	101,8
     42,2507	   0,0162779	101,4	   0,0163892	103,6
     42,2527	   0,0163616	102,7	   0,0164336	103,0
     42,2546	   0,0163299	104,7	   0,0164161	99,8
     42,2566	   0,0163599	101,4	    0,016535	106,1
     42,2586	   0,0163693	101,6	   0,0166037	104,1
     42,2605	   0,0164084	104,9	   0,0167127	103,6
     42,2625	   0,0164831	105,6	   0,0167713	102,0
     42,2644	   0,0166129	101,8	   0,0168711	105,8
     42,2664	   0,0166071	104,2	   0,0168742	105,4
     42,2683	   0,0166496	104,5	   0,0170009	102,0
     42,2703	   0,0166718	101,8	   0,0170389	104,9
     42,2722	   0,0166859	103,9	   0,0170347	104,2
     42,2742	   0,0166677	105,3	   0,0169884	103,8
     42,2761	   0,0167187	109,5	   0,0171191	104,7
     42,2781	   0,0168176	102,8	   0,0171344	107,1
     42,2801	   0,0168678	103,8	   0,0171777	103,1
      42,282	   0,0169415	105,3	   0,0171923	103,2
      42,284	   0,0169634	104,2	   0,0172586	105,7
     42,2859	   0,0171005	103,8	   0,0173394	105,7
     42,2879	    0,017179	106,4	   0,0173589	104,5
     42,2898	   0,0172624	105,9	   0,0174057	103,6
     42,2918	   0,0172404	104,3	   0,0174718	105,1
     42,2937	    0,017155	107,0	   0,0175766	106,2
     42,2957	   0,0172374	107,3	   0,0175937	104,6
     42,2977	   0,0172962	106,1	   0,0176472	108,9
     42,2996	   0,0173704	105,5	   0,0175941	108,9
     42,3016	   0,0173931	106,5	   0,0175959	106,3
     42,3035	   0,0174543	109,0	    0,017634	106,0
     42,3055	   0,0175171	108,0	   0,0177145	108,4
     42,3074	   0,0175997	109,1	   0,0178749	109,4
     42,3094	   0,0176782	108,1	   0,0180335	105,9
     42,3113	   0,0177053	107,4	   0,0180282	107,8
     42,3133	   0,0177286	106,8	   0,0180748	108,4
     42,3153	    0,017701	107,5	   0,0180836	108,8
     42,3172	   0,0177048	109,2	   0,0180827	105,5
     42,3192	   0,0177698	106,0	   0,0181619	108,7
     42,3211	   0,0178001	105,6	   0,0182578	109,2
     42,3231	   0,0177962	110,1	   0,0183345	107,0
      42,325	   0,0178635	110,0	   0,0183943	109,0
      42,327	   0,0179615	105,6	    0,018441	108,9
     42,3289	     0,01801	107,6	   0,0183646	107,7
     42,3309	    0,018119	110,6	   0,0184653	107,3
     42,3328	   0,0181616	110,2	   0,0185289	108,3
     42,3348	   0,0182151	107,9	   0,0186208	111,8
     42,3368	   0,0181647	107,8	   0,0186503	107,9
     42,3387	   0,0182604	111,3	   0,0187738	109,4
     42,3407	   0,0183503	110,7	   0,0187817	110,5
     42,3426	   0,0183986	109,5	   0,0187813	110,1
     42,3446	   0,0184333	115,0	   0,0188779	110,2
     42,3465	    0,018546	112,0	   0,0188722	109,9
     42,3485	   0,0185679	110,9	   0,0189634	110,9
     42,3504	   0,0186742	110,0	   0,0191022	112,1
     42,3524	   0,0187412	114,2	   0,0191235	111,5
     42,3544	   0,0188418	113,0	    0,019239	111,5
     42,3563	    0,018877	110,3	   0,0193075	113,4
     42,3583	   0,0188656	111,6	      0,0193	110,6
     42,3602	   0,0188753	114,3	   0,0192914	111,3
     42,3622	   0,0188989	111,2	   0,0193101	112,1
     42,3641	   0,0189464	111,7	   0,0193699	114,3
     42,3661	   0,0190136	114,4	   0,0194107	112,4
      42,368	   0,0190669	114,6	   0,0195103	112,4
       42,37	   0,0191103	111,0	   0,0195667	113,5
     42,3719	   0,0191495	113,4	   0,0196426	112,6
     42,3739	   0,0192085	114,1	    0,019699	112,3
     42,3759	   0,0192398	112,4	    0,019727	114,2
     42,3778	   0,0192951	113,0	   0,0197414	113,0
     42,3798	   0,0193438	114,3	   0,0198307	112,4
     42,3817	   0,0193922	115,2	   0,0198844	111,6
     42,3837	   0,0194773	114,2	   0,0199053	115,4
     42,3856	   0,0195851	112,4	   0,0199659	115,0
     42,3876	   0,0195902	112,8	    0,020059	114,8
     42,3895	   0,0196429	117,3	   0,0200499	112,3
     42,3915	   0,0197247	115,3	   0,0200517	113,8
     42,3935	   0,0197507	115,7	   0,0200447	117,3
     42,3954	   0,0198207	118,7	   0,0200842	116,2
     42,3974	   0,0198671	117,3	   0,0202527	115,3
     42,3993	   0,0199134	115,1	   0,0203646	113,8
     42,4013	   0,0199406	114,6	   0,0204021	117,6
     42,4032	   0,0200564	119,6	   0,0204376	117,7
     42,4052	   0,0201261	119,4	   0,0204832	115,1
     42,4071	   0,0201823	116,9	   0,0205212	120,5
     42,4091	   0,0201826	117,1	   0,0205973	118,8
      42,411	   0,0202487	119,8	   0,0206693	118,0
      42,413	   0,0202873	120,0	   0,0207057	117,5
      42,415	   0,0202906	117,4	   0,0207873	119,8
     42,4169	   0,0203154	117,6	   0,0209467	120,9
     42,4189	   0,0204335	120,0	   0,0210322	120,1
     42,4208	   0,0204316	119,7	    0,021036	120,5
     42,4228	   0,0205027	117,3	   0,0209994	121,2
     42,4247	   0,0204921	119,8	   0,0209737	120,7
     42,4267	   0,0205626	119,6	   0,0210477	119,1
     42,4286	   0,0206105	119,3	   0,0210312	120,6
     42,4306	   0,0206763	117,0	   0,0210957	122,4
     42,4326	   0,0207481	120,0	   0,0212254	118,5
     42,4345	   0,0208203	121,4	    0,021258	117,9
     42,4365	    0,020862	119,4	   0,0213725	118,6
     42,4384	   0,0209493	119,4	   0,0214535	123,7
     42,4404	   0,0209948	120,8	   0,0215357	121,6
     42,4423	   0,0210108	122,8	   0,0215882	120,6
     42,4443	   0,0211565	119,4	    0,021695	121,9
     42,4462	   0,0211023	120,3	   0,0217511	123,0
     42,4482	   0,0212054	122,2	   0,0218105	124,4
     42,4501	    0,021154	122,6	   0,0217282	120,8
     42,4521	   0,0211655	121,0	   0,0217354	122,1
     42,4541	     0,02121	120,3	    0,021863	124,4
      42,456	   0,0213009	123,8	   0,0219433	123,3
      42,458	   0,0213868	124,9	   0,0219097	121,8
     42,4599	   0,0214488	122,0	   0,0219998	122,6
     42,4619	   0,0215313	121,4	   0,0221007	124,0
     42,4638	   0,0215969	124,7	   0,0221638	125,1
     42,4658	   0,0215707	125,6	   0,0221766	121,8
     42,4677	   0,0216207	124,6	   0,0222338	122,5
     42,4697	   0,0217127	122,4	   0,0222508	126,9
     42,4717	   0,0217281	128,5	   0,0223041	126,1
     42,4736	   0,0217685	127,5	   0,0222336	124,6
     42,4756	   0,0218654	124,6	   0,0222411	124,5
     42,4775	   0,0219662	123,7	   0,0223387	128,0
     42,4795	    0,021946	128,4	   0,0223468	127,3
     42,4814	    0,022064	127,6	   0,0224272	125,1
     42,4834	   0,0220486	126,1	   0,0224671	126,6
     42,4853	   0,0220538	125,7	   0,0225551	128,8
     42,4873	   0,0221137	129,9	   0,0225418	127,7
     42,4892	   0,0222147	130,9	   0,0225907	126,8
     42,4912	   0,0222063	127,7	   0,0226007	126,2
     42,4932	    0,022251	127,2	   0,0226238	129,9
     42,4951	    0,022301	130,9	   0,0227265	128,4
     42,4971	   0,0223671	131,3	   0,0228118	127,2
      42,499	   0,0224077	129,2	   0,0227757	128,3
      42,501	   0,0224173	129,2	   0,0227429	131,7
     42,5029	   0,0224535	131,7	   0,0228701	129,9
     42,5049	   0,0225271	132,4	   0,0229188	129,1
     42,5068	   0,0226422	130,6	    0,022963	130,5
     42,5088	   0,0226744	129,8	   0,0230625	134,0
     42,5108	   0,0228048	129,6	    0,023146	131,5
     42,5127	   0,0226865	134,5	   0,0231247	131,6
     42,5147	    0,022684	130,3	   0,0231625	131,5
     42,5166	   0,0227555	130,7	   0,0231608	131,0
     42,5186	   0,0227844	133,3	   0,0231319	133,7
     42,5205	   0,0228902	134,6	   0,0231808	130,8
     42,5225	   0,0229269	132,1	   0,0232072	133,3
     42,5244	   0,0230273	133,0	   0,0232715	133,3
     42,5264	   0,0229369	133,6	   0,0233175	134,6
     42,5283	   0,0230122	137,3	   0,0233992	134,1
     42,5303	   0,0230497	136,2	   0,0233407	133,2
     42,5323	   0,0230208	133,3	   0,0233918	135,7
     42,5342	   0,0231198	133,5	   0,0233706	137,5
     42,5362	   0,0231793	136,5	   0,0233951	137,9
     42,5381	   0,0231697	138,7	   0,0234605	134,9
     42,5401	    0,023143	135,2	   0,0234322	136,7
      42,542	   0,0232615	134,9	   0,0234579	137,1
      42,544	    0,023331	138,9	   0,0234948	136,8
     42,5459	   0,0233539	138,3	   0,0235268	136,4
     42,5479	   0,0233187	134,5	   0,0235672	138,2
     42,5499	   0,0233628	136,5	   0,0236333	139,0
     42,5518	   0,0233796	139,6	   0,0237201	140,2
     42,5538	   0,0234406	138,3	   0,0236903	138,9
     42,5557	    0,023435	134,1	   0,0236895	139,6
     42,5577	   0,0235028	135,6	   0,0237291	140,2
     42,5596	   0,0235349	139,4	   0,0237775	140,1
     42,5616	    0,023532	140,0	   0,0238339	140,3
     42,5635	   0,0235443	137,3	   0,0238487	139,3
     42,5655	   0,0235199	139,7	   0,0237906	140,2
     42,5674	   0,0235651	141,5	   0,0238057	142,6
     42,5694	   0,0236045	142,5	   0,0237775	142,7
     42,5714	   0,0235937	142,2	   0,0238007	140,0
     42,5733	   0,0236592	138,9	   0,0238709	140,4
     42,5753	   0,0236472	140,4	   0,0239204	143,8
     42,5772	   0,0236957	142,6	   0,0239811	143,1
     42,5792	   0,0237016	144,2	   0,0239698	141,4
     42,5811	   0,0237963	142,3	   0,0239084	143,0
     42,5831	   0,0238301	141,5	   0,0239448	145,5
      42,585	   0,0238517	143,0	   0,0239709	143,8
      42,587	    0,023885	143,0	   0,0240013	142,4
      42,589	   0,0238856	144,9	    0,024014	140,8
     42,5909	   0,0239079	142,7	   0,0239957	146,8
     42,5929	   0,0238812	144,2	   0,0239489	146,0
     42,5948	   0,0238645	146,7	   0,0239524	144,4
     42,5968	    0,023945	146,0	   0,0239595	143,5
     42,5987	   0,0239567	146,1	   0,0240208	145,7
     42,6007	    0,023964	144,0	   0,0240197	145,6
     42,6026	   0,0239577	146,3	    0,024043	146,7
     42,6046	   0,0239656	146,7	   0,0240807	147,0
     42,6065	   0,0239325	147,2	   0,0240343	144,3
     42,6085	   0,0239418	145,9	   0,0240298	148,2
     42,6105	   0,0239854	146,4	   0,0240257	148,9
     42,6124	    0,024095	147,7	   0,0240011	147,3
     42,6144	   0,0240327	148,6	   0,0240263	146,2
     42,6163	   0,0239842	147,2	   0,0240734	148,2
     42,6183	   0,0239994	147,8	   0,0240524	149,0
     42,6202	   0,0239504	150,7	   0,0240236	147,9
     42,6222	   0,0239149	151,3	   0,0239935	147,4
     42,6241	    0,023982	148,1	   0,0239889	150,0
     42,6261	   0,0239887	149,6	   0,0240355	149,9
     42,6281	   0,0240297	153,1	   0,0240087	151,2
       42,63	   0,0241291	151,6	   0,0240938	147,8
      42,632	   0,0240521	150,7	   0,0240353	150,1
     42,6339	   0,0239925	150,4	   0,0240304	149,2
     42,6359	   0,0240119	149,2	   0,0241121	153,3
     42,6378	   0,0240765	154,3	   0,0241296	151,8
     42,6398	   0,0240993	152,8	   0,0241023	151,2
     42,6417	   0,0240306	151,5	   0,0241658	149,5
     42,6437	    0,023981	152,5	   0,0241474	151,8
     42,6456	   0,0240198	152,5	   0,0240413	153,6
     42,6476	   0,0240144	154,2	   0,0240429	152,1
     42,6496	   0,0240214	153,9	   0,0239708	151,5
     42,6515	   0,0240146	152,8	   0,0239319	150,5
     42,6535	    0,023919	155,7	    0,023931	153,7
     42,6554	   0,0239539	153,1	   0,0238645	153,3
     42,6574	   0,0239983	156,1	   0,0239105	153,1
     42,6593	   0,0239856	154,8	   0,0238603	154,9
     42,6613	    0,023977	154,5	   0,0239068	154,7
     42,6632	   0,0239665	151,8	   0,0238186	156,5
     42,6652	   0,0239685	156,9	   0,0237945	154,5
     42,6672	   0,0239314	155,9	   0,0238257	154,9
     42,6691	   0,0239561	153,5	   0,0237784	155,4
     42,6711	   0,0238886	154,8	   0,0236921	155,9
      42,673	   0,0238436	156,3	   0,0237398	157,0
      42,675	   0,0238491	157,8	   0,0237607	157,3
     42,6769	   0,0238488	155,0	   0,0237813	155,6
     42,6789	   0,0238652	155,8	    0,023785	157,7
     42,6808	   0,0238467	157,1	    0,023796	159,6
     42,6828	   0,0238307	157,6	   0,0237057	159,8
     42,6847	   0,0237928	158,5	   0,0236974	156,8
     42,6867	   0,0237589	157,0	   0,0237197	158,0
     42,6887	   0,0238008	156,9	   0,0236693	159,4
     42,6906	   0,0237372	157,5	   0,0236572	160,8
     42,6926	   0,0237019	160,7	   0,0235863	160,9
     42,6945	    0,023728	158,9	   0,0235377	158,1
     42,6965	   0,0236622	158,1	   0,0235466	158,7
     42,6984	    0,023657	159,2	   0,0235399	161,6
     42,7004	   0,0236022	160,2	   0,0234784	161,3
     42,7023	   0,0235893	162,7	   0,0234762	161,1
     42,7043	   0,0235323	163,8	    0,023359	160,9
     42,7063	   0,0235597	158,7	    0,023302	162,8
     42,7082	   0,0235076	159,8	    0,023228	162,8
     42,7102	   0,0234899	163,4	   0,0232873	163,6
     42,7121	   0,0234504	164,3	   0,0232821	163,6
     42,7141	   0,0234753	160,0	   0,0232177	161,2
      42,716	   0,0234182	163,5	   0,0232264	159,6
      42,718	    0,023446	164,0	    0,023245	164,7
     42,7199	   0,0234174	165,7	   0,0232258	163,5
     42,7219	    0,023331	165,5	   0,0231848	163,1
     42,7239	   0,0233168	165,2	   0,0231765	162,8
     42,7258	   0,0232648	163,6	   0,0231315	165,8
     42,7278	   0,0232299	165,6	   0,0230537	164,2
     42,7297	   0,0232353	164,3	   0,0229682	166,3
     42,7317	   0,0231871	166,6	   0,0229647	163,2
     42,7336	   0,0231308	165,7	   0,0229312	164,6
     42,7356	   0,0230882	165,6	   0,0229264	165,9
     42,7375	   0,0230799	165,4	   0,0229198	168,2
     42,7395	   0,0230475	168,9	   0,0228525	166,1
     42,7414	   0,0230634	167,9	   0,0227733	163,7
     42,7434	   0,0229636	166,4	   0,0227012	164,5
     42,7454	   0,0229779	166,2	   0,0227163	168,0
     42,7473	   0,0228615	167,8	   0,0226747	167,6
     42,7493	   0,0228973	166,7	   0,0226173	166,0
     42,7512	   0,0228055	169,5	   0,0226118	165,9
     42,7532	   0,0227829	166,7	   0,0226138	167,5
     42,7551	   0,0227458	167,8	   0,0225303	168,2
     42,7571	   0,0227039	167,9	   0,0224544	169,5
      42,759	   0,0227097	169,8	   0,0224915	168,1
      42,761	   0,0227209	170,3	   0,0224976	170,4
      42,763	   0,0226196	167,3	   0,0224829	168,0
     42,7649	   0,0225145	165,5	   0,0224259	169,2
     42,7669	   0,0225463	170,1	   0,0224014	171,0
     42,7688	   0,0225379	170,3	   0,0222978	168,8
     42,7708	   0,0225183	169,5	   0,0222519	170,5
     42,7727	   0,0224893	170,0	   0,0221995	170,8
     42,7747	   0,0224328	170,7	   0,0221959	173,0
     42,7766	   0,0223696	172,6	   0,0221569	172,2
     42,7786	   0,0222892	172,1	   0,0220594	174,4
     42,7805	    0,022317	170,9	   0,0220866	170,9
     42,7825	   0,0222752	172,3	   0,0220657	171,5
     42,7845	   0,0222157	171,5	   0,0220266	171,0
     42,7864	    0,022151	172,4	   0,0219717	175,4
     42,7884	   0,0221153	175,6	   0,0219469	174,0
     42,7903	   0,0220269	175,4	   0,0219087	171,2
     42,7923	   0,0219882	174,2	   0,0218859	170,7
     42,7942	   0,0219783	171,5	   0,0217984	170,6
     42,7962	   0,0219308	175,4	   0,0217361	174,3
     42,7981	   0,0218994	174,9	   0,0216063	173,7
     42,8001	   0,0218516	173,5	   0,0215509	172,8
     42,8021	   0,0218632	173,9	   0,0215889	173,2
      42,804	   0,0218321	173,7	   0,0215821	174,0
      42,806	   0,0217293	173,8	   0,0215844	176,4
     42,8079	   0,0216772	176,3	   0,0214799	173,3
     42,8099	    0,021696	176,8	   0,0214096	175,9
     42,8118	   0,0216373	173,9	   0,0214347	174,8
     42,8138	   0,0215914	174,9	    0,021403	176,2
     42,8157	   0,0214361	174,9	   0,0213414	177,7
     42,8177	   0,0214967	176,0	   0,0212016	179,2
     42,8196	   0,0214845	177,0	    0,021162	176,8
     42,8216	   0,0213811	176,8	   0,0211117	176,6
     42,8236	   0,0213054	175,3	   0,0210535	177,5
     42,8255	   0,0213011	175,3	   0,0210878	177,6
     42,8275	   0,0212067	177,6	   0,0209945	180,3
     42,8294	     0,02116	180,4	   0,0209162	178,5
     42,8314	   0,0211197	178,5	   0,0208356	177,2
     42,8333	   0,0210455	178,7	   0,0207942	176,4
     42,8353	   0,0209784	178,4	   0,0208031	176,2
     42,8372	   0,0208812	180,1	   0,0207191	181,2
     42,8392	   0,0208666	179,7	   0,0206577	179,5
     42,8412	   0,0208187	182,5	   0,0206635	177,4
     42,8431	   0,0207633	181,0	   0,0205832	178,9
     42,8451	   0,0207121	177,7	   0,0205467	178,6
      42,847	   0,0207757	178,4	   0,0204478	179,6
      42,849	   0,0206899	183,1	   0,0204527	180,7
     42,8509	   0,0207086	180,2	   0,0204325	181,8
     42,8529	   0,0205595	178,9	   0,0204139	179,3
     42,8548	     0,02056	178,9	   0,0204126	179,0
     42,8568	    0,020461	180,1	   0,0203648	182,4
     42,8587	   0,0204368	181,4	   0,0202949	183,9
     42,8607	   0,0203727	181,6	   0,0201989	181,3
     42,8627	   0,0203651	183,1	   0,0200878	181,4
     42,8646	   0,0202637	180,5	   0,0200022	181,6
     42,8666	    0,020191	179,3	   0,0200224	182,0
     42,8685	   0,0201947	182,6	   0,0199802	184,2
     42,8705	   0,0201143	184,4	   0,0199969	184,0
     42,8724	   0,0201036	183,3	   0,0199066	182,3
     42,8744	   0,0200462	183,5	   0,0198921	180,1
     42,8763	   0,0200062	181,3	   0,0198176	179,4
     42,8783	   0,0200072	182,5	   0,0197809	182,7
     42,8803	   0,0199369	185,4	    0,019751	184,2
     42,8822	   0,0198169	187,5	   0,0196829	183,1
     42,8842	   0,0197806	184,9	   0,0195917	180,9
     42,8861	   0,0197798	183,9	   0,0195181	181,6
     42,8881	    0,019756	183,2	   0,0195007	184,5
       42,89	   0,0196929	183,6	    0,019432	185,6
      42,892	   0,0196929	183,8	   0,0192554	184,8
     42,8939	   0,0196381	185,3	   0,0192931	183,8
     42,8959	   0,0195155	185,2	   0,0192945	185,8
     42,8979	    0,019503	182,5	   0,0192745	185,5
     42,8998	   0,0194559	182,8	   0,0192304	184,9
     42,9018	   0,0194885	186,5	   0,0191954	187,9
     42,9037	   0,0194162	188,5	   0,0191405	187,1
     42,9057	   0,0193302	186,6	   0,0191283	183,5
     42,9076	   0,0192827	187,1	   0,0190938	183,6
     42,9096	   0,0192019	186,0	   0,0190228	185,9
     42,9115	   0,0190907	187,0	   0,0189784	185,7
     42,9135	   0,0190458	189,2	    0,018943	187,3
     42,9154	   0,0189929	191,3	   0,0189106	185,4
     42,9174	   0,0189221	187,6	   0,0187707	184,0
     42,9194	   0,0189105	187,5	   0,0187224	183,9
     42,9213	   0,0188546	187,2	   0,0186171	187,3
     42,9233	   0,0188594	185,1	   0,0186281	188,8
     42,9252	   0,0188487	189,0	   0,0186809	186,5
     42,9272	   0,0188676	188,2	   0,0186467	188,3
     42,9291	   0,0187747	188,6	   0,0186133	188,6
     42,9311	   0,0187131	186,8	   0,0185896	187,3
      42,933	   0,0186119	187,7	   0,0184552	188,8
      42,935	    0,018599	188,7	     0,01835	190,2
      42,937	   0,0185934	190,3	   0,0183685	189,9
     42,9389	   0,0185181	192,4	   0,0183215	188,8
     42,9409	   0,0184276	188,4	   0,0182944	188,4
     42,9428	    0,018359	189,4	   0,0181978	189,2
     42,9448	   0,0183189	191,6	   0,0181603	190,3
     42,9467	   0,0182748	191,0	   0,0180694	192,0
     42,9487	   0,0182166	194,7	   0,0180488	191,2
     42,9506	   0,0181506	192,1	   0,0180489	187,9
     42,9526	   0,0180473	190,7	   0,0180522	188,2
     42,9545	   0,0180781	188,5	   0,0179918	188,9
     42,9565	   0,0180956	188,8	   0,0179661	191,5
     42,9585	   0,0180376	191,8	   0,0178027	193,0
     42,9604	   0,0179914	191,4	   0,0177489	191,6
     42,9624	   0,0179176	190,2	   0,0177055	191,9
     42,9643	   0,0179164	189,5	   0,0176363	190,4
     42,9663	   0,0178764	190,1	   0,0175858	190,1
     42,9682	   0,0177332	192,5	   0,0175282	193,8
     42,9702	   0,0176199	193,6	   0,0175447	193,9
     42,9721	   0,0176064	194,3	   0,0175075	192,0
     42,9741	    0,017635	192,9	   0,0174727	191,1
     42,9761	   0,0175656	193,7	   0,0173838	190,4
      42,978	   0,0175338	193,0	   0,0174081	192,1
       42,98	   0,0175002	191,9	    0,017295	191,8
     42,9819	   0,0173593	194,9	   0,0172952	192,4
     42,9839	    0,017362	194,7	   0,0173394	193,3
     42,9858	   0,0172693	195,2	   0,0172343	190,4
     42,9878	   0,0172762	190,4	   0,0171488	191,2
     42,9897	   0,0172486	191,4	   0,0171446	193,8
     42,9917	   0,0171668	191,9	   0,0171073	194,0
     42,9936	   0,0171663	193,7	    0,017083	195,9
     42,9956	   0,0171213	195,7	   0,0169929	195,0
     42,9976	   0,0170595	193,4	   0,0169997	193,7
     42,9995	    0,017026	194,5	   0,0168006	193,1
     43,0015	   0,0169487	192,0	   0,0168448	191,4
     43,0034	   0,0168609	195,1	   0,0167968	195,3
     43,0054	   0,0167923	197,6	   0,0167791	194,7
     43,0073	   0,0167846	198,1	   0,0167331	193,5
     43,0093	   0,0167912	196,4	   0,0166799	194,0
     43,0112	   0,0167178	195,3	   0,0166147	192,1
     43,0132	    0,016733	194,6	   0,0166348	192,8
     43,0152	   0,0166823	193,6	   0,0165805	196,1
     43,0171	   0,0165992	197,3	   0,0165342	197,4
     43,0191	   0,0165395	195,4	   0,0164356	194,8
      43,021	   0,0164912	194,9	    0,016373	197,2
      43,023	   0,0164688	196,1	   0,0163633	196,1
     43,0249	   0,0164168	194,6	   0,0163176	195,6
     43,0269	   0,0163409	194,5	   0,0162767	192,7
     43,0288	    0,016279	197,4	   0,0161578	197,9
     43,0308	   0,0162114	198,9	    0,016143	197,1
     43,0327	   0,0161866	199,4	   0,0161048	194,2
     43,0347	   0,0161327	197,6	   0,0161102	194,8
     43,0367	   0,0161003	196,5	   0,0161031	194,6
     43,0386	   0,0160845	194,7	   0,0160317	195,3
     43,0406	   0,0160606	196,6	   0,0159711	198,6
     43,0425	   0,0160161	195,2	   0,0158359	199,2
     43,0445	   0,0159714	199,4	   0,0158755	196,4
     43,0464	   0,0159145	199,4	   0,0158733	-159,9
     43,0484	   0,0159055	197,7	   0,0157456	-163,6
     43,0503	   0,0158739	197,3	   0,0157693	-163,0
     43,0523	   0,0157568	198,6	   0,0157838	-163,6
     43,0543	   0,0157849	198,9	     0,01576	-160,1
     43,0562	    0,015736	199,7	   0,0157156	-162,9
     43,0582	   0,0155948	-157,5	   0,0155792	-163,6
     43,0601	   0,0155602	-159,2	   0,0155328	-162,3
     43,0621	   0,0155688	-161,6	   0,0155258	-164,4
      43,064	   0,0155536	-162,2	   0,0154794	-162,3
      43,066	   0,0154899	-162,6	   0,0154126	-162,6
     43,0679	    0,015475	-161,8	    0,015382	-159,6
     43,0699	   0,0154262	-159,0	   0,0153207	-158,2
     43,0718	   0,0153351	-160,2	   0,0153177	-160,4
     43,0738	   0,0152913	-161,1	   0,0152808	-161,4
     43,0758	   0,0152698	-158,6	   0,0152332	-161,9
     43,0777	   0,0151958	-161,6	   0,0151552	-160,8
     43,0797	    0,015222	-162,0	    0,015182	-160,7
     43,0816	   0,0152301	-157,9	   0,0151515	-159,4
     43,0836	   0,0151555	-159,7	   0,0151065	-159,2
     43,0855	   0,0150964	-159,2	   0,0150022	-160,7
     43,0875	   0,0150724	-158,9	   0,0149652	-161,4
     43,0894	   0,0150785	-162,5	   0,0149059	-160,1
     43,0914	   0,0150601	-160,8	   0,0148532	-159,8
     43,0934	   0,0149542	-159,6	   0,0148622	-156,7
     43,0953	   0,0150016	-159,7	   0,0148167	-157,2
     43,0973	   0,0148246	-157,3	   0,0147627	-158,3
     43,0992	   0,0147401	-156,5	   0,0147258	-159,7
     43,1012	   0,0146735	-157,2	   0,0147465	-161,8
     43,1031	   0,0147062	-156,9	   0,0147175	-162,1
     43,1051	   0,0146032	-158,4	    0,014651	-161,2
      43,107	    0,014597	-160,8	   0,0145937	-157,7
      43,109	   0,0146059	-156,7	   0,0145316	-157,7
     43,1109	   0,0145371	-158,4	    0,014474	-157,5
     43,1129	   0,0144565	-158,4	   0,0144381	-159,9
     43,1149	   0,0144437	-155,4	   0,0144156	-157,3
     43,1168	   0,0144677	-161,0	   0,0144442	-160,3
     43,1188	    0,014455	-158,3	   0,0142979	-158,9
     43,1207	   0,0144131	-156,7	   0,0143531	-158,5
     43,1227	   0,0143264	-156,1	   0,0143508	-158,5
     43,1246	   0,0142529	-154,2	   0,0143018	-155,9
     43,1266	   0,0143079	-153,1	   0,0142577	-158,2
     43,1285	   0,0142496	-156,3	   0,0142914	-157,4
     43,1305	   0,0142245	-158,4	   0,0141876	-158,7
     43,1325	    0,014228	-159,2	    0,014164	-157,3
     43,1344	   0,0141714	-157,5	   0,0140768	-155,9
     43,1364	   0,0141741	-157,5	   0,0140848	-155,1
     43,1383	   0,0140658	-156,7	   0,0141002	-155,9
     43,1403	   0,0139802	-154,6	   0,0139482	-155,7
     43,1422	   0,0139992	-155,2	   0,0138912	-156,7
     43,1442	   0,0139475	-156,0	   0,0138248	-160,0
     43,1461	   0,0138441	-155,6	   0,0138437	-157,2
     43,1481	    0,013846	-155,4	   0,0137955	-157,2
       43,15	   0,0137726	-156,4	   0,0138092	-155,8
      43,152	   0,0137552	-153,5	   0,0137307	-152,9
      43,154	   0,0137513	-155,4	   0,0136946	-152,1
     43,1559	   0,0138164	-155,7	   0,0135856	-156,2
     43,1579	   0,0137266	-154,3	   0,0136246	-156,1
     43,1598	   0,0136633	-156,9	   0,0135808	-156,9
     43,1618	    0,013555	-156,0	   0,0136367	-158,4
     43,1637	   0,0135138	-154,6	   0,0135742	-156,4
     43,1657	   0,0135075	-153,9	   0,0134894	-155,8
     43,1676	   0,0134495	-152,2	   0,0134791	-156,1
     43,1696	   0,0134418	-153,2	    0,013475	-153,3
     43,1716	   0,0133589	-153,0	   0,0133966	-156,3
     43,1735	   0,0132778	-156,5	   0,0133348	-155,2
     43,1755	   0,0133676	-157,6	   0,0133121	-156,1
     43,1774	   0,0133153	-157,6	   0,0132861	-156,2
     43,1794	   0,0133351	-153,9	   0,0132182	-155,5
     43,1813	   0,0131619	-152,4	   0,0132185	-153,5
     43,1833	   0,0131629	-151,4	   0,0132242	-154,3
     43,1852	   0,0131028	-151,8	   0,0132084	-153,3
     43,1872	    0,013061	-154,8	    0,013063	-157,7
     43,1891	   0,0130989	-154,1	   0,0129683	-155,3
     43,1911	   0,0130894	-156,4	   0,0130047	-154,4
     43,1931	    0,013017	-156,2	   0,0130028	-153,6
      43,195	   0,0130028	-156,4	   0,0130184	-150,9
      43,197	   0,0129351	-153,5	   0,0129469	-153,7
     43,1989	   0,0129346	-152,1	   0,0129641	-153,1
     43,2009	   0,0129134	-152,6	   0,0129766	-154,6
     43,2028	   0,0128448	-152,0	   0,0129191	-153,7
     43,2048	    0,012753	-154,0	   0,0128819	-156,1
     43,2067	   0,0127474	-153,7	   0,0127543	-155,0
     43,2087	   0,0127278	-153,1	   0,0126939	-153,3
     43,2107	   0,0127185	-154,9	   0,0126283	-153,7
     43,2126	   0,0127129	-151,6	   0,0126063	-151,3
     43,2146	   0,0127124	-151,6	    0,012673	-154,0
     43,2165	   0,0126771	-154,7	   0,0126854	-152,5
     43,2185	   0,0126424	-151,6	   0,0126086	-156,2
     43,2204	   0,0125853	-153,2	   0,0125609	-154,1
     43,2224	   0,0125479	-151,4	   0,0125265	-153,1
     43,2243	   0,0125307	-149,9	   0,0124728	-152,8
     43,2263	   0,0125023	-150,7	   0,0123977	-152,2
     43,2282	    0,012439	-150,3	    0,012354	-149,7
     43,2302	   0,0124541	-151,6	   0,0123025	-151,2
     43,2322	   0,0123783	-150,5	   0,0123544	-151,7
     43,2341	   0,0122986	-153,3	    0,012352	-152,1
     43,2361	   0,0122797	-151,0	   0,0122973	-156,5
      43,238	    0,012255	-152,6	   0,0122719	-152,7
       43,24	   0,0122335	-152,9	   0,0122409	-152,1
     43,2419	   0,0122492	-149,2	   0,0121465	-152,5
     43,2439	   0,0121955	-150,3	   0,0121172	-149,9
     43,2458	   0,0121911	-150,0	   0,0121094	-149,9
     43,2478	   0,0121404	-150,8	   0,0120225	-150,1
     43,2498	   0,0120624	-153,4	   0,0121013	-150,1
     43,2517	   0,0120227	-153,4	   0,0120616	-155,0
     43,2537	    0,011974	-152,5	   0,0120134	-154,5
     43,2556	   0,0119772	-151,5	   0,0119829	-153,8
     43,2576	   0,0119119	-148,6	   0,0118779	-151,2
     43,2595	   0,0118501	-149,8	   0,0118785	-150,4
     43,2615	   0,0118904	-149,4	   0,0118834	-148,2
     43,2634	   0,0118979	-150,2	   0,0118885	-150,0
     43,2654	   0,0118262	-152,8	   0,0118148	-150,5
     43,2673	   0,0118597	-151,7	   0,0118036	-151,2
     43,2693	   0,0117678	-153,0	     0,01175	-152,3
     43,2713	   0,0116597	-150,5	   0,0116794	-152,9
     43,2732	   0,0116422	-150,0	   0,0116654	-152,4
     43,2752	    0,011624	-148,1	    0,011669	-150,2
     43,2771	    0,011572	-146,4	   0,0116775	-146,5
     43,2791	   0,0116809	-150,1	   0,0116655	-148,3
      43,281	   0,0116659	-151,7	   0,0116145	-149,3
      43,283	   0,0116837	-150,7	   0,0115597	-149,5
     43,2849	   0,0116082	-152,6	   0,0115327	-149,4
     43,2869	   0,0115279	-150,7	   0,0115487	-153,3
     43,2889	   0,0114769	-148,0	   0,0115058	-151,6
     43,2908	   0,0114759	-148,1	   0,0114732	-151,6
     43,2928	   0,0114428	-145,6	   0,0113886	-148,1
     43,2947	   0,0114109	-147,2	   0,0113043	-148,3
     43,2967	   0,0113495	-148,9	   0,0112984	-148,0
     43,2986	   0,0113366	-149,9	   0,0112846	-149,0
     43,3006	    0,011316	-149,9	   0,0112664	-149,7
     43,3025	   0,0112574	-151,6	   0,0113035	-149,1
     43,3045	   0,0112387	-149,8	   0,0112666	-151,1
     43,3064	   0,0111727	-149,7	   0,0111553	-149,0
     43,3084	   0,0111479	-146,5	   0,0112322	-149,1
     43,3104	   0,0111688	-147,7	   0,0110911	-149,6
     43,3123	   0,0111044	-148,0	   0,0110679	-147,4
     43,3143	   0,0110602	-147,5	    0,011119	-148,0
     43,3162	   0,0110864	-150,5	   0,0110811	-148,9
     43,3182	   0,0110356	-151,1	   0,0110643	-148,5
     43,3201	   0,0110083	-147,7	   0,0110885	-150,0
     43,3221	    0,010986	-148,7	   0,0109919	-149,3
      43,324	   0,0110236	-149,1	   0,0109382	-149,3
      43,326	   0,0110071	-144,1	   0,0109416	-149,6
      43,328	   0,0109299	-148,4	   0,0109597	-147,3
     43,3299	   0,0107656	-146,7	   0,0109689	-148,9
     43,3319	   0,0107316	-146,6	    0,010915	-147,0
     43,3338	    0,010819	-148,2	   0,0108246	-147,7
     43,3358	   0,0108067	-148,0	   0,0108038	-150,0
     43,3377	   0,0107415	-146,7	   0,0107651	-147,1
     43,3397	   0,0107608	-148,6	   0,0107233	-147,5
     43,3416	   0,0108148	-150,1	   0,0106913	-148,9
     43,3436	   0,0107996	-148,8	   0,0106378	-147,7
     43,3456	   0,0108133	-149,1	   0,0106763	-149,6
     43,3475	   0,0107164	-146,6	   0,0106914	-147,9
     43,3495	   0,0106337	-144,6	   0,0106779	-149,3
     43,3514	    0,010563	-147,7	   0,0106852	-148,1
     43,3534	   0,0105213	-147,1	   0,0105604	-145,2
     43,3553	   0,0105138	-147,5	   0,0104792	-146,3
     43,3573	   0,0104535	-148,0	   0,0104179	-146,7
     43,3592	   0,0104563	-149,0	   0,0104586	-148,6
     43,3612	   0,0105255	-149,8	   0,0104633	-149,7
     43,3631	   0,0104263	-147,1	   0,0104371	-150,8
     43,3651	   0,0104238	-146,3	    0,010417	-148,6
     43,3671	   0,0103231	-145,0	   0,0103468	-146,9
      43,369	   0,0103374	-144,6	   0,0103586	-145,0
      43,371	   0,0103369	-144,7	   0,0103073	-144,0
     43,3729	   0,0102782	-146,0	   0,0102672	-145,6
     43,3749	   0,0102614	-147,5	   0,0102401	-145,7
     43,3768	   0,0103291	-150,9	    0,010274	-148,6
     43,3788	   0,0103582	-148,4	   0,0101855	-145,8
     43,3807	   0,0102661	-147,7	   0,0102503	-148,6
     43,3827	   0,0101981	-146,1	   0,0101699	-147,2
     43,3847	   0,0101656	-144,9	   0,0101198	-146,2
     43,3866	   0,0101942	-146,3	   0,0100804	-148,2
     43,3886	    0,010214	-144,8	   0,0100443	-145,8
     43,3905	   0,0101317	-145,2	   0,0100716	-146,8
     43,3925	   0,0101377	-147,1	   0,0100545	-147,9
     43,3944	   0,0101477	-146,3	  0,00997909	-144,7
     43,3964	   0,0100933	-146,7	   0,0100102	-145,7
     43,3983	   0,0100112	-147,4	  0,00997261	-144,0
     43,4003	  0,00998922	-148,2	  0,00997066	-146,3
     43,4022	  0,00995524	-146,2	   0,0100005	-146,2
     43,4042	  0,00993321	-147,3	   0,0100367	-146,9
     43,4062	  0,00994856	-144,9	  0,00993744	-148,1
     43,4081	  0,00989742	-144,9	  0,00998359	-146,6
     43,4101	  0,00998471	-144,3	  0,00986365	-145,4
      43,412	   0,0099729	-143,9	  0,00987149	-143,3
      43,414	  0,00989708	-144,7	  0,00980095	-141,9
     43,4159	  0,00987026	-147,0	   0,0097751	-144,5
     43,4179	  0,00975582	-146,7	  0,00980763	-145,3
     43,4198	  0,00969796	-147,0	   0,0098192	-147,7
     43,4218	  0,00959282	-146,2	  0,00973375	-144,9
     43,4238	  0,00965304	-144,5	  0,00973006	-145,9
     43,4257	  0,00965438	-144,6	  0,00973119	-144,3
     43,4277	  0,00969908	-142,5	  0,00972697	-145,0
     43,4296	  0,00972661	-144,2	  0,00964082	-142,9
     43,4316	  0,00967508	-145,7	  0,00966388	-143,0
     43,4335	  0,00965029	-143,6	   0,0096362	-146,3
     43,4355	  0,00957405	-145,2	   0,0095556	-143,9
     43,4374	  0,00952795	-143,5	  0,00952087	-143,6
     43,4394	  0,00951144	-145,2	  0,00948798	-143,1
     43,4413	  0,00952699	-146,3	  0,00952602	-143,2
     43,4433	  0,00948813	-145,2	  0,00943751	-146,8
     43,4453	  0,00948961	-144,0	  0,00944301	-147,2
     43,4472	  0,00947923	-145,0	  0,00937723	-146,9
     43,4492	  0,00944662	-144,3	  0,00939347	-145,9
     43,4511	  0,00940863	-143,0	  0,00937571	-144,3
     43,4531	  0,00939363	-141,3	  0,00937881	-142,7
      43,455	  0,00929987	-143,4	  0,00933863	-142,5
      43,457	  0,00932881	-143,8	   0,0092817	-144,7
     43,4589	   0,0093371	-146,4	  0,00934359	-143,9
     43,4609	  0,00927017	-145,7	  0,00937161	-144,8
     43,4629	  0,00931951	-145,9	   0,0092999	-146,5
     43,4648	  0,00932491	-144,8	  0,00920301	-143,9
     43,4668	  0,00927189	-142,8	  0,00924179	-144,7
     43,4687	  0,00927741	-145,3	  0,00923625	-143,5
     43,4707	  0,00916812	-144,4	  0,00921866	-145,2
     43,4726	  0,00919302	-143,9	  0,00920638	-146,5
     43,4746	  0,00915647	-143,4	  0,00911483	-144,8
     43,4765	  0,00916766	-141,2	  0,00910948	-145,0
     43,4785	  0,00909666	-141,4	  0,00912318	-142,7
     43,4804	  0,00907473	-141,7	  0,00910304	-140,8
     43,4824	  0,00909222	-143,1	   0,0089758	-141,7
     43,4844	  0,00908928	-143,8	  0,00905304	-141,9
     43,4863	  0,00901624	-146,6	  0,00899114	-143,4
     43,4883	  0,00904851	-145,3	  0,00899313	-145,0
     43,4902	  0,00913641	-144,5	  0,00893773	-142,0
     43,4922	  0,00912064	-143,6	  0,00889488	-143,6
     43,4941	   0,0090196	-142,8	  0,00890175	-142,5
     43,4961	   0,0089061	-143,4	  0,00890017	-146,0
      43,498	  0,00880784	-141,9	  0,00884173	-146,2
        43,5	  0,00884058	-144,0	  0,00882538	-142,7

