X-Data [Hz]	Laser (M - Filtered) [m/s]	Phase [Deg]	Laser (M - Filtered) [m/s]	Phase [Deg]	
	002: [07-10-24 10:42]		003: [07-10-24 10:45]	
        41,5	  0,00645709	77,3	  0,00626201	78,1
      41,502	  0,00627525	75,5	  0,00626676	77,4
     41,5039	  0,00632071	75,4	  0,00640073	76,6
     41,5059	  0,00632437	83,2	  0,00633089	77,0
     41,5078	  0,00637643	75,1	  0,00632852	80,2
     41,5098	  0,00635671	82,9	   0,0063009	77,4
     41,5117	  0,00638234	78,8	  0,00648064	80,4
     41,5137	  0,00624749	81,3	  0,00654153	78,1
     41,5156	  0,00624298	83,7	  0,00651289	78,2
     41,5176	  0,00644317	82,9	  0,00644348	81,4
     41,5196	  0,00647375	78,0	  0,00633627	81,2
     41,5215	  0,00643465	77,3	  0,00632577	79,4
     41,5235	  0,00656272	78,1	  0,00645728	75,1
     41,5254	  0,00657641	80,3	  0,00648223	76,8
     41,5274	  0,00672103	77,0	  0,00653298	77,5
     41,5293	  0,00666642	77,3	  0,00643887	76,3
     41,5313	  0,00652956	76,1	  0,00650384	78,5
     41,5332	  0,00663272	73,8	  0,00649209	77,8
     41,5352	  0,00637538	76,6	  0,00648812	79,3
     41,5371	  0,00637123	84,4	    0,006587	76,9
     41,5391	  0,00657107	79,9	  0,00658711	81,1
     41,5411	  0,00661814	77,6	  0,00652488	80,8
      41,543	   0,0066144	79,1	   0,0066332	76,0
      41,545	  0,00668635	75,2	  0,00650256	83,0
     41,5469	  0,00668138	81,8	  0,00649769	75,8
     41,5489	  0,00666524	80,0	  0,00649852	81,4
     41,5508	   0,0066349	76,6	  0,00661862	77,9
     41,5528	  0,00676854	82,1	  0,00668979	78,3
     41,5547	  0,00667829	73,7	  0,00659917	79,9
     41,5567	  0,00669843	72,9	  0,00662066	78,7
     41,5587	  0,00666138	76,8	   0,0066693	80,8
     41,5606	  0,00676226	73,0	  0,00672752	76,0
     41,5626	  0,00656693	78,5	  0,00672908	80,4
     41,5645	  0,00666363	75,2	  0,00670809	81,4
     41,5665	  0,00665204	78,9	  0,00667186	79,5
     41,5684	  0,00663901	74,9	  0,00670548	80,5
     41,5704	  0,00670103	76,2	  0,00669062	76,2
     41,5723	  0,00661387	76,5	  0,00671466	77,8
     41,5743	  0,00652865	79,6	  0,00671018	81,9
     41,5762	  0,00653581	81,2	  0,00676035	79,0
     41,5782	  0,00670698	79,9	  0,00672165	80,7
     41,5802	  0,00692916	81,9	  0,00667578	74,1
     41,5821	   0,0068108	74,9	  0,00667853	78,4
     41,5841	  0,00675539	78,2	  0,00680941	79,3
      41,586	   0,0068298	76,5	  0,00684409	79,8
      41,588	   0,0067837	78,8	  0,00682831	78,4
     41,5899	  0,00690971	78,6	  0,00679712	77,3
     41,5919	  0,00675608	77,5	  0,00685094	80,3
     41,5938	  0,00682601	81,1	   0,0068139	78,2
     41,5958	  0,00705421	79,4	  0,00674731	79,5
     41,5978	  0,00702393	75,0	  0,00686604	80,5
     41,5997	  0,00691292	77,7	   0,0068876	79,2
     41,6017	   0,0068025	70,9	  0,00686475	80,0
     41,6036	  0,00681825	80,5	   0,0067976	77,6
     41,6056	  0,00663655	83,4	  0,00682735	77,8
     41,6075	  0,00663159	84,4	  0,00697647	78,3
     41,6095	  0,00675081	78,0	  0,00696418	80,1
     41,6114	  0,00675872	74,3	   0,0068476	78,9
     41,6134	  0,00687831	83,6	   0,0068365	76,4
     41,6153	  0,00678342	82,7	  0,00697438	81,1
     41,6173	  0,00671882	83,4	  0,00697648	79,5
     41,6193	   0,0069899	83,0	  0,00699351	81,5
     41,6212	  0,00706431	75,3	  0,00708442	81,3
     41,6232	  0,00700229	77,1	  0,00708814	80,3
     41,6251	  0,00710771	75,3	  0,00700201	81,6
     41,6271	  0,00707272	81,7	  0,00700438	77,5
      41,629	  0,00719703	78,0	  0,00700993	78,9
      41,631	  0,00717726	77,0	  0,00714012	82,2
     41,6329	   0,0071989	75,2	  0,00717723	75,7
     41,6349	  0,00716101	78,7	  0,00708674	80,0
     41,6369	  0,00721397	85,7	  0,00700446	78,4
     41,6388	  0,00720889	77,1	  0,00701623	81,2
     41,6408	  0,00724058	78,8	  0,00708529	81,6
     41,6427	  0,00715459	82,2	   0,0072102	78,1
     41,6447	  0,00708926	80,2	  0,00728753	79,9
     41,6466	  0,00734233	77,9	  0,00708196	79,0
     41,6486	  0,00736993	78,7	  0,00712354	75,8
     41,6505	  0,00740034	75,9	  0,00705469	79,6
     41,6525	  0,00730496	82,1	  0,00715193	77,6
     41,6544	  0,00711942	79,7	  0,00716798	79,3
     41,6564	  0,00710393	80,8	  0,00716677	79,4
     41,6584	  0,00704829	80,2	  0,00712357	78,8
     41,6603	   0,0071266	76,6	  0,00722643	80,0
     41,6623	  0,00712456	80,2	  0,00735238	77,0
     41,6642	  0,00705636	81,7	  0,00733599	84,1
     41,6662	  0,00707006	88,3	  0,00726713	80,2
     41,6681	  0,00715683	78,4	  0,00732811	79,6
     41,6701	  0,00718603	80,8	  0,00736626	82,5
      41,672	  0,00727211	87,8	  0,00729312	77,4
      41,674	  0,00740369	73,8	  0,00724364	80,5
      41,676	  0,00749805	80,4	   0,0072795	77,5
     41,6779	  0,00763283	72,8	  0,00734481	77,6
     41,6799	  0,00754124	72,7	  0,00738966	79,7
     41,6818	  0,00750225	73,6	  0,00736487	78,8
     41,6838	  0,00745234	77,6	  0,00740102	81,3
     41,6857	  0,00741189	81,8	  0,00744374	80,2
     41,6877	  0,00738911	77,6	  0,00747267	81,3
     41,6896	  0,00745668	71,4	  0,00741562	83,0
     41,6916	  0,00741383	78,5	  0,00741266	82,5
     41,6936	  0,00750962	77,7	  0,00747071	81,2
     41,6955	  0,00739013	86,3	   0,0074097	82,2
     41,6975	  0,00728992	78,4	  0,00745164	76,6
     41,6994	  0,00723885	82,1	  0,00759682	80,1
     41,7014	  0,00733734	80,6	  0,00762045	79,5
     41,7033	  0,00755277	77,6	  0,00756238	84,6
     41,7053	  0,00753438	84,1	  0,00746698	83,7
     41,7072	  0,00758073	84,8	  0,00746934	79,3
     41,7092	  0,00755871	79,9	  0,00759865	80,1
     41,7111	  0,00741382	83,4	  0,00761108	80,6
     41,7131	  0,00750452	78,3	  0,00759525	82,7
     41,7151	  0,00765572	76,6	  0,00770565	80,4
      41,717	  0,00766329	81,3	  0,00770187	80,1
      41,719	  0,00756874	79,5	   0,0075181	84,5
     41,7209	  0,00763769	78,9	   0,0074923	77,5
     41,7229	  0,00766505	74,4	  0,00754228	78,3
     41,7248	  0,00766589	82,0	  0,00769622	79,5
     41,7268	  0,00753944	76,0	  0,00785913	78,1
     41,7287	  0,00760688	77,6	  0,00773751	83,8
     41,7307	  0,00756259	86,0	  0,00771554	80,2
     41,7327	  0,00766161	76,3	  0,00773672	78,7
     41,7346	   0,0076577	82,2	  0,00774835	81,7
     41,7366	  0,00762281	82,9	  0,00777443	81,0
     41,7385	   0,0076316	80,1	  0,00771958	82,5
     41,7405	  0,00760502	78,0	  0,00777617	79,3
     41,7424	  0,00767545	76,0	  0,00781476	79,1
     41,7444	  0,00773784	81,7	  0,00781538	81,4
     41,7463	  0,00791508	85,5	  0,00787359	81,3
     41,7483	  0,00777774	81,2	  0,00796175	77,8
     41,7502	  0,00780588	79,0	  0,00781538	81,7
     41,7522	  0,00777698	78,4	  0,00777389	79,7
     41,7542	    0,007576	81,7	  0,00784677	84,5
     41,7561	  0,00778372	84,4	   0,0079334	83,6
     41,7581	  0,00787399	80,6	  0,00797178	80,5
       41,76	  0,00792541	80,6	  0,00792081	81,3
      41,762	   0,0079567	86,7	  0,00788044	78,2
     41,7639	  0,00782462	81,4	  0,00793407	81,0
     41,7659	  0,00785855	81,3	  0,00796794	82,4
     41,7678	  0,00797695	77,5	  0,00809563	78,5
     41,7698	  0,00805614	78,5	  0,00811641	82,7
     41,7718	  0,00795824	87,6	  0,00809559	81,1
     41,7737	  0,00793733	80,1	  0,00804212	84,1
     41,7757	  0,00804498	84,5	  0,00808871	82,1
     41,7776	  0,00822615	78,3	  0,00805501	80,1
     41,7796	  0,00823042	82,6	  0,00801061	85,0
     41,7815	  0,00822749	85,6	  0,00813433	84,6
     41,7835	  0,00828214	80,0	  0,00814501	82,6
     41,7854	  0,00835098	79,9	  0,00812469	83,8
     41,7874	  0,00821088	88,1	  0,00810273	80,5
     41,7893	   0,0082321	82,3	  0,00816195	81,3
     41,7913	  0,00819354	84,0	  0,00814219	82,9
     41,7933	   0,0081857	80,0	  0,00813767	78,4
     41,7952	   0,0082076	76,0	  0,00816072	84,9
     41,7972	  0,00830179	78,5	  0,00819871	86,1
     41,7991	  0,00822678	84,9	  0,00828655	82,3
     41,8011	  0,00812395	85,2	  0,00829182	84,3
      41,803	  0,00823801	83,3	  0,00822268	78,7
      41,805	  0,00837922	82,1	   0,0081448	81,9
     41,8069	  0,00851677	84,2	  0,00812031	82,7
     41,8089	  0,00842933	81,1	  0,00826287	78,7
     41,8109	  0,00826222	77,9	  0,00829317	81,6
     41,8128	   0,0083597	84,1	  0,00841249	79,8
     41,8148	  0,00824076	77,5	  0,00838352	82,9
     41,8167	   0,0083309	82,8	  0,00840753	84,1
     41,8187	  0,00842349	79,7	  0,00837532	81,3
     41,8206	  0,00857163	76,8	   0,0083797	83,3
     41,8226	  0,00853064	82,3	  0,00837741	81,1
     41,8245	  0,00847357	80,8	  0,00850999	79,3
     41,8265	  0,00829695	83,7	  0,00851077	84,2
     41,8284	  0,00849672	83,5	  0,00858111	82,0
     41,8304	  0,00856078	80,1	  0,00856737	78,6
     41,8324	  0,00854984	81,2	  0,00849102	82,3
     41,8343	  0,00851221	80,8	  0,00848754	82,0
     41,8363	  0,00840252	79,4	  0,00855347	88,5
     41,8382	  0,00849668	80,3	  0,00856261	83,5
     41,8402	  0,00848703	79,4	  0,00866867	78,1
     41,8421	  0,00844209	81,6	  0,00860289	86,5
     41,8441	  0,00848106	86,4	  0,00861072	82,0
      41,846	  0,00851788	85,0	  0,00866351	79,9
      41,848	  0,00861781	78,9	  0,00873737	85,9
       41,85	  0,00863688	85,7	  0,00863315	80,5
     41,8519	  0,00877819	80,2	  0,00877674	86,3
     41,8539	   0,0086142	81,5	   0,0088321	86,1
     41,8558	  0,00854356	83,0	  0,00885535	82,6
     41,8578	  0,00865809	78,9	  0,00880378	82,1
     41,8597	  0,00871363	84,9	  0,00875446	84,9
     41,8617	  0,00862871	86,1	  0,00870836	81,3
     41,8636	   0,0085662	83,2	  0,00871166	87,6
     41,8656	  0,00862097	84,3	  0,00882996	84,8
     41,8675	  0,00872415	79,4	  0,00900395	83,7
     41,8695	  0,00865924	84,3	  0,00902304	85,0
     41,8715	  0,00880014	85,1	  0,00890375	81,4
     41,8734	  0,00881658	82,2	  0,00879998	84,3
     41,8754	  0,00877726	85,7	  0,00884609	84,3
     41,8773	  0,00889944	83,5	  0,00901357	79,2
     41,8793	  0,00896466	82,1	  0,00907312	83,6
     41,8812	  0,00892146	86,2	  0,00901679	83,7
     41,8832	   0,0089663	83,9	    0,009033	83,3
     41,8851	  0,00903178	79,6	  0,00902634	88,4
     41,8871	  0,00905381	85,7	  0,00907884	84,8
     41,8891	  0,00897814	83,5	  0,00898175	83,1
      41,891	  0,00900874	86,2	  0,00898314	86,7
      41,893	  0,00915538	83,4	    0,009116	79,6
     41,8949	  0,00910023	77,1	  0,00919008	82,6
     41,8969	  0,00918263	81,0	  0,00922499	83,6
     41,8988	  0,00918383	84,1	  0,00923166	83,6
     41,9008	  0,00912532	81,3	  0,00927934	86,6
     41,9027	   0,0091583	85,1	  0,00936391	83,8
     41,9047	  0,00930608	83,8	  0,00931612	81,2
     41,9066	  0,00920568	81,4	  0,00917917	85,2
     41,9086	  0,00913825	85,7	  0,00914965	85,1
     41,9106	  0,00895697	88,6	  0,00916637	84,0
     41,9125	  0,00897181	81,6	  0,00908623	85,6
     41,9145	  0,00895396	91,5	  0,00930741	83,3
     41,9164	  0,00897466	86,4	  0,00948811	82,5
     41,9184	  0,00904368	89,1	  0,00951342	85,9
     41,9203	  0,00912803	89,7	  0,00941409	83,7
     41,9223	  0,00916409	79,2	  0,00937486	82,9
     41,9242	   0,0090511	87,5	  0,00943177	86,2
     41,9262	   0,0091041	90,4	  0,00943105	82,7
     41,9282	  0,00923858	82,7	  0,00944872	83,1
     41,9301	  0,00922667	86,6	  0,00960113	84,7
     41,9321	  0,00919414	90,6	  0,00961893	83,5
      41,934	  0,00924357	86,7	  0,00965598	85,3
      41,936	  0,00933494	86,5	  0,00958721	84,6
     41,9379	  0,00931992	87,1	  0,00959469	84,2
     41,9399	  0,00941656	89,0	  0,00965599	86,4
     41,9418	  0,00948489	89,0	  0,00973793	86,3
     41,9438	  0,00953069	81,8	  0,00973676	83,9
     41,9457	  0,00960816	81,7	  0,00977533	86,8
     41,9477	  0,00963844	86,7	   0,0098332	84,9
     41,9497	  0,00951072	85,6	  0,00979863	82,5
     41,9516	  0,00950163	86,9	   0,0097993	88,5
     41,9536	  0,00960723	87,8	  0,00986531	88,1
     41,9555	  0,00967696	82,8	  0,00994473	85,3
     41,9575	  0,00960929	83,6	  0,00978554	86,9
     41,9594	  0,00963349	83,8	  0,00979101	85,6
     41,9614	  0,00973253	80,0	  0,00980814	83,6
     41,9633	  0,00976857	91,5	  0,00986447	86,3
     41,9653	  0,00983585	87,9	   0,0099524	86,1
     41,9673	  0,00998016	85,9	   0,0100824	86,3
     41,9692	   0,0100137	88,7	   0,0101579	89,9
     41,9712	   0,0099339	80,5	   0,0102065	83,3
     41,9731	  0,00984465	83,5	   0,0102566	83,5
     41,9751	  0,00983288	85,1	    0,010245	83,3
      41,977	  0,00994056	85,7	   0,0100896	86,1
      41,979	  0,00989715	85,2	   0,0102026	91,0
     41,9809	  0,00992756	89,5	   0,0101463	87,2
     41,9829	   0,0100384	85,6	   0,0102047	85,5
     41,9848	   0,0100488	88,6	   0,0102002	88,6
     41,9868	   0,0101787	83,2	   0,0102115	85,7
     41,9888	   0,0101913	88,5	   0,0102405	81,6
     41,9907	   0,0103299	84,6	    0,010348	89,7
     41,9927	   0,0102334	87,8	   0,0103257	84,0
     41,9946	   0,0103431	82,7	   0,0103608	84,8
     41,9966	   0,0102356	88,9	   0,0104352	89,2
     41,9985	     0,01017	86,5	   0,0105303	85,0
     42,0005	   0,0101731	83,3	   0,0105026	86,5
     42,0024	     0,01013	83,8	    0,010366	85,2
     42,0044	   0,0101461	88,9	   0,0105565	87,2
     42,0064	   0,0102708	87,3	   0,0106227	86,6
     42,0083	   0,0104252	88,7	   0,0105502	87,6
     42,0103	   0,0104329	90,7	   0,0106294	86,6
     42,0122	   0,0103998	85,3	   0,0106006	87,3
     42,0142	   0,0104474	85,6	   0,0105968	89,3
     42,0161	   0,0104514	86,5	   0,0106439	85,0
     42,0181	   0,0104292	87,2	   0,0106311	89,9
       42,02	   0,0104074	89,5	   0,0106344	91,1
      42,022	   0,0104498	90,0	   0,0106974	86,4
     42,0239	    0,010427	85,6	   0,0106796	86,9
     42,0259	   0,0104492	89,2	   0,0107254	89,2
     42,0279	   0,0105093	85,3	   0,0108281	85,0
     42,0298	   0,0107121	85,0	   0,0109522	87,1
     42,0318	   0,0107803	89,4	   0,0110031	87,1
     42,0337	   0,0106664	87,9	   0,0110434	85,3
     42,0357	   0,0107309	85,7	   0,0109649	90,2
     42,0376	   0,0109108	88,8	   0,0110502	89,3
     42,0396	   0,0109354	87,8	   0,0110856	85,7
     42,0415	    0,010818	88,8	   0,0111853	87,4
     42,0435	   0,0108706	89,3	   0,0111924	88,6
     42,0455	    0,011047	85,9	   0,0110959	88,6
     42,0474	   0,0109071	88,6	   0,0110953	90,4
     42,0494	   0,0109398	90,7	   0,0112286	88,4
     42,0513	   0,0109349	88,5	   0,0112254	88,0
     42,0533	   0,0110495	85,6	   0,0112572	87,8
     42,0552	   0,0111173	89,7	   0,0113145	90,3
     42,0572	   0,0110868	89,6	   0,0113646	88,2
     42,0591	   0,0111663	85,4	   0,0114832	90,4
     42,0611	    0,011127	89,4	   0,0114406	94,8
      42,063	   0,0110743	87,2	   0,0115598	87,5
      42,065	   0,0111238	88,5	   0,0116115	87,6
      42,067	   0,0112938	90,3	   0,0115686	88,5
     42,0689	   0,0113669	87,2	   0,0115757	89,7
     42,0709	    0,011336	87,8	   0,0116163	87,0
     42,0728	   0,0113995	91,9	    0,011602	92,1
     42,0748	   0,0114825	87,4	   0,0117297	89,6
     42,0767	   0,0114824	84,7	   0,0117521	90,3
     42,0787	   0,0115292	95,1	   0,0117815	88,5
     42,0806	    0,011525	92,2	   0,0117805	90,4
     42,0826	   0,0115319	85,1	   0,0119258	91,6
     42,0846	   0,0115272	92,3	   0,0119407	93,6
     42,0865	   0,0116129	86,6	   0,0119141	86,6
     42,0885	   0,0116132	89,0	    0,011891	87,2
     42,0904	   0,0117257	92,4	   0,0119137	90,5
     42,0924	   0,0118044	91,9	   0,0119618	88,8
     42,0943	   0,0118672	87,3	   0,0120366	92,6
     42,0963	    0,011919	88,3	   0,0120648	94,5
     42,0982	   0,0118963	92,2	    0,012235	90,3
     42,1002	   0,0118413	87,8	   0,0122546	93,0
     42,1021	   0,0119155	91,3	   0,0122671	92,7
     42,1041	   0,0118792	96,3	   0,0122775	91,5
     42,1061	   0,0119197	89,6	   0,0121931	91,4
      42,108	   0,0120633	94,2	   0,0122863	92,5
       42,11	   0,0121323	87,5	   0,0123278	87,2
     42,1119	   0,0121324	88,3	   0,0123371	88,3
     42,1139	   0,0121985	92,0	   0,0124683	89,7
     42,1158	   0,0122744	91,4	   0,0125093	91,6
     42,1178	   0,0122732	89,0	   0,0125362	88,8
     42,1197	   0,0123401	94,4	   0,0126381	94,8
     42,1217	   0,0123667	94,6	   0,0125744	94,5
     42,1237	   0,0123962	92,0	   0,0125491	91,6
     42,1256	   0,0123311	92,7	   0,0125513	93,0
     42,1276	   0,0124525	93,3	   0,0126708	92,6
     42,1295	   0,0124925	95,1	    0,012755	90,3
     42,1315	    0,012505	95,4	   0,0127634	93,1
     42,1334	   0,0125687	91,9	   0,0127725	90,7
     42,1354	   0,0125615	95,3	    0,012902	89,6
     42,1373	   0,0125587	90,5	   0,0129725	94,6
     42,1393	   0,0126587	92,2	   0,0129339	95,4
     42,1413	   0,0127179	90,8	   0,0130557	91,9
     42,1432	   0,0125995	91,3	   0,0131476	93,9
     42,1452	   0,0127926	96,9	   0,0131016	97,8
     42,1471	   0,0128266	95,4	   0,0132571	90,5
     42,1491	   0,0130108	93,4	   0,0133426	93,2
      42,151	   0,0131311	94,3	   0,0132958	95,7
      42,153	   0,0129982	98,0	   0,0132681	93,3
     42,1549	   0,0129622	93,6	   0,0134176	93,0
     42,1569	   0,0130148	89,3	   0,0134301	95,1
     42,1588	   0,0129813	95,2	   0,0134261	92,9
     42,1608	   0,0130798	90,2	   0,0134513	95,2
     42,1628	   0,0131749	92,3	   0,0135545	96,5
     42,1647	   0,0131617	96,5	   0,0136828	92,7
     42,1667	   0,0132398	94,3	   0,0136102	95,1
     42,1686	   0,0133296	98,0	   0,0136583	96,5
     42,1706	   0,0134118	97,7	   0,0137075	95,2
     42,1725	   0,0134799	94,2	   0,0136784	92,9
     42,1745	    0,013467	95,2	   0,0137822	96,2
     42,1764	   0,0135665	92,1	   0,0138387	95,9
     42,1784	   0,0136178	98,3	   0,0138188	89,9
     42,1804	   0,0136159	95,4	   0,0137811	94,1
     42,1823	   0,0135484	99,7	    0,013928	94,5
     42,1843	   0,0136868	95,4	   0,0139623	92,7
     42,1862	   0,0137512	93,6	   0,0140248	98,0
     42,1882	    0,013847	100,3	   0,0140639	98,0
     42,1901	   0,0137979	96,9	   0,0141529	96,8
     42,1921	   0,0137926	89,1	   0,0141936	98,1
      42,194	   0,0137364	97,0	   0,0142122	98,2
      42,196	   0,0137804	99,2	   0,0143253	95,0
     42,1979	   0,0137254	96,5	   0,0143865	95,8
     42,1999	   0,0138269	98,2	   0,0144994	100,3
     42,2019	   0,0140249	94,9	    0,014488	96,6
     42,2038	   0,0142233	96,1	   0,0145281	96,3
     42,2058	   0,0141648	97,4	   0,0146751	95,4
     42,2077	   0,0142045	96,2	   0,0146735	95,8
     42,2097	   0,0142857	102,8	   0,0147371	94,1
     42,2116	   0,0141902	96,8	   0,0147777	99,3
     42,2136	   0,0144439	97,9	   0,0148503	98,5
     42,2155	   0,0143907	97,5	   0,0148867	96,7
     42,2175	    0,014464	96,6	   0,0149384	98,8
     42,2195	   0,0146064	103,7	    0,015024	100,9
     42,2214	   0,0147585	97,0	    0,015079	97,4
     42,2234	   0,0147485	92,8	   0,0150823	97,5
     42,2253	   0,0146468	99,8	   0,0151637	102,4
     42,2273	   0,0146563	100,4	   0,0152771	102,6
     42,2292	   0,0147685	98,8	   0,0153703	96,8
     42,2312	   0,0148651	100,6	   0,0153887	98,8
     42,2331	   0,0148813	103,5	   0,0155051	99,6
     42,2351	   0,0149457	91,5	   0,0154586	97,1
      42,237	   0,0150578	97,4	   0,0155143	101,4
      42,239	   0,0151129	103,7	   0,0155113	100,7
      42,241	   0,0151544	98,9	   0,0155649	99,7
     42,2429	   0,0152104	97,4	   0,0156634	97,4
     42,2449	   0,0152328	97,1	   0,0158254	103,7
     42,2468	   0,0153273	102,1	   0,0158584	100,2
     42,2488	   0,0152874	104,4	   0,0159609	101,1
     42,2507	   0,0154298	102,6	   0,0159761	102,5
     42,2527	   0,0156169	103,0	   0,0161167	98,8
     42,2546	   0,0155265	100,7	   0,0161136	99,2
     42,2566	   0,0154893	98,5	   0,0161733	103,4
     42,2586	   0,0155608	103,5	   0,0162465	103,6
     42,2605	   0,0156042	103,6	   0,0163043	99,1
     42,2625	   0,0156541	100,4	   0,0163685	100,0
     42,2644	   0,0157904	100,4	    0,016393	104,2
     42,2664	   0,0158323	102,4	   0,0164773	102,2
     42,2683	   0,0158871	102,2	    0,016529	99,2
     42,2703	   0,0157641	104,0	   0,0166174	105,7
     42,2722	   0,0160927	98,3	   0,0167595	104,9
     42,2742	   0,0161222	98,9	   0,0168332	101,8
     42,2761	   0,0160808	100,3	   0,0168457	104,1
     42,2781	   0,0161238	102,5	    0,016955	105,4
     42,2801	   0,0162683	106,8	   0,0170617	105,1
      42,282	   0,0162323	104,8	    0,017175	104,5
      42,284	   0,0163709	104,1	   0,0172337	106,6
     42,2859	   0,0165961	108,2	    0,017321	101,8
     42,2879	   0,0166166	108,4	   0,0173866	102,2
     42,2898	   0,0166506	100,9	   0,0174499	105,9
     42,2918	   0,0166957	104,2	   0,0175168	106,3
     42,2937	   0,0168621	111,4	   0,0175837	102,4
     42,2957	   0,0167739	104,4	   0,0176953	104,1
     42,2977	   0,0168993	105,4	   0,0176721	107,3
     42,2996	   0,0170852	106,1	   0,0176684	104,2
     42,3016	   0,0171287	105,5	   0,0177635	106,2
     42,3035	   0,0171582	106,4	   0,0178196	107,9
     42,3055	   0,0171625	104,4	   0,0179501	106,2
     42,3074	   0,0172613	109,1	    0,017992	105,5
     42,3094	   0,0171957	102,0	   0,0180722	108,5
     42,3113	   0,0174107	110,3	   0,0181752	111,9
     42,3133	   0,0175001	110,6	   0,0181469	108,7
     42,3153	   0,0176039	104,8	   0,0182592	108,3
     42,3172	   0,0176187	109,9	   0,0184091	111,9
     42,3192	   0,0176415	110,6	   0,0185535	109,7
     42,3211	   0,0176506	107,2	   0,0186339	107,7
     42,3231	   0,0177306	106,7	   0,0187261	109,4
      42,325	   0,0178232	113,5	   0,0188547	109,2
      42,327	   0,0177996	114,7	   0,0188749	107,0
     42,3289	   0,0178549	106,3	   0,0189369	107,8
     42,3309	   0,0180123	107,1	   0,0190599	111,4
     42,3328	   0,0181752	113,4	   0,0191181	110,6
     42,3348	   0,0182919	110,4	    0,019192	109,1
     42,3368	   0,0183296	104,1	   0,0193277	108,7
     42,3387	   0,0184423	113,9	   0,0193648	111,9
     42,3407	   0,0184656	107,5	   0,0194205	110,7
     42,3426	   0,0185652	109,5	   0,0194501	111,1
     42,3446	   0,0186412	112,5	   0,0196002	112,9
     42,3465	   0,0187355	110,9	   0,0196459	114,2
     42,3485	   0,0188045	110,9	   0,0198213	111,2
     42,3504	    0,018846	111,0	    0,019941	115,4
     42,3524	    0,018987	112,4	   0,0199781	117,9
     42,3544	   0,0190448	115,9	   0,0200421	111,5
     42,3563	   0,0191838	110,8	   0,0201747	112,7
     42,3583	   0,0192128	113,6	   0,0202529	118,1
     42,3602	   0,0193029	114,4	   0,0203843	116,0
     42,3622	    0,019416	116,8	   0,0204337	112,9
     42,3641	    0,019516	117,2	   0,0204884	114,5
     42,3661	    0,019466	114,7	   0,0205535	116,1
      42,368	   0,0196416	115,3	   0,0206297	113,1
       42,37	   0,0197962	115,3	    0,020713	114,1
     42,3719	   0,0197426	116,2	   0,0208566	117,6
     42,3739	   0,0199057	115,0	   0,0208275	116,8
     42,3759	   0,0199454	114,2	    0,020945	115,8
     42,3778	   0,0200097	116,5	   0,0209507	117,1
     42,3798	   0,0200484	120,2	   0,0210349	118,9
     42,3817	   0,0201975	115,5	   0,0211513	117,8
     42,3837	   0,0202275	117,2	   0,0212116	117,4
     42,3856	   0,0203058	113,5	   0,0213033	122,6
     42,3876	   0,0204416	118,7	   0,0214381	120,2
     42,3895	   0,0205846	121,5	   0,0215603	117,2
     42,3915	   0,0204029	116,5	   0,0215885	119,1
     42,3935	   0,0206062	119,9	   0,0215911	121,7
     42,3954	    0,020693	122,2	   0,0216548	123,8
     42,3974	    0,020682	118,8	   0,0218052	120,2
     42,3993	   0,0208535	122,1	   0,0219043	122,6
     42,4013	   0,0209739	123,7	   0,0219756	122,4
     42,4032	    0,021071	126,8	   0,0220393	123,6
     42,4052	   0,0210856	121,3	   0,0221012	123,6
     42,4071	   0,0212303	121,9	   0,0221407	123,4
     42,4091	   0,0211993	124,5	   0,0222496	121,2
      42,411	   0,0212308	122,5	   0,0223965	120,0
      42,413	   0,0213151	118,9	    0,022462	124,0
      42,415	    0,021376	122,8	   0,0226059	124,9
     42,4169	   0,0215581	121,2	   0,0226649	124,1
     42,4189	   0,0216389	124,3	   0,0226787	123,6
     42,4208	   0,0216553	121,4	    0,022691	128,8
     42,4228	     0,02157	125,0	   0,0226389	125,7
     42,4247	   0,0217008	129,1	   0,0226506	125,5
     42,4267	   0,0217774	123,6	   0,0228104	127,7
     42,4286	    0,021954	119,4	   0,0229474	127,8
     42,4306	   0,0220213	129,2	    0,023018	128,7
     42,4326	   0,0220646	129,6	   0,0231294	126,1
     42,4345	   0,0220005	119,7	   0,0231018	127,1
     42,4365	    0,022196	124,3	   0,0231652	131,4
     42,4384	   0,0223831	128,4	   0,0231782	130,8
     42,4404	   0,0224553	127,6	    0,023265	129,2
     42,4423	   0,0225978	126,5	   0,0232317	131,1
     42,4443	   0,0225893	129,6	   0,0233411	133,1
     42,4462	   0,0226773	130,2	   0,0233841	131,0
     42,4482	   0,0227704	128,0	   0,0234523	131,4
     42,4501	   0,0228468	131,0	   0,0234925	134,1
     42,4521	    0,022799	132,9	   0,0236588	132,7
     42,4541	   0,0228671	127,3	   0,0235873	130,8
      42,456	   0,0229344	129,7	   0,0236738	136,7
      42,458	   0,0230217	133,0	   0,0238093	136,4
     42,4599	   0,0231234	133,4	   0,0238028	132,3
     42,4619	   0,0232122	133,5	   0,0238986	131,9
     42,4638	    0,023211	132,4	   0,0239567	138,0
     42,4658	   0,0233463	132,7	    0,023953	136,0
     42,4677	   0,0234377	138,4	   0,0239831	129,6
     42,4697	     0,02342	134,6	    0,024011	133,7
     42,4717	    0,023688	130,9	   0,0240268	137,2
     42,4736	   0,0236295	136,6	   0,0241198	137,2
     42,4756	   0,0235886	132,8	   0,0241239	137,2
     42,4775	    0,023672	136,7	   0,0242135	136,5
     42,4795	   0,0237691	136,4	   0,0242104	138,8
     42,4814	   0,0239865	136,2	   0,0242391	136,2
     42,4834	   0,0237747	139,5	   0,0241817	136,4
     42,4853	   0,0237472	134,8	   0,0242703	139,5
     42,4873	   0,0240345	134,1	   0,0243133	139,8
     42,4892	   0,0239909	140,4	   0,0243248	138,5
     42,4912	   0,0240079	136,9	   0,0244109	139,2
     42,4932	   0,0240935	134,0	   0,0244393	140,4
     42,4951	   0,0241845	139,9	   0,0244967	142,1
     42,4971	   0,0241611	141,0	    0,024546	143,4
      42,499	   0,0241823	140,3	   0,0246097	139,5
      42,501	   0,0242206	137,7	   0,0245508	145,3
     42,5029	   0,0242478	141,2	   0,0246054	145,0
     42,5049	   0,0242936	142,3	    0,024626	141,2
     42,5068	   0,0243738	140,5	   0,0246592	140,4
     42,5088	   0,0243457	138,4	    0,024715	148,6
     42,5108	   0,0244713	141,6	    0,024719	145,1
     42,5127	   0,0244488	145,9	   0,0247614	147,0
     42,5147	   0,0243954	140,6	   0,0247543	142,8
     42,5166	   0,0244689	140,9	     0,02474	148,0
     42,5186	   0,0245674	144,0	   0,0248419	149,0
     42,5205	   0,0246513	145,9	   0,0247372	145,2
     42,5225	   0,0248044	147,8	   0,0247598	147,4
     42,5244	   0,0246645	149,1	   0,0247785	150,8
     42,5264	   0,0246677	144,7	   0,0247282	148,8
     42,5283	   0,0247756	148,5	   0,0247759	144,6
     42,5303	   0,0246862	147,5	   0,0247344	149,7
     42,5323	   0,0246895	145,5	   0,0247723	150,3
     42,5342	   0,0247436	152,6	   0,0246717	150,8
     42,5362	   0,0247281	150,1	   0,0247297	149,6
     42,5381	   0,0248897	145,1	    0,024721	149,3
     42,5401	   0,0248418	153,6	   0,0247621	150,9
      42,542	   0,0246756	151,7	   0,0247812	152,4
      42,544	   0,0247712	152,0	   0,0246619	151,0
     42,5459	   0,0246976	148,8	   0,0246161	150,7
     42,5479	    0,024724	148,8	   0,0246231	153,9
     42,5499	   0,0248267	156,5	   0,0246695	152,1
     42,5518	   0,0246892	156,9	   0,0246299	153,6
     42,5538	   0,0246851	151,4	   0,0247091	154,4
     42,5557	   0,0248727	152,6	   0,0246352	154,6
     42,5577	   0,0248636	156,9	   0,0246447	153,2
     42,5596	    0,024763	156,3	   0,0246118	155,4
     42,5616	     0,02476	154,6	   0,0245763	156,7
     42,5635	   0,0247267	152,8	    0,024525	157,1
     42,5655	   0,0248776	159,4	   0,0245004	154,9
     42,5674	   0,0248279	159,5	   0,0245895	154,7
     42,5694	   0,0246842	155,0	   0,0245347	157,3
     42,5714	    0,024737	156,9	   0,0245224	158,9
     42,5733	   0,0247886	158,1	   0,0244582	157,7
     42,5753	   0,0247877	160,6	   0,0244849	157,0
     42,5772	   0,0247997	155,6	   0,0244533	154,6
     42,5792	   0,0247551	160,1	   0,0244588	159,7
     42,5811	   0,0247888	159,4	   0,0244766	160,0
     42,5831	   0,0247718	156,6	   0,0243564	155,2
      42,585	   0,0247229	159,7	   0,0243651	159,3
      42,587	   0,0247442	159,0	   0,0243565	162,1
      42,589	   0,0247161	161,5	   0,0242784	162,0
     42,5909	   0,0245864	159,4	   0,0242746	159,6
     42,5929	   0,0246286	162,9	   0,0242382	158,4
     42,5948	   0,0244992	159,0	   0,0242094	164,0
     42,5968	   0,0245268	161,4	   0,0242369	164,8
     42,5987	   0,0244438	162,9	     0,02415	160,4
     42,6007	     0,02437	162,3	   0,0241018	160,2
     42,6026	   0,0243941	162,1	   0,0239774	165,7
     42,6046	   0,0242734	163,2	   0,0239853	164,5
     42,6065	   0,0242165	163,7	   0,0239199	161,7
     42,6085	   0,0243104	163,3	   0,0239173	161,5
     42,6105	   0,0242916	163,4	   0,0238969	166,7
     42,6124	   0,0242765	162,4	   0,0238207	164,9
     42,6144	   0,0242999	166,3	   0,0237281	163,7
     42,6163	   0,0242256	163,8	   0,0237152	163,4
     42,6183	   0,0241406	163,9	   0,0237152	166,3
     42,6202	   0,0241035	165,2	   0,0237007	166,6
     42,6222	   0,0239923	166,4	   0,0236552	166,2
     42,6241	   0,0239971	164,3	   0,0235468	164,5
     42,6261	   0,0239856	165,4	   0,0235043	169,4
     42,6281	   0,0239487	168,3	   0,0234737	168,9
       42,63	   0,0238874	168,5	   0,0233713	169,0
      42,632	   0,0238348	168,9	   0,0233641	166,7
     42,6339	   0,0237945	168,0	    0,023291	169,8
     42,6359	    0,023742	167,5	   0,0233579	171,1
     42,6378	   0,0238626	168,2	   0,0232703	171,2
     42,6398	   0,0237678	172,6	   0,0232316	168,7
     42,6417	   0,0237176	168,5	   0,0231931	168,0
     42,6437	   0,0236875	165,4	   0,0230522	167,6
     42,6456	   0,0236167	168,4	   0,0229956	169,8
     42,6476	   0,0234977	171,1	   0,0230044	171,1
     42,6496	   0,0234314	174,9	   0,0229016	169,4
     42,6515	   0,0234426	172,1	   0,0228822	172,7
     42,6535	   0,0233532	171,1	    0,022757	172,5
     42,6554	   0,0233214	175,4	   0,0227175	173,6
     42,6574	   0,0232785	174,9	   0,0226826	171,5
     42,6593	   0,0231669	171,0	   0,0226429	173,3
     42,6613	   0,0231948	171,7	   0,0225296	176,0
     42,6632	   0,0230989	175,2	    0,022551	176,0
     42,6652	   0,0229227	176,1	   0,0224774	172,3
     42,6672	   0,0229502	170,8	   0,0224382	170,1
     42,6691	   0,0227612	171,4	   0,0223821	177,4
     42,6711	   0,0228011	177,5	   0,0223319	176,6
      42,673	   0,0227318	178,7	   0,0223142	173,6
      42,675	   0,0225997	178,7	   0,0222127	171,6
     42,6769	   0,0225352	173,6	   0,0221398	178,0
     42,6789	   0,0225755	179,7	   0,0221068	176,8
     42,6808	   0,0224976	176,7	   0,0219376	173,7
     42,6828	    0,022416	173,2	   0,0218825	175,6
     42,6847	   0,0224028	177,5	   0,0217514	177,0
     42,6867	   0,0222721	175,0	   0,0218146	177,7
     42,6887	   0,0222772	179,3	   0,0218121	175,9
     42,6906	   0,0221957	182,7	   0,0216747	176,3
     42,6926	   0,0221542	176,4	   0,0216999	175,8
     42,6945	   0,0221046	177,3	   0,0216731	176,9
     42,6965	   0,0220645	180,6	   0,0215456	180,4
     42,6984	   0,0219784	183,3	   0,0214724	177,3
     42,7004	   0,0218257	176,2	   0,0214509	175,6
     42,7023	   0,0218187	180,1	   0,0214298	177,0
     42,7043	   0,0216184	179,1	   0,0213627	181,2
     42,7063	   0,0216041	184,6	   0,0213464	181,2
     42,7082	   0,0216553	182,6	   0,0212406	182,0
     42,7102	   0,0216649	178,0	   0,0211515	179,1
     42,7121	   0,0216707	181,7	   0,0211439	180,8
     42,7141	   0,0214615	182,6	   0,0210303	182,1
      42,716	   0,0213892	187,1	   0,0209505	182,0
      42,718	   0,0213142	182,3	   0,0209279	182,1
     42,7199	   0,0212689	181,7	   0,0208401	182,1
     42,7219	    0,021214	182,1	   0,0207617	184,2
     42,7239	   0,0213088	185,1	   0,0206897	183,8
     42,7258	   0,0211636	185,6	     0,02061	179,9
     42,7278	   0,0210716	186,8	   0,0205244	182,4
     42,7297	   0,0210497	184,4	   0,0204614	186,1
     42,7317	    0,020919	185,5	   0,0205707	187,6
     42,7336	   0,0208643	186,7	   0,0205008	183,0
     42,7356	   0,0208356	184,6	   0,0204833	180,3
     42,7375	   0,0207198	183,2	   0,0202662	181,7
     42,7395	   0,0208059	185,4	   0,0202482	188,2
     42,7414	   0,0207146	190,4	   0,0201631	188,6
     42,7434	   0,0207011	189,4	   0,0201966	185,1
     42,7454	   0,0206028	186,7	   0,0201065	183,5
     42,7473	   0,0204543	185,1	   0,0199692	188,3
     42,7493	    0,020297	188,1	   0,0200043	188,1
     42,7512	   0,0202787	190,0	   0,0199739	185,5
     42,7532	   0,0202279	185,4	   0,0198687	185,7
     42,7551	   0,0201623	187,4	   0,0198552	186,4
     42,7571	   0,0201359	186,4	   0,0197236	188,6
      42,759	   0,0201004	191,0	   0,0196747	190,7
      42,761	   0,0200416	189,2	   0,0194777	186,6
      42,763	   0,0199102	187,5	   0,0192839	185,8
     42,7649	   0,0199231	184,6	   0,0193328	192,0
     42,7669	   0,0197143	191,7	   0,0193913	192,3
     42,7688	   0,0196453	190,5	   0,0193394	188,3
     42,7708	   0,0196272	186,9	   0,0193215	189,2
     42,7727	   0,0195628	190,0	   0,0192096	189,9
     42,7747	   0,0195161	189,8	   0,0191236	189,5
     42,7766	   0,0195035	188,2	   0,0190205	190,7
     42,7786	    0,019428	191,3	   0,0189989	191,3
     42,7805	   0,0194566	191,0	   0,0189057	187,8
     42,7825	    0,019437	187,5	   0,0188012	187,4
     42,7845	   0,0193776	189,4	   0,0186786	194,3
     42,7864	   0,0192029	190,9	   0,0187452	192,0
     42,7884	   0,0191543	191,4	   0,0186585	190,3
     42,7903	   0,0190099	194,8	    0,018576	189,6
     42,7923	   0,0188828	189,1	   0,0184864	188,0
     42,7942	   0,0188734	189,1	   0,0184276	194,6
     42,7962	   0,0188278	194,0	   0,0184002	191,5
     42,7981	   0,0188388	191,5	   0,0183097	190,9
     42,8001	    0,018718	193,9	    0,018261	188,8
     42,8021	   0,0186748	192,1	   0,0182847	194,6
      42,804	   0,0185713	195,4	   0,0182664	195,9
      42,806	   0,0184581	195,1	   0,0181873	188,7
     42,8079	   0,0184108	194,8	   0,0181456	190,3
     42,8099	   0,0183841	194,2	   0,0181204	191,0
     42,8118	   0,0182626	195,1	   0,0179334	193,9
     42,8138	   0,0181639	194,4	   0,0178949	194,6
     42,8157	   0,0180854	197,1	     0,01786	193,4
     42,8177	   0,0180077	195,7	   0,0177522	193,8
     42,8196	   0,0180168	193,7	   0,0177646	194,5
     42,8216	   0,0180233	194,8	   0,0176552	194,7
     42,8236	   0,0179075	198,7	   0,0176344	198,5
     42,8255	   0,0178833	198,1	   0,0175038	197,4
     42,8275	   0,0178623	194,5	   0,0174778	195,4
     42,8294	   0,0177975	193,8	   0,0173721	193,9
     42,8314	   0,0177024	196,6	   0,0173296	197,2
     42,8333	   0,0176143	197,1	   0,0173842	199,6
     42,8353	   0,0175338	199,4	   0,0173433	195,7
     42,8372	   0,0175123	197,5	   0,0171418	193,9
     42,8392	   0,0174759	195,4	   0,0170451	196,8
     42,8412	   0,0174129	195,8	   0,0169736	196,5
     42,8431	   0,0173563	199,9	    0,016938	198,2
     42,8451	   0,0172472	197,1	   0,0169092	196,3
      42,847	   0,0171523	194,9	   0,0168448	194,9
      42,849	   0,0171507	194,6	   0,0169205	-159,9
     42,8509	   0,0171704	193,8	   0,0168793	-164,5
     42,8529	   0,0170867	198,0	   0,0167894	-161,0
     42,8548	   0,0170311	199,8	   0,0167935	-162,6
     42,8568	   0,0169179	197,0	   0,0167521	-165,3
     42,8587	   0,0168358	198,9	   0,0167452	-163,1
     42,8607	   0,0167657	198,2	    0,016714	-161,1
     42,8627	   0,0167917	-158,1	   0,0165452	-161,6
     42,8646	   0,0166615	-157,3	   0,0164472	-163,2
     42,8666	   0,0166112	-162,7	    0,016477	-162,8
     42,8685	   0,0165163	-162,6	   0,0164072	-161,9
     42,8705	   0,0164124	-159,1	   0,0163383	-161,3
     42,8724	   0,0163933	-157,8	   0,0162905	-161,1
     42,8744	   0,0163048	-156,9	   0,0161378	-159,8
     42,8763	   0,0163148	-160,3	   0,0161373	-162,7
     42,8783	   0,0162588	-159,3	   0,0159629	-161,9
     42,8803	   0,0161583	-159,1	   0,0159221	-156,9
     42,8822	   0,0160917	-156,6	   0,0159107	-154,5
     42,8842	   0,0160368	-158,1	   0,0158022	-162,6
     42,8861	   0,0159318	-158,4	   0,0157141	-159,1
     42,8881	   0,0159872	-160,2	   0,0157418	-162,4
       42,89	   0,0159923	-160,6	   0,0157345	-156,8
      42,892	   0,0158838	-157,5	   0,0157768	-155,0
     42,8939	   0,0158465	-157,9	   0,0156635	-159,1
     42,8959	   0,0157464	-157,5	    0,015696	-160,5
     42,8979	   0,0156669	-161,4	   0,0156143	-158,2
     42,8998	   0,0157231	-160,7	   0,0154826	-162,2
     42,9018	    0,015587	-159,1	   0,0154439	-158,9
     42,9037	   0,0155547	-156,6	    0,015443	-157,9
     42,9057	   0,0155142	-155,8	   0,0154112	-157,4
     42,9076	   0,0155038	-158,6	   0,0153705	-161,0
     42,9096	   0,0153742	-156,8	   0,0152873	-161,5
     42,9115	   0,0152581	-156,8	   0,0152376	-156,3
     42,9135	   0,0152224	-153,0	    0,015198	-157,4
     42,9154	   0,0151954	-157,1	   0,0151125	-158,9
     42,9174	   0,0151629	-159,4	   0,0150795	-158,2
     42,9194	   0,0150631	-155,4	   0,0150336	-157,2
     42,9213	   0,0150249	-157,4	   0,0149657	-155,1
     42,9233	   0,0150726	-156,4	   0,0149933	-155,7
     42,9252	   0,0149342	-153,6	   0,0148719	-156,9
     42,9272	   0,0149115	-153,7	   0,0147987	-157,8
     42,9291	   0,0149139	-156,5	   0,0146527	-158,0
     42,9311	   0,0148604	-155,2	   0,0146438	-153,5
      42,933	   0,0147472	-155,2	   0,0145445	-153,0
      42,935	   0,0146877	-154,4	   0,0144737	-157,6
      42,937	   0,0147547	-158,3	   0,0145219	-155,8
     42,9389	   0,0146409	-157,9	   0,0144476	-156,4
     42,9409	   0,0146045	-156,6	   0,0144408	-157,5
     42,9428	   0,0146116	-158,0	   0,0143793	-153,1
     42,9448	   0,0145619	-154,2	   0,0143444	-155,7
     42,9467	   0,0145336	-153,4	   0,0143862	-155,8
     42,9487	   0,0143889	-155,5	   0,0143457	-159,2
     42,9506	   0,0142705	-155,9	   0,0142164	-158,3
     42,9526	   0,0141897	-154,0	   0,0141498	-155,0
     42,9545	   0,0141735	-152,1	   0,0140774	-156,8
     42,9565	   0,0140492	-153,2	   0,0140944	-154,6
     42,9585	   0,0139083	-151,7	   0,0139427	-152,7
     42,9604	   0,0139169	-151,4	    0,013842	-155,6
     42,9624	   0,0139134	-154,5	   0,0138212	-153,7
     42,9643	   0,0139551	-149,7	   0,0136624	-152,2
     42,9663	   0,0139174	-152,1	   0,0137789	-149,7
     42,9682	   0,0139306	-152,4	   0,0136871	-153,9
     42,9702	   0,0139057	-152,9	   0,0138446	-152,7
     42,9721	   0,0138217	-154,6	   0,0138073	-149,2
     42,9741	   0,0138067	-155,0	   0,0136785	-152,4
     42,9761	   0,0137297	-150,9	   0,0136782	-151,9
      42,978	   0,0136947	-151,9	   0,0135713	-153,0
       42,98	   0,0136178	-152,8	   0,0135879	-154,0
     42,9819	   0,0135517	-154,3	   0,0135929	-156,7
     42,9839	   0,0134555	-152,9	   0,0134189	-153,6
     42,9858	   0,0133801	-151,3	   0,0135179	-150,7
     42,9878	   0,0133149	-150,0	   0,0134222	-155,8
     42,9897	    0,013326	-149,5	     0,01333	-153,7
     42,9917	   0,0132796	-153,7	   0,0132789	-153,3
     42,9936	    0,013264	-151,8	   0,0132234	-153,9
     42,9956	   0,0132379	-149,6	   0,0132698	-147,8
     42,9976	   0,0132283	-149,1	   0,0131439	-151,8
     42,9995	   0,0132173	-151,2	   0,0131367	-153,9
     43,0015	   0,0131169	-150,4	    0,013029	-151,6
     43,0034	   0,0130885	-150,9	    0,012952	-153,8
     43,0054	   0,0130568	-153,1	   0,0131013	-151,1
     43,0073	   0,0130268	-153,9	   0,0128847	-147,9
     43,0093	   0,0129444	-150,1	    0,012931	-147,9
     43,0112	   0,0129149	-148,8	   0,0128264	-152,2
     43,0132	   0,0128316	-150,8	   0,0128049	-154,8
     43,0152	   0,0128018	-150,7	   0,0127001	-154,4
     43,0171	   0,0127723	-151,9	   0,0126683	-151,3
     43,0191	   0,0126621	-148,7	   0,0125933	-149,2
      43,021	    0,012701	-148,3	   0,0125734	-151,5
      43,023	   0,0126275	-146,8	    0,012669	-150,4
     43,0249	   0,0126394	-149,4	   0,0126103	-152,2
     43,0269	   0,0126336	-148,9	   0,0125252	-151,1
     43,0288	   0,0125463	-146,8	    0,012409	-149,0
     43,0308	   0,0124619	-149,8	   0,0123317	-147,3
     43,0327	   0,0124661	-145,1	   0,0122303	-149,4
     43,0347	   0,0124213	-147,6	   0,0122634	-149,1
     43,0367	   0,0124485	-151,9	   0,0122429	-149,5
     43,0386	   0,0124215	-152,6	   0,0121914	-150,3
     43,0406	   0,0123347	-149,3	   0,0122318	-148,3
     43,0425	   0,0122749	-151,5	   0,0120558	-147,3
     43,0445	   0,0121414	-148,8	   0,0121292	-148,7
     43,0464	   0,0121714	-148,1	   0,0120412	-152,4
     43,0484	   0,0121283	-146,2	   0,0121284	-151,6
     43,0503	   0,0120347	-148,8	   0,0120586	-150,5
     43,0523	   0,0119807	-149,3	   0,0120527	-149,1
     43,0543	    0,011982	-148,0	   0,0121131	-147,5
     43,0562	   0,0119738	-147,3	     0,01191	-147,9
     43,0582	   0,0119764	-144,4	   0,0118542	-150,2
     43,0601	   0,0119864	-146,1	   0,0118775	-151,2
     43,0621	   0,0119026	-150,0	   0,0118299	-148,4
      43,064	   0,0117827	-145,1	   0,0117515	-146,5
      43,066	   0,0117373	-148,1	   0,0117734	-144,0
     43,0679	    0,011699	-148,0	   0,0117671	-146,6
     43,0699	    0,011677	-145,9	   0,0117647	-148,8
     43,0718	   0,0116515	-146,5	   0,0118087	-153,4
     43,0738	   0,0116546	-150,3	   0,0116691	-150,8
     43,0758	   0,0115945	-148,4	   0,0115064	-146,9
     43,0777	   0,0116108	-146,5	   0,0115258	-145,3
     43,0797	   0,0115506	-147,0	   0,0114472	-148,5
     43,0816	   0,0114582	-146,1	   0,0113711	-145,1
     43,0836	   0,0114464	-145,3	   0,0114019	-150,5
     43,0855	   0,0113652	-147,8	   0,0112471	-149,6
     43,0875	    0,011454	-147,3	   0,0112934	-143,4
     43,0894	   0,0114758	-143,3	   0,0112861	-142,5
     43,0914	   0,0113905	-144,8	   0,0113511	-146,5
     43,0934	   0,0112479	-144,0	   0,0112581	-147,7
     43,0953	    0,011257	-148,2	   0,0112196	-147,7
     43,0973	   0,0112377	-145,2	   0,0112075	-152,3
     43,0992	   0,0112465	-150,7	   0,0110743	-146,2
     43,1012	   0,0111661	-146,8	   0,0110722	-146,0
     43,1031	   0,0110966	-145,0	   0,0110527	-146,7
     43,1051	   0,0110388	-144,6	   0,0109653	-144,7
      43,107	    0,010978	-142,3	   0,0110026	-148,4
      43,109	   0,0109761	-144,2	   0,0109176	-150,7
     43,1109	   0,0109919	-144,9	   0,0109763	-144,9
     43,1129	   0,0108922	-148,6	   0,0108358	-143,7
     43,1149	    0,010858	-142,1	   0,0108913	-146,3
     43,1168	   0,0108917	-145,0	   0,0108775	-142,8
     43,1188	    0,010837	-145,9	    0,010726	-147,2
     43,1207	   0,0108134	-144,8	   0,0108132	-146,7
     43,1227	   0,0107788	-148,1	   0,0107948	-142,3
     43,1246	   0,0107429	-148,1	   0,0107256	-149,1
     43,1266	   0,0106653	-145,2	   0,0106708	-146,0
     43,1285	   0,0107211	-146,1	   0,0106523	-145,0
     43,1305	   0,0106251	-141,4	   0,0105847	-147,2
     43,1325	   0,0106132	-140,0	   0,0106737	-146,8
     43,1344	   0,0105572	-144,1	   0,0105632	-144,3
     43,1364	   0,0105002	-145,3	   0,0105099	-142,0
     43,1383	   0,0105218	-143,7	   0,0105459	-143,3
     43,1403	   0,0105196	-144,6	   0,0105945	-141,6
     43,1422	   0,0104977	-142,4	   0,0104685	-142,7
     43,1442	   0,0105052	-144,3	   0,0104782	-146,5
     43,1461	   0,0103836	-146,3	   0,0104392	-147,8
     43,1481	   0,0104103	-144,8	   0,0104107	-144,3
       43,15	   0,0103593	-146,4	   0,0103901	-145,1
      43,152	   0,0103002	-146,0	    0,010327	-144,2
      43,154	   0,0102825	-140,5	   0,0103949	-144,7
     43,1559	   0,0102531	-140,4	   0,0103534	-148,3
     43,1579	   0,0101207	-141,0	   0,0102475	-146,4
     43,1598	   0,0101845	-144,2	   0,0102985	-145,4
     43,1618	   0,0101292	-146,5	   0,0102342	-144,0
     43,1637	   0,0100774	-145,6	   0,0100605	-141,9
     43,1657	   0,0101084	-142,9	   0,0100944	-141,3
     43,1676	   0,0101557	-143,5	   0,0100307	-143,0
     43,1696	   0,0100769	-142,4	   0,0100465	-145,2
     43,1716	    0,010026	-142,7	   0,0101105	-148,3
     43,1735	   0,0100192	-146,8	   0,0100207	-148,1
     43,1755	   0,0100162	-144,7	   0,0099993	-143,8
     43,1774	  0,00998118	-142,8	  0,00989587	-142,7
     43,1794	  0,00990358	-143,7	  0,00990752	-143,5
     43,1813	  0,00981366	-139,4	  0,00972931	-144,9
     43,1833	  0,00980047	-140,7	  0,00964992	-141,5
     43,1852	   0,0097678	-140,9	  0,00966989	-144,7
     43,1872	   0,0098196	-145,6	  0,00961148	-142,4
     43,1891	  0,00983965	-144,1	  0,00970243	-144,1
     43,1911	  0,00978893	-145,9	  0,00962691	-141,4
     43,1931	  0,00977638	-143,5	  0,00969566	-140,8
      43,195	  0,00972972	-140,4	  0,00972389	-142,0
      43,197	  0,00963449	-140,2	  0,00976173	-145,6
     43,1989	  0,00964395	-139,9	  0,00961301	-147,1
     43,2009	  0,00953139	-141,3	  0,00956809	-146,7
     43,2028	  0,00950271	-143,9	  0,00957506	-143,8
     43,2048	  0,00950256	-143,2	  0,00955668	-138,3
     43,2067	  0,00949627	-139,3	  0,00954259	-140,3
     43,2087	  0,00943243	-142,2	  0,00948052	-140,7
     43,2107	  0,00940913	-143,2	  0,00945281	-144,4
     43,2126	  0,00938806	-139,2	  0,00942531	-143,1
     43,2146	  0,00943335	-145,8	  0,00943865	-144,9
     43,2165	  0,00941432	-142,8	  0,00942573	-142,1
     43,2185	  0,00932766	-142,4	   0,0094496	-142,0
     43,2204	  0,00928795	-139,6	  0,00942879	-142,5
     43,2224	  0,00927818	-140,8	  0,00925304	-141,8
     43,2243	  0,00919055	-139,0	  0,00919672	-144,7
     43,2263	  0,00919217	-141,5	  0,00912582	-144,8
     43,2282	  0,00918049	-143,1	  0,00916926	-140,9
     43,2302	  0,00918117	-140,7	  0,00922951	-142,7
     43,2322	  0,00914223	-144,0	  0,00924701	-139,5
     43,2341	  0,00914216	-142,4	  0,00924635	-138,9
     43,2361	  0,00916253	-139,0	  0,00909613	-143,8
      43,238	  0,00908975	-138,0	  0,00911255	-142,9
       43,24	  0,00899742	-140,6	  0,00908853	-141,1
     43,2419	  0,00906508	-143,5	  0,00903954	-143,9
     43,2439	  0,00920789	-143,1	   0,0089174	-141,0
     43,2458	  0,00907398	-143,2	  0,00893186	-138,1
     43,2478	  0,00899869	-142,4	  0,00888187	-136,2
     43,2498	  0,00892211	-141,5	  0,00897071	-136,9
     43,2517	  0,00877023	-137,5	  0,00898119	-142,4
     43,2537	  0,00872453	-138,9	  0,00892858	-143,6
     43,2556	  0,00876775	-137,5	  0,00896577	-146,6
     43,2576	  0,00874898	-139,1	  0,00883972	-141,9
     43,2595	  0,00879915	-138,9	  0,00888744	-140,2
     43,2615	  0,00873504	-142,9	   0,0088328	-137,1
     43,2634	   0,0087133	-139,7	  0,00882771	-138,7
     43,2654	   0,0086988	-141,8	  0,00870023	-140,1
     43,2673	  0,00868033	-139,8	  0,00869096	-138,5
     43,2693	  0,00868532	-140,4	  0,00863343	-141,7
     43,2713	  0,00872485	-139,9	  0,00862534	-141,9
     43,2732	  0,00867594	-138,6	  0,00868141	-139,9
     43,2752	  0,00860632	-140,1	  0,00859633	-143,2
     43,2771	  0,00860555	-141,1	  0,00856277	-140,0
     43,2791	  0,00858452	-143,6	  0,00861658	-133,9
      43,281	  0,00856063	-137,6	  0,00862814	-138,2
      43,283	  0,00858887	-141,3	  0,00865411	-137,5
     43,2849	  0,00855242	-137,9	   0,0085713	-139,6
     43,2869	  0,00851146	-138,6	  0,00847776	-143,2
     43,2889	  0,00843932	-144,1	  0,00848669	-140,0
     43,2908	  0,00838128	-139,5	   0,0084469	-140,5
     43,2928	  0,00845944	-139,5	  0,00837207	-139,0
     43,2947	  0,00838513	-138,6	   0,0083489	-138,6
     43,2967	  0,00833554	-137,3	  0,00838764	-140,9
     43,2986	  0,00831512	-138,4	  0,00837951	-138,7
     43,3006	  0,00827663	-140,7	  0,00837703	-141,6
     43,3025	  0,00835443	-139,3	  0,00829355	-139,6
     43,3045	  0,00832653	-142,4	  0,00823623	-138,9
     43,3064	  0,00834053	-142,5	  0,00825844	-138,8
     43,3084	  0,00828563	-141,1	  0,00829387	-137,5
     43,3104	  0,00815347	-140,3	  0,00830396	-140,6
     43,3123	  0,00823943	-135,5	  0,00833563	-142,7
     43,3143	  0,00826287	-137,1	  0,00823515	-141,1
     43,3162	  0,00826423	-136,8	  0,00817908	-141,0
     43,3182	  0,00826901	-138,6	  0,00811318	-140,0
     43,3201	  0,00816301	-138,3	  0,00810502	-142,6
     43,3221	  0,00813277	-141,9	  0,00804339	-138,1
      43,324	  0,00811622	-141,6	  0,00808337	-138,5
      43,326	  0,00809332	-138,6	   0,0081865	-137,1
      43,328	  0,00801413	-137,6	  0,00820944	-137,4
     43,3299	  0,00800333	-133,2	  0,00816261	-143,1
     43,3319	  0,00795664	-135,7	  0,00805642	-141,6
     43,3338	   0,0079739	-136,6	  0,00796845	-140,0
     43,3358	  0,00798226	-137,7	  0,00794957	-140,1
     43,3377	  0,00793748	-140,4	  0,00790024	-137,2
     43,3397	  0,00789088	-142,3	  0,00784654	-137,1
     43,3416	  0,00793573	-139,3	  0,00787192	-135,6
     43,3436	  0,00787503	-138,7	  0,00789687	-138,1
     43,3456	  0,00785899	-137,0	  0,00790581	-137,8
     43,3475	  0,00783967	-133,9	  0,00785599	-140,5
     43,3495	  0,00780298	-136,2	  0,00777161	-139,3
     43,3514	     0,00773	-138,5	  0,00775554	-135,8
     43,3534	   0,0077929	-139,0	  0,00776262	-139,3
     43,3553	  0,00782883	-141,0	  0,00776401	-133,1
     43,3573	  0,00782119	-140,1	  0,00777752	-136,2
     43,3592	  0,00779059	-138,9	  0,00779405	-138,3
     43,3612	  0,00766938	-134,6	  0,00783022	-139,7
     43,3631	  0,00758199	-134,6	  0,00768527	-135,5
     43,3651	  0,00763217	-134,8	   0,0076537	-137,9
     43,3671	  0,00761223	-136,5	  0,00764584	-137,9
      43,369	  0,00763975	-139,4	   0,0075686	-137,0
      43,371	  0,00762133	-140,7	  0,00758908	-137,6
     43,3729	   0,0076327	-141,1	   0,0076176	-134,4
     43,3749	  0,00762742	-139,1	  0,00761497	-136,8
     43,3768	  0,00754101	-137,0	  0,00763287	-137,9
     43,3788	  0,00745988	-135,0	  0,00762404	-136,8
     43,3807	  0,00751487	-134,2	  0,00758682	-140,2
     43,3827	  0,00757303	-136,4	   0,0075793	-137,4
     43,3847	  0,00750788	-138,7	  0,00754025	-139,7
     43,3866	  0,00752807	-137,1	  0,00750298	-139,7
     43,3886	   0,0075501	-140,5	  0,00740708	-140,9
     43,3905	  0,00748683	-140,0	  0,00731315	-137,8
     43,3925	  0,00741762	-139,5	  0,00740965	-133,9
     43,3944	  0,00740021	-137,1	  0,00741453	-136,6
     43,3964	  0,00735443	-134,0	  0,00744522	-132,5
     43,3983	  0,00732735	-134,5	  0,00740075	-135,6
     43,4003	  0,00740163	-134,9	  0,00740234	-137,9
     43,4022	  0,00736512	-136,4	  0,00738624	-140,5
     43,4042	  0,00728509	-140,9	  0,00733265	-139,3
     43,4062	  0,00732475	-138,4	  0,00729762	-138,9
     43,4081	  0,00733449	-137,9	  0,00728797	-136,2
     43,4101	    0,007279	-136,3	  0,00730189	-136,4
      43,412	  0,00730308	-139,1	  0,00726885	-135,1
      43,414	  0,00722935	-134,0	  0,00717138	-136,0
     43,4159	  0,00717836	-137,7	  0,00713475	-135,4
     43,4179	  0,00719684	-137,0	   0,0071175	-136,6
     43,4198	  0,00718966	-135,7	    0,007071	-139,5
     43,4218	  0,00717898	-136,7	  0,00710558	-139,9
     43,4238	  0,00716097	-136,8	  0,00710628	-135,4
     43,4257	  0,00710152	-136,7	  0,00720594	-135,2
     43,4277	  0,00707366	-138,4	  0,00717266	-136,1
     43,4296	  0,00709623	-136,5	  0,00722285	-133,4
     43,4316	   0,0072197	-138,7	   0,0071796	-134,7
     43,4335	  0,00712355	-134,9	  0,00702322	-138,2
     43,4355	  0,00704167	-134,4	  0,00693295	-139,7
     43,4374	  0,00704237	-134,6	  0,00695202	-138,6
     43,4394	  0,00704384	-133,2	   0,0069751	-141,1
     43,4413	  0,00690357	-133,3	  0,00696616	-138,7
     43,4433	  0,00692223	-137,3	  0,00692462	-135,1
     43,4453	  0,00695328	-138,8	  0,00692242	-135,2
     43,4472	  0,00699088	-139,2	  0,00691414	-136,7
     43,4492	  0,00690867	-137,6	  0,00696706	-133,3
     43,4511	  0,00697492	-136,2	  0,00691921	-134,0
     43,4531	  0,00698676	-132,7	  0,00688803	-135,7
      43,455	   0,0068469	-132,1	   0,0068822	-134,3
      43,457	   0,0068154	-136,1	  0,00676572	-137,8
     43,4589	  0,00678246	-132,7	  0,00677789	-136,7
     43,4609	  0,00680367	-135,9	  0,00685508	-137,2
     43,4629	  0,00683247	-140,6	  0,00680227	-133,5
     43,4648	  0,00690831	-135,9	  0,00684287	-137,1
     43,4668	  0,00678244	-135,4	  0,00679907	-137,7
     43,4687	   0,0067198	-137,5	  0,00676625	-134,1
     43,4707	   0,0067676	-134,7	  0,00661998	-135,4
     43,4726	  0,00676114	-132,6	  0,00665013	-132,7
     43,4746	  0,00675025	-134,2	  0,00671901	-135,5
     43,4765	  0,00675387	-135,3	  0,00677674	-139,7
     43,4785	  0,00674134	-136,5	  0,00662469	-140,8
     43,4804	  0,00667985	-131,2	  0,00662828	-137,6
     43,4824	  0,00647936	-134,9	  0,00666769	-136,8
     43,4844	  0,00657499	-138,1	  0,00671231	-135,8
     43,4863	  0,00659563	-133,7	  0,00669793	-137,2
     43,4883	  0,00655951	-138,7	  0,00664188	-132,9
     43,4902	  0,00661978	-135,5	   0,0065599	-136,0
     43,4922	  0,00659118	-135,2	  0,00654147	-135,1
     43,4941	   0,0065317	-134,5	  0,00656303	-137,3
     43,4961	  0,00652278	-131,8	  0,00656099	-135,0
      43,498	  0,00650741	-133,5	  0,00655425	-133,1
        43,5	  0,00656341	-136,7	  0,00656258	-134,8

