X-Data [Hz]	Piezo (M - Filtered) [mV]	Phase [Deg]	Piezo (M - Filtered) [mV]	Phase [Deg]	
	002: [07-10-24 10:42]		003: [07-10-24 10:45]	
        41,5	    0,761581	-112,0	    0,608359	-101,6
      41,502	    0,741355	-107,6	    0,763337	-111,2
     41,5039	    0,752779	-116,4	    0,732616	-107,6
     41,5059	    0,728384	-96,8	    0,770985	-113,5
     41,5078	    0,778102	-115,1	    0,699347	-95,6
     41,5098	    0,729632	-92,9	    0,753594	-111,9
     41,5117	    0,764262	-105,9	    0,740799	-95,6
     41,5137	    0,716038	-97,7	    0,739683	-103,9
     41,5156	    0,710111	-95,5	    0,757929	-101,7
     41,5176	    0,743272	-99,1	    0,727742	-92,3
     41,5196	    0,739464	-97,4	    0,769273	-107,4
     41,5215	    0,755577	-107,9	    0,727441	-99,0
     41,5235	    0,740943	-97,6	    0,780166	-118,0
     41,5254	    0,743658	-99,5	    0,783961	-109,4
     41,5274	    0,760387	-102,0	    0,755686	-109,7
     41,5293	    0,734547	-96,2	    0,794092	-114,7
     41,5313	    0,781561	-113,5	    0,734777	-98,1
     41,5332	    0,745492	-105,4	    0,777162	-113,3
     41,5352	    0,792769	-114,2	    0,725936	-96,4
     41,5371	    0,729287	-90,2	    0,755433	-105,9
     41,5391	    0,757586	-101,5	    0,751702	-94,8
     41,5411	    0,736178	-100,5	    0,736698	-95,8
      41,543	    0,735782	-96,2	    0,781456	-108,4
      41,545	    0,762839	-111,4	    0,748233	-92,7
     41,5469	    0,744577	-92,5	    0,791515	-115,3
     41,5489	    0,766907	-100,5	     0,78602	-103,2
     41,5508	    0,746389	-100,7	    0,763049	-111,7
     41,5528	    0,755865	-93,3	    0,819107	-113,7
     41,5547	      0,7912	-112,6	    0,757637	-96,1
     41,5567	    0,765962	-102,7	    0,795154	-112,7
     41,5587	    0,815457	-114,7	    0,745801	-93,7
     41,5606	    0,791679	-108,5	    0,788482	-108,6
     41,5626	    0,808407	-109,7	    0,775802	-97,0
     41,5645	    0,815587	-113,3	    0,767968	-96,0
     41,5665	     0,80716	-107,7	    0,798398	-104,4
     41,5684	    0,830349	-118,2	    0,763357	-94,5
     41,5704	    0,794307	-108,5	     0,82207	-112,5
     41,5723	    0,809434	-111,4	     0,79307	-103,2
     41,5743	    0,723195	-95,9	    0,774827	-93,2
     41,5762	    0,751173	-97,2	    0,813219	-108,7
     41,5782	    0,772945	-101,2	    0,772355	-94,8
     41,5802	    0,790701	-91,6	    0,822837	-115,8
     41,5821	    0,830875	-118,0	    0,792951	-103,1
     41,5841	    0,781961	-101,5	    0,810615	-111,6
      41,586	    0,838051	-115,0	    0,839812	-110,5
      41,588	    0,818645	-108,7	    0,768807	-100,2
     41,5899	    0,793188	-97,1	    0,808361	-112,3
     41,5919	    0,814288	-112,8	    0,786244	-95,0
     41,5938	    0,789075	-98,4	    0,780541	-98,4
     41,5958	    0,871034	-110,8	    0,794581	-104,1
     41,5978	    0,857053	-114,8	    0,782192	-95,9
     41,5997	      0,8382	-104,5	    0,856163	-111,4
     41,6017	    0,841366	-120,8	    0,789868	-99,7
     41,6036	    0,775686	-94,0	     0,82938	-112,5
     41,6056	    0,810558	-105,8	    0,809927	-105,9
     41,6075	    0,761034	-91,9	    0,837851	-112,4
     41,6095	    0,805664	-103,3	    0,856713	-110,1
     41,6114	    0,831074	-116,3	    0,794457	-102,3
     41,6134	    0,775892	-90,2	     0,82555	-114,2
     41,6153	    0,811477	-100,4	    0,791311	-94,1
     41,6173	    0,768218	-95,4	    0,801054	-99,2
     41,6193	    0,808956	-92,3	    0,819782	-99,5
     41,6212	    0,838179	-107,6	     0,81213	-93,7
     41,6232	    0,797386	-99,3	      0,8304	-102,4
     41,6251	    0,857258	-114,6	    0,803583	-95,7
     41,6271	    0,818369	-99,1	    0,793047	-99,8
      41,629	    0,891548	-110,0	    0,849474	-104,0
      41,631	    0,867314	-111,8	    0,824665	-93,8
     41,6329	    0,865123	-107,3	    0,887556	-116,0
     41,6349	    0,881602	-112,2	    0,856193	-106,3
     41,6369	    0,837506	-92,4	    0,813068	-106,0
     41,6388	    0,871649	-109,8	    0,821838	-96,7
     41,6408	    0,885112	-112,3	    0,804598	-92,7
     41,6427	    0,846953	-100,1	    0,883276	-110,1
     41,6447	    0,884678	-109,1	    0,855352	-99,7
     41,6466	    0,841428	-98,2	    0,874216	-113,1
     41,6486	    0,862903	-103,2	    0,861404	-109,3
     41,6505	    0,857065	-105,2	     0,81725	-97,5
     41,6525	     0,82849	-93,0	    0,883105	-112,3
     41,6544	    0,868222	-111,2	    0,862308	-104,6
     41,6564	    0,830126	-102,1	    0,841412	-108,0
     41,6584	    0,886143	-109,7	     0,88395	-111,4
     41,6603	    0,862915	-111,8	    0,832032	-97,3
     41,6623	    0,842331	-102,6	    0,871024	-110,3
     41,6642	    0,870715	-109,9	    0,851092	-92,3
     41,6662	    0,830442	-90,0	    0,818533	-97,2
     41,6681	    0,880625	-105,9	    0,890702	-103,9
     41,6701	    0,825101	-96,9	    0,848468	-95,1
      41,672	    0,835842	-89,6	    0,902488	-112,0
      41,674	    0,878142	-111,3	    0,860485	-101,9
      41,676	    0,856487	-98,0	    0,882444	-113,3
     41,6779	    0,942153	-116,7	    0,904076	-111,3
     41,6799	    0,907358	-114,3	    0,859528	-99,6
     41,6818	    0,899557	-108,8	      0,8938	-109,3
     41,6838	    0,931384	-111,9	      0,8546	-93,5
     41,6857	    0,868915	-96,5	    0,866659	-99,1
     41,6877	    0,908696	-108,5	    0,887751	-98,4
     41,6896	    0,897982	-116,1	    0,859015	-92,8
     41,6916	    0,863974	-101,0	    0,870897	-101,0
     41,6936	    0,926176	-109,8	    0,871101	-99,0
     41,6955	    0,860097	-90,5	    0,859228	-93,6
     41,6975	    0,897492	-112,3	    0,932665	-111,0
     41,6994	     0,86163	-102,0	    0,879102	-100,1
     41,7014	    0,840222	-94,5	    0,919364	-109,2
     41,7033	    0,909288	-111,5	    0,882997	-92,1
     41,7053	    0,872088	-95,6	    0,866372	-95,5
     41,7072	     0,93518	-105,2	     0,90601	-109,5
     41,7092	    0,934289	-110,9	    0,874295	-96,9
     41,7111	    0,860364	-95,8	    0,898958	-100,7
     41,7131	    0,927135	-107,2	    0,898167	-96,9
     41,7151	    0,893684	-100,2	    0,888872	-95,0
      41,717	    0,898036	-95,8	    0,948319	-106,6
      41,719	    0,922443	-108,5	    0,883589	-95,5
     41,7209	    0,901654	-98,0	    0,921121	-111,9
     41,7229	    0,943225	-113,9	    0,943896	-109,2
     41,7248	    0,916762	-101,0	    0,894026	-100,6
     41,7268	    0,939289	-111,8	    0,940052	-108,9
     41,7287	    0,945597	-113,1	    0,900015	-94,1
     41,7307	    0,904511	-94,5	    0,903542	-97,5
     41,7327	    0,948354	-110,9	    0,952255	-106,9
     41,7346	    0,882434	-93,5	    0,906998	-96,5
     41,7366	     0,89393	-94,1	    0,963288	-107,7
     41,7385	    0,919291	-107,5	    0,928273	-101,1
     41,7405	    0,874248	-100,8	    0,941931	-107,7
     41,7424	    0,953703	-112,6	    0,975798	-111,1
     41,7444	    0,925752	-105,6	    0,914789	-96,5
     41,7463	    0,941901	-97,8	    0,950223	-104,5
     41,7483	    0,966274	-109,1	    0,981603	-111,6
     41,7502	    0,936743	-106,7	     0,90896	-95,9
     41,7522	    0,945096	-104,6	    0,942604	-108,0
     41,7542	    0,945887	-109,8	    0,917869	-91,7
     41,7561	    0,894526	-91,7	     0,92758	-94,1
     41,7581	    0,947626	-102,7	    0,966875	-103,6
       41,76	    0,910101	-95,8	    0,931432	-96,4
      41,762	    0,932043	-91,7	    0,978047	-112,1
     41,7639	    0,936762	-104,9	    0,983011	-106,3
     41,7659	    0,923617	-96,2	    0,947434	-100,1
     41,7678	    0,993593	-112,7	     1,00367	-111,4
     41,7698	    0,965097	-109,0	    0,962424	-95,2
     41,7718	     0,96021	-96,2	    0,975376	-103,4
     41,7737	    0,999907	-109,8	    0,954073	-95,4
     41,7757	    0,952274	-92,8	    0,945563	-93,8
     41,7776	    0,994062	-104,2	    0,997323	-106,4
     41,7796	     1,03458	-105,6	    0,964277	-94,2
     41,7815	     0,98146	-92,6	    0,942684	-92,4
     41,7835	      1,0234	-104,0	     1,00597	-105,3
     41,7854	    0,961797	-96,7	     0,98295	-97,5
     41,7874	    0,966105	-89,2	     1,00444	-108,5
     41,7893	    0,986576	-103,7	     1,02183	-106,1
     41,7913	    0,969838	-95,2	    0,953478	-99,3
     41,7933	     1,04213	-109,1	      1,0169	-109,7
     41,7952	     1,00083	-112,4	    0,962161	-92,3
     41,7972	    0,990759	-100,0	    0,971304	-94,2
     41,7991	     1,02582	-104,8	     1,03088	-101,4
     41,8011	    0,955087	-92,0	    0,985445	-93,7
      41,803	     1,00008	-98,9	     1,03204	-109,7
      41,805	     1,05599	-106,1	     1,00081	-103,4
     41,8069	     1,00515	-92,3	    0,985224	-102,1
     41,8089	     1,01888	-99,8	     1,01339	-110,5
     41,8109	    0,995433	-105,8	     1,02065	-102,4
     41,8128	    0,966569	-91,9	     1,03241	-105,7
     41,8148	     1,02254	-112,2	     1,05838	-106,3
     41,8167	     1,00358	-101,2	    0,976703	-93,6
     41,8187	     1,04077	-105,4	    0,997293	-99,4
     41,8206	      1,0698	-112,4	     1,02902	-98,4
     41,8226	      1,0134	-95,9	    0,979781	-96,2
     41,8245	     1,04743	-104,8	     1,07704	-109,8
     41,8265	    0,976466	-94,3	     1,05141	-100,5
     41,8284	    0,995727	-92,4	     1,04545	-105,5
     41,8304	     1,06692	-107,0	     1,07752	-109,4
     41,8324	     1,01095	-100,0	     1,00223	-95,5
     41,8343	      1,0683	-106,4	     1,03161	-102,7
     41,8363	     1,05497	-111,2	      1,0199	-91,9
     41,8382	     1,01446	-100,3	     1,01451	-93,7
     41,8402	     1,06463	-108,5	     1,08943	-109,9
     41,8421	     1,06582	-108,8	     1,05476	-96,8
     41,8441	     1,01702	-92,2	     1,04082	-103,6
      41,846	     1,05546	-99,1	     1,10385	-108,9
      41,848	     1,01414	-100,1	     1,02851	-90,8
       41,85	     1,01122	-92,6	     1,04399	-103,3
     41,8519	     1,09791	-108,3	     1,03986	-93,3
     41,8539	     1,05248	-103,0	     1,04624	-91,9
     41,8558	     1,06967	-100,9	     1,06216	-99,2
     41,8578	     1,07593	-110,3	     1,06439	-99,3
     41,8597	     1,02772	-93,8	     1,04173	-92,4
     41,8617	     1,06739	-99,5	     1,10501	-107,9
     41,8636	     1,01781	-93,9	     1,02348	-90,6
     41,8656	     1,02481	-93,1	     1,04793	-97,4
     41,8675	     1,06495	-109,2	     1,11464	-98,7
     41,8695	     1,03657	-98,4	     1,07769	-92,6
     41,8715	     1,09915	-99,2	     1,13078	-106,7
     41,8734	     1,11423	-105,8	     1,11091	-101,9
     41,8754	     1,03859	-89,9	     1,08195	-97,8
     41,8773	     1,06782	-95,8	     1,10772	-108,2
     41,8793	     1,09056	-102,2	     1,07111	-92,5
     41,8812	     1,07318	-92,8	      1,0813	-97,6
     41,8832	     1,14425	-105,7	     1,11085	-104,4
     41,8851	     1,14049	-108,1	     1,07262	-90,2
     41,8871	     1,09625	-96,0	     1,08767	-92,8
     41,8891	     1,14141	-104,3	     1,12807	-101,7
      41,891	     1,07431	-90,8	     1,08332	-92,4
      41,893	     1,10052	-95,8	     1,13545	-108,5
     41,8949	     1,12583	-108,1	     1,15138	-103,1
     41,8969	     1,09365	-98,5	     1,10326	-98,5
     41,8988	     1,15731	-103,1	      1,1477	-105,3
     41,9008	     1,14397	-107,6	     1,11901	-91,3
     41,9027	      1,0904	-92,7	     1,11178	-93,5
     41,9047	     1,13543	-97,9	     1,18179	-106,1
     41,9066	     1,10687	-101,7	     1,12464	-95,7
     41,9086	     1,08104	-92,4	     1,15026	-102,3
     41,9106	     1,14729	-100,2	     1,15298	-102,9
     41,9125	     1,12473	-105,2	     1,12795	-97,9
     41,9145	     1,09665	-89,1	     1,15567	-103,7
     41,9164	     1,10764	-100,2	     1,20199	-105,8
     41,9184	     1,10669	-90,1	     1,14026	-91,4
     41,9203	     1,09065	-87,2	     1,15832	-98,9
     41,9223	     1,14441	-110,1	     1,16468	-99,9
     41,9242	     1,10391	-95,6	     1,13675	-92,1
     41,9262	     1,16452	-96,0	     1,19223	-106,2
     41,9282	     1,17832	-105,7	     1,18873	-102,9
     41,9301	     1,11155	-92,9	     1,16826	-98,4
     41,9321	     1,15535	-92,8	     1,21778	-105,1
      41,934	     1,10441	-93,4	      1,2238	-101,4
      41,936	     1,12474	-91,5	     1,15104	-96,5
     41,9379	     1,15954	-96,2	     1,19863	-99,5
     41,9399	     1,14636	-92,1	      1,1637	-92,9
     41,9418	     1,12955	-88,7	      1,1593	-91,9
     41,9438	     1,21819	-107,2	     1,24032	-103,1
     41,9457	     1,18746	-103,7	     1,17746	-92,1
     41,9477	      1,1975	-95,1	     1,20965	-99,1
     41,9497	     1,21474	-101,8	     1,24936	-105,9
     41,9516	     1,14433	-89,9	     1,17992	-90,3
     41,9536	      1,1608	-90,4	     1,18999	-93,8
     41,9555	      1,2019	-103,2	     1,23734	-97,9
     41,9575	     1,16041	-96,5	     1,19723	-92,2
     41,9594	     1,23676	-102,8	     1,24831	-101,9
     41,9614	     1,24097	-108,6	     1,25077	-102,9
     41,9633	     1,19007	-87,9	     1,17246	-92,4
     41,9653	     1,24017	-95,6	     1,21406	-97,7
     41,9673	     1,20949	-94,1	     1,23359	-95,4
     41,9692	     1,19079	-89,6	     1,22285	-88,6
     41,9712	     1,25873	-108,0	     1,29827	-103,7
     41,9731	      1,2215	-102,0	      1,3112	-101,7
     41,9751	     1,22988	-97,5	     1,24727	-97,5
      41,977	     1,26827	-101,8	     1,26607	-100,2
      41,979	     1,25667	-103,4	     1,23076	-87,0
     41,9809	     1,22942	-91,6	     1,22242	-91,1
     41,9829	     1,27963	-98,4	     1,29985	-100,5
     41,9848	     1,21616	-93,7	     1,28357	-93,7
     41,9868	     1,26806	-101,9	     1,26518	-98,8
     41,9888	      1,3077	-99,7	     1,30007	-105,9
     41,9907	     1,25331	-93,3	     1,25466	-89,1
     41,9927	     1,26852	-93,2	     1,25628	-95,6
     41,9946	     1,27466	-101,9	     1,30588	-99,1
     41,9966	      1,2385	-92,5	      1,2774	-90,5
     41,9985	     1,29313	-99,1	     1,33832	-102,3
     42,0005	     1,28794	-105,6	     1,32747	-99,4
     42,0024	     1,26163	-99,9	     1,27437	-95,8
     42,0044	     1,28532	-94,5	     1,31922	-98,5
     42,0064	     1,31232	-100,1	     1,32561	-94,1
     42,0083	     1,24736	-89,5	     1,28899	-91,1
     42,0103	     1,26826	-88,7	      1,3681	-100,9
     42,0122	      1,3241	-101,8	     1,35174	-98,5
     42,0142	      1,2814	-96,9	     1,28307	-91,4
     42,0161	      1,3253	-96,9	     1,33431	-99,9
     42,0181	     1,27265	-93,6	     1,30576	-90,0
       42,02	     1,26375	-87,8	     1,28536	-87,8
      42,022	     1,29017	-90,4	     1,30131	-95,1
     42,0239	      1,2733	-98,7	     1,34247	-95,6
     42,0259	     1,26881	-88,7	     1,32062	-89,8
     42,0279	     1,35985	-101,5	      1,3839	-101,9
     42,0298	     1,35899	-101,5	     1,41494	-100,5
     42,0318	     1,32149	-90,8	     1,32884	-91,9
     42,0337	     1,36398	-95,5	     1,41458	-100,8
     42,0357	     1,31729	-96,2	     1,38678	-93,5
     42,0376	     1,30752	-89,7	     1,35251	-93,1
     42,0396	     1,39768	-99,8	     1,40856	-100,1
     42,0415	     1,38377	-97,7	     1,37702	-91,8
     42,0435	     1,35379	-91,5	     1,38017	-90,8
     42,0455	     1,39202	-98,5	     1,38337	-95,8
     42,0474	     1,40893	-100,1	     1,37822	-90,1
     42,0494	     1,33773	-88,4	     1,36989	-89,8
     42,0513	     1,35584	-92,6	     1,44869	-98,8
     42,0533	     1,39127	-99,8	      1,4446	-97,5
     42,0552	     1,38013	-91,7	     1,38244	-90,1
     42,0572	     1,43143	-96,4	     1,40815	-96,1
     42,0591	     1,44296	-102,3	     1,44111	-91,4
     42,0611	      1,3685	-89,0	     1,41803	-84,7
      42,063	     1,39137	-95,7	     1,49864	-99,4
      42,065	     1,36286	-91,3	     1,50217	-98,9
      42,067	     1,36982	-87,8	     1,43133	-92,3
     42,0689	     1,46823	-100,6	     1,47612	-97,6
     42,0709	     1,42904	-97,1	     1,49827	-99,5
     42,0728	     1,44339	-90,1	     1,41146	-85,9
     42,0748	     1,48034	-98,4	     1,51737	-96,9
     42,0767	     1,47437	-102,5	     1,50977	-93,8
     42,0787	     1,41741	-83,7	     1,44926	-92,9
     42,0806	     1,46783	-90,3	     1,47317	-94,6
     42,0826	     1,43663	-97,5	     1,50054	-89,3
     42,0846	     1,40639	-87,8	      1,4693	-85,6
     42,0865	     1,49182	-99,0	     1,54235	-99,9
     42,0885	     1,49452	-98,2	     1,53579	-98,6
     42,0904	     1,45139	-85,4	     1,46269	-88,5
     42,0924	     1,48748	-89,7	     1,50814	-95,1
     42,0943	     1,49741	-96,6	     1,52764	-87,9
     42,0963	     1,46242	-91,4	     1,50005	-84,1
     42,0982	     1,53138	-93,3	     1,57811	-96,8
     42,1002	     1,52508	-99,2	     1,59562	-92,7
     42,1021	     1,47645	-87,7	     1,52088	-87,3
     42,1041	     1,52529	-86,9	     1,53888	-90,6
     42,1061	     1,49376	-92,9	     1,56528	-91,8
      42,108	     1,48249	-83,8	     1,53413	-88,0
       42,11	     1,57782	-99,4	     1,57699	-99,3
     42,1119	     1,56956	-99,1	     1,60961	-97,9
     42,1139	     1,51506	-87,2	     1,59806	-94,0
     42,1158	      1,5616	-91,3	     1,58095	-92,1
     42,1178	     1,60289	-97,5	     1,61105	-97,2
     42,1197	     1,52723	-84,1	     1,56352	-84,5
     42,1217	     1,54007	-84,3	     1,55997	-84,4
     42,1237	     1,58231	-94,5	     1,63819	-94,7
     42,1256	     1,56489	-91,2	     1,61882	-91,2
     42,1276	     1,59427	-89,7	     1,57597	-88,2
     42,1295	     1,62665	-90,1	     1,65742	-94,6
     42,1315	      1,5601	-83,7	      1,6237	-88,8
     42,1334	     1,55538	-87,4	     1,62667	-92,8
     42,1354	     1,60434	-88,2	     1,66355	-97,1
     42,1373	     1,57061	-90,6	     1,61517	-85,2
     42,1393	     1,55268	-87,0	     1,62007	-83,3
     42,1413	     1,65895	-95,1	     1,63791	-89,9
     42,1432	     1,65459	-96,6	     1,67594	-88,2
     42,1452	     1,58703	-82,9	     1,64969	-81,5
     42,1471	     1,62327	-85,8	     1,72143	-95,5
     42,1491	     1,64612	-91,2	     1,74945	-93,1
      42,151	      1,6506	-86,6	     1,65836	-83,1
      42,153	      1,6816	-85,7	     1,67294	-87,8
     42,1549	     1,70421	-92,5	     1,76076	-91,9
     42,1569	     1,61053	-88,5	     1,72736	-87,3
     42,1588	     1,66124	-86,8	     1,71469	-90,3
     42,1608	     1,66329	-94,3	     1,71669	-86,8
     42,1628	     1,64697	-89,3	      1,7044	-83,8
     42,1647	     1,69382	-86,6	     1,76159	-93,2
     42,1667	     1,72273	-90,9	     1,78154	-90,5
     42,1686	     1,66095	-81,5	     1,75528	-86,8
     42,1706	     1,66739	-81,3	     1,73121	-87,5
     42,1725	      1,7593	-91,2	     1,77412	-92,6
     42,1745	     1,73671	-91,2	     1,75096	-84,5
     42,1764	     1,71646	-87,3	      1,7329	-83,1
     42,1784	       1,751	-83,6	     1,81465	-96,3
     42,1804	     1,71655	-86,8	     1,80169	-90,8
     42,1823	     1,68895	-79,8	     1,76112	-86,9
     42,1843	     1,80622	-90,0	     1,80077	-92,3
     42,1862	     1,78355	-92,7	     1,77074	-82,4
     42,1882	     1,75082	-80,1	     1,76521	-80,6
     42,1901	     1,77359	-84,8	     1,78379	-83,2
     42,1921	     1,78298	-95,5	     1,85704	-86,4
      42,194	     1,74443	-86,3	     1,83003	-83,8
      42,196	     1,77599	-84,1	     1,83303	-88,3
     42,1979	     1,80321	-88,6	     1,87303	-89,8
     42,1999	     1,74055	-83,1	     1,84036	-79,4
     42,2019	     1,83667	-89,4	     1,82977	-82,7
     42,2038	     1,85706	-89,4	     1,91568	-88,6
     42,2058	     1,83969	-88,8	     1,90574	-87,6
     42,2077	     1,80259	-84,3	     1,87468	-86,7
     42,2097	      1,8532	-80,9	     1,92291	-91,3
     42,2116	     1,80678	-83,9	     1,87046	-80,7
     42,2136	     1,81503	-81,0	     1,86235	-81,0
     42,2155	     1,89644	-88,0	     1,94619	-88,8
     42,2175	     1,91089	-89,3	     1,95526	-85,6
     42,2195	     1,84692	-76,3	     1,93004	-80,8
     42,2214	     1,88895	-83,9	     1,94923	-86,1
     42,2234	     1,88823	-91,2	     1,98582	-88,7
     42,2253	     1,85974	-82,2	     1,91776	-77,5
     42,2273	      1,9192	-84,1	     1,92426	-77,4
     42,2292	     1,93801	-86,5	      2,0279	-88,7
     42,2312	     1,88504	-79,2	     2,03734	-85,5
     42,2331	     1,90414	-76,0	     1,96138	-80,8
     42,2351	     1,97595	-94,3	     1,99831	-85,2
      42,237	     1,93223	-86,9	     2,02121	-80,9
      42,239	      1,9319	-76,5	     1,99622	-79,3
      42,241	     1,98131	-83,2	     2,03688	-84,8
     42,2429	      1,9502	-86,4	     2,07282	-88,6
     42,2449	     1,93391	-84,3	      2,0118	-76,0
     42,2468	     2,00628	-81,4	     2,02697	-80,9
     42,2488	     2,03526	-81,4	     2,09165	-82,0
     42,2507	     1,96139	-76,7	     2,06355	-78,5
     42,2527	     1,98417	-76,0	     2,09113	-84,5
     42,2546	     2,03802	-84,2	      2,1202	-85,8
     42,2566	     2,01209	-84,8	     2,08791	-77,5
     42,2586	     1,97891	-77,1	     2,08079	-75,9
     42,2605	     2,04629	-79,1	     2,16026	-86,7
     42,2625	     2,01364	-82,3	     2,17167	-84,4
     42,2644	     2,01696	-79,8	     2,14446	-77,9
     42,2664	     2,09395	-80,9	      2,1315	-81,3
     42,2683	     2,10982	-83,0	     2,17391	-85,6
     42,2703	     2,02745	-75,7	     2,13888	-74,8
     42,2722	     2,04344	-80,8	     2,14631	-74,8
     42,2742	     2,12513	-86,3	     2,23273	-83,6
     42,2761	     2,10098	-83,8	     2,23716	-80,3
     42,2781	     2,06709	-79,6	     2,17531	-74,8
     42,2801	     2,14644	-76,7	     2,19741	-75,9
      42,282	     2,18062	-80,6	     2,26098	-78,6
      42,284	     2,08594	-75,9	     2,24417	-74,6
     42,2859	     2,12118	-71,5	     2,27269	-82,6
     42,2879	     2,22366	-77,3	     2,30531	-83,1
     42,2898	     2,20407	-83,7	     2,25696	-74,1
     42,2918	     2,16068	-75,0	     2,24524	-73,7
     42,2937	     2,19599	-70,7	     2,35171	-82,5
     42,2957	     2,19186	-79,0	     2,37493	-80,8
     42,2977	     2,18429	-75,5	     2,26572	-72,6
     42,2996	     2,27055	-77,4	     2,28247	-76,5
     42,3016	     2,29639	-79,7	     2,38134	-78,2
     42,3035	     2,21639	-73,4	      2,3625	-74,9
     42,3055	     2,21813	-74,8	     2,33382	-75,6
     42,3074	     2,29441	-75,8	     2,37925	-78,5
     42,3094	     2,26887	-82,6	     2,37036	-71,9
     42,3113	       2,258	-69,9	     2,34607	-67,7
     42,3133	     2,30874	-71,7	     2,34294	-71,6
     42,3153	     2,35803	-80,1	     2,45368	-76,2
     42,3172	      2,2691	-69,9	     2,38238	-68,1
     42,3192	     2,28904	-69,2	     2,40401	-71,0
     42,3211	     2,36938	-77,9	     2,49904	-76,6
     42,3231	     2,35253	-77,7	     2,50174	-73,8
      42,325	     2,30642	-66,9	     2,44659	-71,6
      42,327	     2,33016	-66,2	     2,49698	-75,7
     42,3289	     2,38893	-78,3	      2,5254	-76,8
     42,3309	     2,38448	-76,0	     2,49959	-69,1
     42,3328	     2,37694	-67,1	      2,4937	-69,4
     42,3348	     2,43573	-71,5	     2,58165	-75,8
     42,3368	     2,41762	-78,4	     2,59926	-75,7
     42,3387	     2,39865	-66,3	     2,51499	-67,7
     42,3407	     2,48666	-76,6	     2,53454	-70,1
     42,3426	     2,48554	-75,5	      2,6203	-73,3
     42,3446	     2,41934	-68,0	     2,62116	-69,8
     42,3465	      2,4362	-68,4	     2,57827	-67,1
     42,3485	     2,52026	-74,0	     2,61721	-72,2
     42,3504	     2,51411	-73,5	     2,64574	-66,1
     42,3524	     2,48098	-67,5	     2,63498	-62,6
     42,3544	     2,51855	-65,2	     2,67695	-72,6
     42,3563	     2,53088	-72,8	     2,71808	-72,2
     42,3583	     2,51809	-68,1	     2,65474	-62,3
     42,3602	       2,576	-68,4	     2,65791	-64,2
     42,3622	      2,6211	-67,4	     2,76337	-71,5
     42,3641	     2,54973	-63,8	     2,76457	-69,9
     42,3661	     2,55196	-65,1	     2,69476	-64,3
      42,368	     2,66596	-68,7	     2,79057	-71,2
       42,37	     2,67759	-68,7	     2,80866	-70,3
     42,3719	     2,58368	-63,7	     2,74691	-62,4
     42,3739	     2,59672	-64,1	     2,74077	-63,2
     42,3759	     2,70887	-70,0	     2,84622	-69,0
     42,3778	     2,70748	-67,6	     2,84238	-66,9
     42,3798	     2,63553	-59,8	     2,76882	-61,5
     42,3817	     2,66703	-64,3	     2,79173	-63,3
     42,3837	     2,73114	-67,7	     2,83811	-65,6
     42,3856	     2,70793	-69,4	     2,85167	-59,0
     42,3876	      2,7242	-62,1	     2,84236	-60,0
     42,3895	     2,76247	-61,3	     2,89027	-66,5
     42,3915	     2,79632	-68,4	     2,93746	-64,9
     42,3935	     2,71431	-60,7	     2,86006	-58,2
     42,3954	     2,72506	-57,6	      2,8593	-56,0
     42,3974	     2,82183	-65,8	     2,96124	-64,0
     42,3993	     2,74065	-57,8	     2,98786	-61,4
     42,4013	     2,76281	-56,3	     2,90883	-57,4
     42,4032	     2,79854	-53,5	     2,92503	-57,5
     42,4052	     2,84708	-62,4	     3,01404	-60,1
     42,4071	      2,8111	-59,7	     2,99883	-58,5
     42,4091	     2,85779	-57,5	     2,97592	-60,7
      42,411	      2,8792	-60,5	     3,01252	-63,3
      42,413	     2,82005	-61,9	     3,04083	-57,7
      42,415	      2,8251	-57,5	     3,02695	-55,8
     42,4169	     2,93562	-61,7	     3,00953	-55,6
     42,4189	     2,94761	-60,4	     3,10115	-60,6
     42,4208	     2,85616	-58,7	      3,1137	-54,8
     42,4228	     2,88287	-54,9	     3,00866	-54,3
     42,4247	     2,90841	-51,2	     3,03919	-56,1
     42,4267	     2,95705	-60,3	     3,12053	-55,6
     42,4286	     2,93663	-62,4	     3,09398	-53,2
     42,4306	     2,96177	-52,2	      3,0853	-51,7
     42,4326	     2,99348	-52,7	     3,13955	-57,3
     42,4345	     2,98209	-63,1	     3,17444	-56,8
     42,4365	      2,9563	-56,9	     3,09955	-48,1
     42,4384	     3,04551	-54,1	     3,08633	-49,2
     42,4404	     3,06159	-55,9	     3,19538	-54,6
     42,4423	      2,9969	-53,9	     3,20106	-52,6
     42,4443	     3,00091	-50,5	     3,11455	-46,8
     42,4462	     3,11294	-53,5	     3,11438	-48,8
     42,4482	     3,10755	-56,0	     3,22541	-52,5
     42,4501	     3,03455	-48,9	     3,22735	-48,9
     42,4521	     3,04659	-47,6	     3,15596	-47,3
     42,4541	      3,1312	-56,8	      3,1738	-50,7
      42,456	     3,12385	-53,9	     3,25016	-46,1
      42,458	     3,09029	-47,2	     3,23744	-45,4
     42,4599	     3,12489	-47,7	     3,21298	-49,5
     42,4619	     3,17442	-48,9	     3,24371	-50,7
     42,4638	     3,13173	-49,5	     3,27393	-44,0
     42,4658	     3,10423	-47,3	     3,25325	-45,1
     42,4677	     3,20648	-43,9	     3,24596	-52,0
     42,4697	      3,2191	-48,5	     3,26534	-49,6
     42,4717	     3,16789	-49,6	     3,27305	-43,7
     42,4736	     3,16853	-43,9	     3,25667	-42,9
     42,4756	     3,26431	-51,0	     3,24711	-42,7
     42,4775	     3,26391	-47,0	     3,34345	-47,6
     42,4795	     3,20179	-43,3	     3,35467	-44,9
     42,4814	     3,21547	-43,6	     3,27229	-43,9
     42,4834	     3,25097	-41,7	     3,25162	-43,6
     42,4853	     3,26771	-48,5	     3,37074	-44,6
     42,4873	     3,25084	-46,1	     3,36773	-43,5
     42,4892	     3,26944	-40,8	     3,27347	-41,6
     42,4912	     3,30832	-44,7	     3,28918	-41,1
     42,4932	     3,28532	-49,1	     3,39559	-43,7
     42,4951	     3,27901	-40,4	     3,31289	-38,0
     42,4971	     3,31766	-40,4	     3,31788	-36,2
      42,499	     3,34791	-42,7	     3,33069	-41,4
      42,501	     3,28695	-43,4	     3,41001	-37,6
     42,5029	     3,26802	-39,0	     3,37905	-36,5
     42,5049	      3,3633	-40,7	     3,33532	-40,2
     42,5068	     3,38938	-43,0	      3,3796	-42,0
     42,5088	     3,28746	-42,3	     3,41338	-33,7
     42,5108	     3,28383	-38,3	     3,39585	-36,2
     42,5127	     3,37793	-37,2	     3,35763	-34,4
     42,5147	     3,40125	-43,3	     3,37945	-39,5
     42,5166	      3,3184	-39,8	     3,43626	-34,4
     42,5186	     3,32001	-36,4	      3,3928	-32,0
     42,5205	     3,42704	-37,0	     3,37995	-36,7
     42,5225	     3,44331	-35,6	     3,40779	-35,3
     42,5244	     3,33826	-30,8	     3,40952	-30,3
     42,5264	     3,35131	-35,2	     3,37451	-31,5
     42,5283	     3,44561	-34,6	     3,40264	-37,9
     42,5303	     3,42934	-36,6	     3,41945	-33,8
     42,5323	     3,34125	-34,4	     3,41061	-30,7
     42,5342	     3,37656	-27,4	     3,36819	-29,6
     42,5362	     3,40635	-31,0	     3,40532	-33,0
     42,5381	     3,42232	-37,2	     3,43304	-34,0
     42,5401	     3,40559	-28,4	     3,43928	-32,7
      42,542	     3,41954	-29,9	     3,36755	-27,5
      42,544	     3,42953	-29,9	     3,34924	-28,8
     42,5459	     3,37282	-33,5	     3,42427	-33,2
     42,5479	     3,36723	-32,2	     3,43767	-29,5
     42,5499	     3,42672	-25,2	     3,35486	-27,9
     42,5518	     3,44672	-25,7	     3,35324	-26,3
     42,5538	     3,39998	-30,4	     3,44356	-29,6
     42,5557	     3,37969	-27,8	     3,45162	-28,7
     42,5577	     3,45793	-25,4	     3,37088	-26,8
     42,5596	     3,46802	-27,0	      3,3514	-24,5
     42,5616	     3,46235	-29,0	     3,43096	-26,9
     42,5635	     3,38037	-27,0	      3,4412	-26,2
     42,5655	     3,38343	-20,3	     3,34988	-25,4
     42,5674	     3,47196	-24,3	     3,34197	-25,7
     42,5694	     3,45875	-28,8	     3,43266	-26,3
     42,5714	     3,39161	-22,9	      3,4381	-24,0
     42,5733	     3,40286	-22,2	     3,41049	-24,3
     42,5753	     3,43989	-20,7	     3,35966	-24,5
     42,5772	     3,44034	-27,3	     3,37558	-27,9
     42,5792	     3,42384	-22,2	     3,40969	-22,3
     42,5811	      3,4099	-20,6	      3,3874	-20,9
     42,5831	     3,47775	-27,0	     3,36013	-26,6
      42,585	     3,45465	-23,8	     3,37592	-23,5
      42,587	     3,38623	-21,1	      3,4076	-19,7
      42,589	     3,38502	-18,4	     3,39081	-19,5
     42,5909	     3,46861	-23,8	     3,33445	-21,7
     42,5929	      3,4707	-20,4	     3,34289	-23,3
     42,5948	     3,35659	-21,0	     3,40642	-18,8
     42,5968	     3,35934	-18,4	      3,3732	-17,0
     42,5987	     3,42998	-20,8	     3,32347	-20,9
     42,6007	     3,41728	-21,3	      3,3497	-22,3
     42,6026	      3,3432	-18,2	     3,35712	-16,5
     42,6046	     3,33904	-17,2	     3,35106	-17,1
     42,6065	       3,427	-20,3	     3,29406	-19,5
     42,6085	     3,41499	-20,5	     3,31173	-21,0
     42,6105	     3,33395	-16,6	     3,35557	-15,8
     42,6124	      3,3349	-17,4	     3,34182	-16,9
     42,6144	      3,4241	-16,9	     3,25159	-17,2
     42,6163	     3,40775	-19,9	     3,26807	-17,8
     42,6183	     3,30692	-16,3	     3,35764	-17,4
     42,6202	     3,31176	-14,5	     3,35244	-16,6
     42,6222	     3,32564	-14,2	     3,24158	-13,6
     42,6241	     3,38534	-19,7	     3,24194	-16,2
     42,6261	     3,35933	-17,9	     3,31833	-14,2
     42,6281	     3,28933	-12,1	     3,32424	-14,3
       42,63	     3,30119	-11,6	     3,20945	-11,1
      42,632	     3,36768	-14,9	     3,21817	-13,8
     42,6339	     3,36639	-15,7	     3,29563	-13,9
     42,6359	     3,27531	-12,8	     3,30289	-12,6
     42,6378	     3,27314	-11,4	     3,20147	-8,8
     42,6398	     3,36363	-10,8	     3,18914	-10,9
     42,6417	     3,34353	-15,2	     3,25121	-15,5
     42,6437	     3,24624	-14,7	     3,25778	-16,2
     42,6456	     3,26036	-11,7	     3,17989	-10,6
     42,6476	     3,33803	-12,6	     3,17041	-9,0
     42,6496	     3,32141	-9,2	     3,21053	-13,9
     42,6515	     3,22119	-8,5	     3,22438	-11,0
     42,6535	      3,2237	-9,2	     3,17119	-8,2
     42,6554	     3,31426	-7,8	     3,14394	-6,8
     42,6574	     3,30777	-8,5	      3,1743	-11,3
     42,6593	     3,21254	-10,2	     3,17453	-10,7
     42,6613	     3,19438	-8,7	     3,16233	-5,6
     42,6632	     3,25344	-7,0	     3,13728	-5,0
     42,6652	     3,25507	-6,8	     3,10833	-9,2
     42,6672	     3,17233	-10,5	     3,10858	-11,8
     42,6691	     3,15308	-8,7	     3,16705	-5,7
     42,6711	     3,14155	-2,5	      3,1465	-6,1
      42,673	     3,23796	-4,8	     3,05156	-6,6
      42,675	     3,22505	-5,2	     3,06302	-9,1
     42,6769	     3,11575	-7,0	      3,1542	-6,1
     42,6789	     3,17586	-2,2	     3,14453	-6,6
     42,6808	     3,19519	-5,5	     3,03702	-6,2
     42,6828	     3,13853	-9,3	     3,00163	-4,8
     42,6847	     3,10588	-3,9	     3,09302	-7,1
     42,6867	     3,07679	-5,4	     3,09952	-6,6
     42,6887	     3,15721	-2,6	     3,01363	-3,8
     42,6906	     3,15771	-0,9	     3,01044	-3,6
     42,6926	     3,07702	-5,5	     3,06568	-7,9
     42,6945	     3,05752	-3,6	     3,07429	-7,4
     42,6965	     3,10288	-1,0	      3,0219	-0,2
     42,6984	     3,10554	 1,4	      2,9886	-3,2
     42,7004	     3,08741	-7,0	     2,98701	-6,6
     42,7023	     3,04551	-2,9	     2,99325	-6,2
     42,7043	     3,01557	-1,3	     3,01042	-0,6
     42,7063	     3,04326	 3,9	     2,98066	 0,4
     42,7082	     3,06236	-1,2	     2,94873	 2,2
     42,7102	     3,03288	-4,3	     2,97849	-4,1
     42,7121	     3,00819	 0,2	     2,98297	-2,9
     42,7141	     3,01599	 1,1	     2,95117	 0,6
      42,716	     3,01948	 5,5	      2,9321	 1,4
      42,718	     3,02754	-1,3	      2,9219	-0,1
     42,7199	     2,94004	 1,8	     2,94197	-1,4
     42,7219	     2,95654	 2,2	     2,92128	 2,8
     42,7239	     2,96819	 5,3	     2,89459	 2,9
     42,7258	     3,01611	 1,5	     2,87114	-2,2
     42,7278	     3,00359	 3,0	     2,85873	-0,1
     42,7297	     2,90116	 4,8	      2,9197	 3,1
     42,7317	     2,90817	 5,4	     2,91307	 5,4
     42,7336	     2,99381	 2,4	     2,82921	 2,7
     42,7356	     2,97849	 0,7	     2,81958	 0,3
     42,7375	     2,86587	 3,4	     2,83052	 0,2
     42,7395	     2,87372	 6,2	     2,89083	 5,4
     42,7414	     2,95852	 7,3	     2,85317	 6,7
     42,7434	     2,95961	 5,6	     2,78862	 4,3
     42,7454	     2,86137	 5,9	     2,78703	 2,7
     42,7473	     2,83409	 5,1	     2,85544	 4,8
     42,7493	     2,89314	 5,8	     2,86081	 5,0
     42,7512	      2,8986	 6,7	      2,7525	 6,0
     42,7532	     2,82341	 3,5	     2,75993	 5,7
     42,7551	     2,80538	 6,5	     2,75686	 5,1
     42,7571	     2,79422	 6,1	     2,82437	 4,6
      42,759	     2,84786	 9,3	     2,80416	 7,7
      42,761	     2,85859	 6,5	     2,69599	 7,1
      42,763	     2,79294	 4,4	     2,68877	 5,4
     42,7649	     2,77865	 3,1	     2,77369	 7,3
     42,7669	     2,78434	11,2	     2,78354	 8,0
     42,7688	      2,8001	 8,6	     2,68625	 8,6
     42,7708	     2,77863	 2,8	     2,67681	 9,7
     42,7727	     2,76411	 6,5	     2,73265	 6,3
     42,7747	     2,70616	10,2	     2,73855	 5,2
     42,7766	     2,70341	 8,2	     2,69021	 9,9
     42,7786	     2,79345	 6,6	     2,66092	11,1
     42,7805	     2,79381	 6,7	     2,63408	 5,7
     42,7825	     2,68663	 8,0	     2,63085	 4,2
     42,7845	     2,69509	 9,3	     2,68388	11,0
     42,7864	     2,77141	 7,2	     2,67893	 9,9
     42,7884	     2,75857	 7,4	     2,58582	10,3
     42,7903	     2,74668	10,0	     2,58114	 9,3
     42,7923	     2,62406	 8,8	     2,58611	 6,4
     42,7942	     2,61898	 9,0	     2,66583	10,7
     42,7962	     2,70318	11,3	     2,63686	 8,3
     42,7981	     2,67497	 8,0	     2,54672	10,9
     42,8001	     2,64373	10,8	      2,5264	 8,9
     42,8021	     2,61832	12,3	     2,62591	 9,8
      42,804	     2,61607	14,9	     2,63019	11,8
      42,806	     2,62007	14,6	      2,5252	 9,6
     42,8079	     2,63978	10,6	     2,51838	10,2
     42,8099	     2,62157	10,1	     2,51338	11,0
     42,8118	     2,54586	15,5	     2,58218	 9,3
     42,8138	      2,5209	14,7	     2,57617	 9,9
     42,8157	     2,61775	12,5	     2,49478	13,8
     42,8177	     2,60561	11,3	     2,47708	14,1
     42,8196	     2,51292	12,7	     2,50877	11,6
     42,8216	     2,50375	14,3	     2,49673	10,9
     42,8236	      2,5664	16,4	     2,52617	16,1
     42,8255	      2,5664	15,3	      2,5166	14,9
     42,8275	     2,52496	11,7	     2,43797	15,1
     42,8294	     2,49943	11,9	     2,42213	12,1
     42,8314	     2,51026	16,2	     2,51847	12,8
     42,8333	     2,49729	16,4	     2,50544	15,7
     42,8353	      2,5259	15,0	     2,40494	16,2
     42,8372	     2,51865	13,1	     2,38003	14,8
     42,8392	      2,4236	16,2	     2,45755	12,5
     42,8412	     2,42536	16,1	     2,45538	11,7
     42,8431	     2,51697	15,6	     2,39406	17,5
     42,8451	     2,50097	12,7	     2,36964	16,7
      42,847	     2,39781	14,0	     2,36318	15,2
      42,849	     2,38831	14,2	     2,42509	16,0
     42,8509	     2,39119	13,9	     2,43228	10,3
     42,8529	     2,46604	15,0	     2,40042	17,4
     42,8548	     2,47057	16,7	     2,38847	15,9
     42,8568	     2,40695	13,4	     2,33596	13,8
     42,8587	     2,39092	16,1	     2,33031	15,7
     42,8607	     2,34143	18,4	      2,4276	14,5
     42,8627	     2,45008	17,2	     2,40499	13,9
     42,8646	      2,4338	17,5	     2,30549	17,5
     42,8666	     2,32684	16,0	     2,30798	17,8
     42,8685	     2,31609	16,8	     2,34095	14,4
     42,8705	      2,2908	21,0	      2,3463	14,4
     42,8724	     2,36699	19,6	     2,32375	17,1
     42,8744	     2,36667	19,6	       2,296	19,3
     42,8763	     2,29532	17,2	     2,24952	16,5
     42,8783	     2,28788	18,8	     2,23988	16,7
     42,8803	     2,28767	20,8	     2,32641	18,2
     42,8822	     2,28315	22,9	     2,29959	21,6
     42,8842	     2,32782	16,5	     2,20011	18,9
     42,8861	     2,30913	16,6	     2,18403	21,5
     42,8881	     2,22243	20,1	     2,18935	17,8
       42,89	     2,22439	19,4	     2,29729	17,8
      42,892	      2,2949	21,0	     2,30949	20,2
     42,8939	     2,29648	17,2	     2,22494	20,7
     42,8959	     2,27096	17,8	       2,203	20,0
     42,8979	     2,17588	19,4	     2,21592	19,0
     42,8998	     2,19349	20,0	      2,2234	13,8
     42,9018	     2,20118	21,7	     2,24914	17,9
     42,9037	     2,27945	18,8	     2,22997	19,7
     42,9057	     2,27891	18,7	     2,19226	21,9
     42,9076	      2,1673	20,5	     2,15068	17,6
     42,9096	     2,15655	22,3	     2,13928	16,5
     42,9115	     2,20089	21,6	     2,22964	18,7
     42,9135	     2,19675	25,0	     2,22079	18,5
     42,9154	       2,196	18,6	     2,11438	21,8
     42,9174	     2,16951	16,4	     2,09999	23,0
     42,9194	     2,12742	24,9	     2,14841	18,6
     42,9213	     2,12424	23,1	     2,15508	20,5
     42,9233	     2,12945	24,2	     2,15814	22,5
     42,9252	     2,19283	21,1	     2,11132	22,6
     42,9272	     2,18738	21,3	     2,07791	21,0
     42,9291	     2,08063	22,6	     2,08028	20,3
     42,9311	     2,12813	23,9	      2,1578	21,6
      42,933	     2,11817	23,4	     2,14361	22,5
      42,935	     2,14369	20,3	     2,04065	23,3
      42,937	      2,1463	16,3	     2,04191	25,5
     42,9389	     2,05405	22,6	     2,05915	19,9
     42,9409	     2,05173	24,2	     2,07164	18,7
     42,9428	      2,0507	23,2	     2,09721	23,8
     42,9448	     2,14937	21,2	     2,08571	21,8
     42,9467	     2,14969	21,2	     2,01545	24,1
     42,9487	     2,03517	22,6	     2,01411	20,5
     42,9506	      2,0129	22,4	      1,9929	21,5
     42,9526	     2,02801	25,5	     2,08102	19,1
     42,9545	     2,02169	27,4	     2,02299	23,0
     42,9565	     2,06548	21,2	      1,9938	25,3
     42,9585	     2,02872	23,4	     1,98651	27,8
     42,9604	     2,01303	23,5	     1,95525	22,3
     42,9624	     1,94243	26,3	     1,95689	23,8
     42,9643	     2,04803	26,8	     2,02653	23,3
     42,9663	     2,04973	23,8	     2,02144	26,9
     42,9682	     1,99153	23,8	     1,91271	27,0
     42,9702	     1,98332	23,6	     1,93016	27,7
     42,9721	     1,94145	26,5	     1,99854	25,5
     42,9741	     1,93582	25,8	     2,02183	22,2
     42,9761	     2,02559	24,8	     1,98856	26,4
      42,978	     2,02324	23,9	     1,98677	25,2
       42,98	     1,94446	24,5	     1,91111	25,4
     42,9819	     1,93226	23,2	     1,90027	23,7
     42,9839	     1,92411	27,2	     1,99295	20,4
     42,9858	      1,9204	28,0	     1,98354	23,7
     42,9878	     1,92208	29,8	     1,92341	24,7
     42,9897	     1,97857	24,3	     1,90142	26,1
     42,9917	     1,88141	25,5	     1,89701	24,3
     42,9936	     1,87462	27,4	     1,88917	23,0
     42,9956	     1,91794	29,1	     1,96092	27,4
     42,9976	     1,92634	29,9	     1,95661	23,7
     42,9995	     1,91481	27,4	     1,85627	26,7
     43,0015	     1,92418	24,1	     1,85654	29,3
     43,0034	     1,91342	23,9	     1,84888	23,3
     43,0054	     1,83084	28,5	     1,86665	25,9
     43,0073	     1,82309	26,8	     1,91813	27,6
     43,0093	     1,91512	25,8	     1,90344	28,7
     43,0112	     1,92009	27,0	     1,89716	24,7
     43,0132	     1,85313	25,6	     1,79709	25,7
     43,0152	     1,86048	25,2	     1,78616	26,0
     43,0171	     1,79258	28,7	     1,86524	22,9
     43,0191	     1,79334	32,9	     1,84394	25,0
      43,021	     1,88855	27,4	     1,85652	26,5
      43,023	     1,88297	29,0	     1,84274	27,8
     43,0249	      1,8255	27,3	     1,76592	28,3
     43,0269	     1,81764	27,9	     1,76718	28,4
     43,0288	     1,78769	33,7	     1,85524	25,1
     43,0308	     1,77622	30,5	      1,8358	27,2
     43,0327	     1,86207	29,2	      1,7612	31,5
     43,0347	     1,85794	26,7	     1,75061	31,3
     43,0367	     1,77558	26,0	     1,75435	31,2
     43,0386	     1,78074	25,0	     1,76491	25,7
     43,0406	     1,76368	31,8	     1,77756	27,3
     43,0425	     1,75198	28,8	      1,8042	28,6
     43,0445	     1,81654	25,4	     1,80009	28,3
     43,0464	     1,82251	25,1	     1,69562	28,2
     43,0484	     1,81253	27,9	     1,69867	29,4
     43,0503	      1,7062	31,4	      1,7674	23,5
     43,0523	     1,68999	31,1	     1,77119	25,5
     43,0543	     1,75526	30,9	     1,77924	30,4
     43,0562	     1,74231	31,9	     1,75765	29,6
     43,0582	     1,78863	29,5	      1,6591	31,3
     43,0601	     1,78434	28,2	     1,66021	29,8
     43,0621	       1,685	30,2	     1,74805	25,2
      43,064	       1,719	34,3	     1,75606	28,0
      43,066	     1,69739	31,3	     1,76876	29,7
     43,0679	     1,71428	30,2	      1,7147	32,3
     43,0699	     1,73188	27,2	     1,70517	30,2
     43,0718	     1,73359	27,2	     1,66348	26,0
     43,0738	     1,64112	30,8	     1,64324	29,0
     43,0758	     1,63816	33,2	     1,72955	26,7
     43,0777	     1,73383	30,5	       1,707	28,8
     43,0797	     1,72225	31,0	     1,68563	30,0
     43,0816	     1,70674	27,5	     1,66207	33,4
     43,0836	     1,69589	28,6	     1,60426	30,4
     43,0855	     1,60561	33,6	     1,60016	30,3
     43,0875	     1,61563	33,6	     1,69244	30,7
     43,0894	     1,70785	33,9	      1,7168	30,9
     43,0914	     1,69714	32,0	     1,65172	33,1
     43,0934	      1,6645	30,4	     1,65752	31,5
     43,0953	     1,66027	26,4	      1,5866	32,1
     43,0973	     1,66576	29,1	      1,5776	27,7
     43,0992	     1,58428	30,5	      1,6764	27,3
     43,1012	     1,67549	30,6	     1,64986	28,1
     43,1031	     1,65364	32,0	     1,63766	31,5
     43,1051	      1,6513	32,7	      1,6343	32,8
      43,107	     1,63185	31,7	     1,54227	33,5
      43,109	     1,62065	30,9	     1,54303	30,6
     43,1109	     1,56568	36,5	     1,63469	29,2
     43,1129	     1,53744	33,5	     1,63718	29,4
     43,1149	     1,62124	35,4	     1,61218	32,1
     43,1168	     1,62609	32,8	     1,62461	35,0
     43,1188	     1,62306	27,8	     1,52608	34,6
     43,1207	     1,63419	28,7	     1,53716	34,5
     43,1227	     1,52226	31,5	     1,59424	32,1
     43,1246	     1,53466	31,4	     1,57417	25,2
     43,1266	     1,57002	34,8	      1,6237	29,6
     43,1285	     1,57027	33,4	     1,61175	30,8
     43,1305	     1,62643	31,8	     1,50016	35,4
     43,1325	     1,60999	33,6	       1,504	35,0
     43,1344	     1,50161	36,2	      1,5414	30,2
     43,1364	     1,48605	34,1	     1,54894	33,0
     43,1383	      1,5312	36,3	     1,60241	32,8
     43,1403	     1,54324	36,1	     1,61632	33,5
     43,1422	     1,60161	30,9	      1,4992	39,5
     43,1442	     1,60658	29,3	     1,49627	35,7
     43,1461	     1,50438	30,0	     1,48554	33,6
     43,1481	     1,52079	31,3	     1,52003	30,5
       43,15	     1,47196	35,1	     1,52152	30,5
      43,152	     1,46976	36,6	     1,57752	31,0
      43,154	     1,57878	34,2	     1,56931	31,2
     43,1559	     1,56493	35,2	     1,46211	33,6
     43,1579	     1,49553	34,6	     1,45685	35,3
     43,1598	     1,49141	31,3	     1,49659	31,5
     43,1618	     1,48553	29,4	     1,48524	33,9
     43,1637	     1,43069	36,8	     1,54973	32,0
     43,1657	     1,52071	34,4	     1,54979	32,4
     43,1676	     1,52068	33,8	     1,49421	37,2
     43,1696	     1,52128	30,1	     1,49553	33,7
     43,1716	     1,53325	29,6	     1,43235	32,5
     43,1735	     1,43671	32,5	     1,42624	31,6
     43,1755	     1,43913	34,4	     1,52126	28,5
     43,1774	     1,46415	37,4	     1,51754	30,5
     43,1794	     1,45523	36,7	     1,46134	35,8
     43,1813	     1,50397	33,9	     1,45085	34,5
     43,1833	     1,50711	31,9	     1,44991	36,7
     43,1852	     1,49787	32,7	     1,37736	36,8
     43,1872	      1,4121	32,4	     1,44544	31,7
     43,1891	     1,41924	33,3	     1,43507	30,6
     43,1911	     1,41264	35,7	     1,43425	32,2
     43,1931	     1,40976	37,9	     1,47589	35,4
      43,195	     1,49397	34,5	     1,47252	34,6
      43,197	      1,4764	35,0	     1,39118	36,4
     43,1989	     1,43183	35,3	     1,37214	36,1
     43,2009	     1,41048	34,4	     1,39782	29,2
     43,2028	     1,35842	38,5	     1,40208	33,0
     43,2048	     1,35364	38,9	     1,47851	35,0
     43,2067	     1,44592	37,4	     1,47564	33,2
     43,2087	     1,43105	35,0	     1,40728	40,1
     43,2107	     1,41867	30,3	       1,407	35,3
     43,2126	      1,4329	33,3	     1,34493	36,7
     43,2146	     1,33584	35,6	     1,35227	34,9
     43,2165	     1,34916	38,4	     1,44209	30,5
     43,2185	     1,32988	38,5	     1,44391	31,4
     43,2204	     1,40595	39,6	      1,4162	35,6
     43,2224	        1,38	39,2	      1,4082	36,2
     43,2243	     1,41957	34,4	     1,30987	38,3
     43,2263	     1,42671	32,2	     1,30485	37,3
     43,2282	     1,34905	33,0	     1,34568	35,4
     43,2302	     1,37066	34,3	     1,34837	34,3
     43,2322	     1,30338	37,7	     1,43768	33,8
     43,2341	     1,30462	39,8	     1,43597	34,0
     43,2361	     1,39337	39,6	     1,34054	37,2
      43,238	     1,41511	34,2	     1,34105	37,5
       43,24	      1,4013	32,8	     1,34865	39,3
     43,2419	     1,31856	34,6	     1,28673	36,9
     43,2439	     1,34034	34,7	     1,27847	39,7
     43,2458	     1,30447	39,4	       1,363	35,8
     43,2478	     1,29847	39,6	     1,38684	38,7
     43,2498	     1,28086	41,0	     1,40462	37,0
     43,2517	     1,36301	37,5	     1,30653	38,5
     43,2537	     1,34741	37,6	     1,31811	37,2
     43,2556	     1,36306	35,2	     1,28851	33,6
     43,2576	     1,35349	33,1	     1,26354	40,1
     43,2595	      1,2691	40,8	     1,36523	32,8
     43,2615	     1,24545	37,5	     1,34479	36,1
     43,2634	     1,27766	41,5	     1,36188	33,5
     43,2654	     1,27721	40,0	     1,33428	38,3
     43,2673	      1,3562	34,1	     1,34753	38,4
     43,2693	     1,36237	32,8	     1,24522	41,3
     43,2713	     1,28254	36,5	     1,24433	40,4
     43,2732	     1,28388	36,4	     1,27337	36,6
     43,2752	     1,25034	41,7	     1,24341	34,7
     43,2771	      1,2409	42,3	     1,34324	32,3
     43,2791	     1,23123	39,6	     1,34752	39,0
      43,281	     1,32199	38,2	     1,30055	41,7
      43,283	     1,32195	35,5	     1,29871	42,1
     43,2849	     1,30548	34,6	     1,23154	41,0
     43,2869	     1,32062	34,0	     1,21391	38,6
     43,2889	     1,21221	35,4	     1,28885	32,4
     43,2908	      1,2255	38,3	     1,28089	33,7
     43,2928	     1,23794	42,6	     1,31359	35,9
     43,2947	     1,21791	43,9	     1,31849	35,2
     43,2967	     1,31378	38,9	     1,23832	40,5
     43,2986	     1,28237	39,1	      1,2453	41,6
     43,3006	     1,28275	32,4	     1,19586	41,1
     43,3025	      1,2943	33,1	     1,19348	42,3
     43,3045	     1,18904	38,9	     1,27374	34,1
     43,3064	       1,202	38,4	     1,27203	34,2
     43,3084	     1,24644	39,3	     1,26043	35,5
     43,3104	     1,21581	40,7	     1,30685	34,4
     43,3123	     1,31264	37,1	     1,22605	38,6
     43,3143	     1,31085	37,1	     1,22541	41,0
     43,3162	     1,25952	36,7	     1,22549	39,3
     43,3182	     1,26255	34,8	     1,17173	41,0
     43,3201	     1,17185	44,1	     1,16511	39,3
     43,3221	      1,1622	39,8	     1,24112	34,2
      43,324	      1,1766	39,8	     1,23969	34,6
      43,326	      1,2397	41,3	     1,28058	38,7
      43,328	     1,21304	42,2	     1,27989	38,6
     43,3299	     1,27774	38,3	     1,18359	40,5
     43,3319	     1,25849	37,9	     1,17424	40,8
     43,3338	      1,1937	39,1	     1,16233	39,5
     43,3358	     1,19744	35,8	     1,14757	40,7
     43,3377	     1,14372	42,2	     1,22676	35,6
     43,3397	     1,13243	40,8	     1,20786	36,0
     43,3416	      1,2237	39,5	     1,23954	39,5
     43,3436	     1,20185	40,7	     1,23463	37,2
     43,3456	     1,19361	43,0	     1,25509	36,8
     43,3475	     1,25136	39,1	     1,14245	42,8
     43,3495	     1,24948	36,8	     1,13155	43,0
     43,3514	     1,16421	36,5	     1,13876	42,7
     43,3534	     1,19201	34,9	     1,13007	40,0
     43,3553	     1,12209	42,3	     1,22754	38,9
     43,3573	     1,12705	41,5	     1,22436	35,8
     43,3592	     1,19975	39,4	     1,22123	33,5
     43,3612	     1,17758	44,4	      1,2078	38,5
     43,3631	     1,22231	37,3	     1,20381	40,9
     43,3651	     1,22222	38,8	     1,10824	45,0
     43,3671	     1,14855	37,4	     1,12566	45,5
      43,369	     1,16299	34,1	     1,12864	39,9
      43,371	      1,0896	42,7	     1,12414	40,2
     43,3729	     1,10211	39,8	     1,22268	37,8
     43,3749	     1,15399	41,4	     1,20622	34,6
     43,3768	     1,12934	45,5	     1,17853	41,1
     43,3788	     1,21805	36,7	     1,18628	40,2
     43,3807	     1,20239	39,3	     1,09565	43,6
     43,3827	     1,20461	38,0	     1,11011	45,1
     43,3847	     1,14858	35,5	     1,12342	42,8
     43,3866	     1,16419	35,0	     1,10011	39,0
     43,3886	     1,08352	41,3	     1,07804	39,8
     43,3905	     1,09618	40,4	     1,16859	33,1
     43,3925	     1,10911	42,4	     1,15041	37,6
     43,3944	     1,10003	45,0	     1,17441	41,0
     43,3964	     1,18365	39,7	     1,18893	42,4
     43,3983	     1,17382	39,6	     1,08161	47,7
     43,4003	     1,13405	38,2	     1,09483	44,3
     43,4022	     1,15235	35,8	     1,09681	42,1
     43,4042	     1,05224	41,2	     1,08212	38,6
     43,4062	     1,07021	41,2	     1,07375	39,9
     43,4081	     1,08464	44,0	     1,17088	34,9
     43,4101	     1,07637	46,4	     1,15452	35,2
      43,412	     1,05954	44,4	     1,15695	41,5
      43,414	     1,15462	42,4	     1,16858	37,9
     43,4159	     1,12306	40,1	      1,0813	46,5
     43,4179	     1,14287	33,8	     1,09349	43,2
     43,4198	     1,16152	36,0	     1,02575	43,4
     43,4218	     1,07098	39,8	     1,03634	43,2
     43,4238	     1,07961	38,0	      1,0879	38,8
     43,4257	      1,0293	46,3	     1,08172	40,1
     43,4277	     1,01553	44,3	     1,07278	39,6
     43,4296	     1,09298	43,7	     1,17302	37,7
     43,4316	      1,0839	42,4	     1,14618	36,8
     43,4335	     1,14491	37,4	     1,12013	39,0
     43,4355	     1,15446	38,0	     1,02136	43,2
     43,4374	      1,1328	39,5	     1,03417	44,4
     43,4394	      1,0816	39,4	     1,02063	39,3
     43,4413	     1,08857	37,7	     1,00969	44,3
     43,4433	     1,01556	43,9	     1,07686	38,1
     43,4453	     1,02152	39,6	     1,06968	38,4
     43,4472	     1,02147	43,8	     1,05217	37,4
     43,4492	     1,00904	46,4	     1,13857	38,8
     43,4511	     1,08955	42,7	     1,12106	37,8
     43,4531	     1,14399	38,9	     1,07228	43,4
      43,455	     1,13004	40,6	     1,08847	43,2
      43,457	       1,038	39,1	    0,996668	47,0
     43,4589	     1,04743	41,4	     1,01434	45,3
     43,4609	     1,08304	36,0	     0,99705	45,0
     43,4629	    0,998989	41,3	     1,07076	37,8
     43,4648	     1,00967	43,4	     1,05224	37,3
     43,4668	     1,01026	47,1	     1,10417	34,8
     43,4687	    0,982958	46,7	     1,09963	36,9
     43,4707	     1,06426	44,7	     1,05069	43,3
     43,4726	     1,10546	38,7	     1,06744	43,3
     43,4746	     1,10779	38,2	     1,09016	39,9
     43,4765	     1,03886	37,3	     1,00058	44,6
     43,4785	     1,05558	35,5	    0,987581	42,0
     43,4804	      1,0581	40,3	    0,978085	44,3
     43,4824	    0,945942	47,0	    0,959419	47,1
     43,4844	    0,963854	42,0	     1,03021	38,1
     43,4863	    0,988219	49,0	      1,0096	39,5
     43,4883	    0,956764	45,0	     1,08801	37,1
     43,4902	     1,05732	41,5	     1,06588	40,8
     43,4922	     1,03279	44,0	     1,07017	39,0
     43,4941	     1,08454	38,2	    0,988003	45,7
     43,4961	     1,08295	41,4	     1,00727	45,9
      43,498	     1,03451	38,6	     1,03272	46,1
        43,5	     1,13946	40,8	    0,955184	49,0

