X-Data [Hz]	Piezo (M - Filtered) [mV]	Phase [Deg]	Piezo (M - Filtered) [mV]	Phase [Deg]	
	002: [07-10-24 07:33]		003: [07-10-24 07:36]	
        41,5	    0,472716	-103,2	    0,526028	-104,4
      41,502	    0,483427	-104,1	    0,532849	-104,2
     41,5039	    0,498119	-103,4	    0,536532	-104,8
     41,5059	    0,512582	-104,1	    0,535365	-103,7
     41,5078	    0,517834	-103,7	    0,536981	-103,9
     41,5098	    0,523411	-105,6	    0,536458	-103,6
     41,5117	    0,523257	-104,6	    0,537229	-103,8
     41,5137	    0,526931	-104,8	    0,541548	-104,0
     41,5156	    0,527952	-104,4	     0,54088	-103,5
     41,5176	    0,533202	-104,9	    0,545291	-104,5
     41,5196	    0,533872	-104,8	    0,546287	-103,9
     41,5215	     0,53593	-104,0	    0,543383	-104,3
     41,5235	    0,535349	-104,6	    0,545953	-104,5
     41,5254	    0,533418	-103,9	    0,545825	-104,0
     41,5274	    0,537072	-104,1	    0,549807	-104,7
     41,5293	    0,538242	-105,1	    0,550028	-104,0
     41,5313	    0,540615	-103,9	    0,552082	-104,1
     41,5332	    0,541274	-104,3	    0,550654	-103,4
     41,5352	    0,539114	-104,0	    0,552407	-103,9
     41,5371	    0,541203	-104,2	    0,555131	-103,2
     41,5391	     0,54183	-104,0	    0,552334	-103,4
     41,5411	    0,543458	-103,8	    0,555945	-103,9
      41,543	    0,546455	-104,2	    0,556264	-103,3
      41,545	    0,547171	-103,7	    0,557619	-104,3
     41,5469	      0,5489	-104,6	     0,55731	-103,5
     41,5489	    0,547413	-104,0	    0,561406	-103,5
     41,5508	      0,5522	-105,0	    0,561939	-103,4
     41,5528	    0,549669	-104,6	    0,561547	-103,5
     41,5547	      0,5543	-103,5	    0,564522	-104,0
     41,5567	    0,555384	-104,1	    0,565286	-103,2
     41,5587	     0,55408	-103,4	     0,56492	-103,1
     41,5606	     0,55424	-104,5	    0,567065	-102,8
     41,5626	    0,554362	-103,4	    0,568465	-103,3
     41,5645	    0,559491	-103,5	    0,571681	-103,5
     41,5665	    0,560256	-103,8	    0,570023	-103,4
     41,5684	    0,557522	-103,8	     0,57058	-103,9
     41,5704	    0,559665	-104,3	    0,576505	-103,7
     41,5723	    0,559975	-103,5	    0,577354	-103,1
     41,5743	    0,564683	-104,2	    0,577599	-102,4
     41,5762	    0,564033	-104,0	    0,576375	-102,8
     41,5782	    0,566679	-104,1	    0,576262	-103,9
     41,5802	    0,567679	-104,1	    0,581204	-102,6
     41,5821	    0,567685	-103,0	    0,583913	-103,2
     41,5841	    0,569721	-103,6	    0,583732	-102,7
      41,586	    0,571167	-102,8	    0,582979	-103,3
      41,588	    0,574309	-103,4	    0,585769	-102,7
     41,5899	    0,571664	-103,8	    0,585398	-102,6
     41,5919	    0,572609	-103,1	    0,588997	-103,8
     41,5938	    0,574367	-103,8	    0,592667	-103,4
     41,5958	    0,572133	-103,2	     0,58922	-102,5
     41,5978	    0,576155	-103,5	    0,590845	-102,9
     41,5997	    0,575563	-102,9	    0,591588	-102,9
     41,6017	    0,579748	-103,0	    0,592848	-102,9
     41,6036	    0,579395	-103,7	    0,596179	-102,2
     41,6056	    0,581042	-102,9	    0,594983	-102,7
     41,6075	    0,587108	-103,3	    0,597334	-102,4
     41,6095	    0,583702	-103,4	    0,596123	-102,7
     41,6114	    0,585472	-103,3	    0,603439	-103,1
     41,6134	    0,586164	-103,4	    0,604068	-102,2
     41,6153	    0,590151	-102,9	    0,602716	-102,7
     41,6173	    0,591278	-103,1	    0,605188	-103,1
     41,6193	    0,590356	-102,7	    0,606075	-102,8
     41,6212	    0,594075	-102,7	    0,609058	-103,0
     41,6232	    0,592536	-102,8	    0,603913	-102,4
     41,6251	    0,592946	-102,7	    0,609565	-102,7
     41,6271	    0,593898	-103,5	    0,612696	-102,8
      41,629	    0,595723	-102,3	    0,613493	-102,4
      41,631	    0,597397	-102,6	    0,615525	-102,6
     41,6329	     0,59747	-103,1	    0,614868	-102,4
     41,6349	     0,59941	-102,7	    0,614474	-102,4
     41,6369	    0,603397	-103,3	     0,61926	-102,3
     41,6388	    0,601473	-102,6	    0,622944	-102,6
     41,6408	    0,608182	-102,7	    0,625487	-102,7
     41,6427	    0,608135	-103,2	    0,624876	-102,1
     41,6447	    0,609296	-102,5	      0,6258	-102,3
     41,6466	     0,61078	-102,7	    0,625457	-101,7
     41,6486	    0,611372	-102,4	    0,626204	-102,2
     41,6505	    0,613344	-103,1	    0,627558	-102,4
     41,6525	    0,612918	-103,1	    0,627638	-101,7
     41,6544	     0,61698	-102,1	    0,631438	-102,3
     41,6564	    0,617146	-102,6	    0,632582	-101,3
     41,6584	    0,617164	-102,1	    0,632813	-101,5
     41,6603	    0,622366	-102,4	    0,637852	-102,0
     41,6623	     0,61975	-102,5	    0,639594	-101,7
     41,6642	    0,620545	-101,9	    0,641023	-101,7
     41,6662	    0,622363	-102,4	    0,640609	-101,4
     41,6681	    0,625056	-102,1	    0,642676	-102,1
     41,6701	    0,629676	-103,0	    0,644132	-102,0
      41,672	    0,627923	-102,7	    0,642225	-101,8
      41,674	    0,630675	-101,9	    0,645687	-102,0
      41,676	    0,631076	-102,3	    0,647762	-101,0
     41,6779	    0,632309	-101,7	    0,649119	-101,4
     41,6799	    0,635208	-102,4	    0,654442	-101,1
     41,6818	     0,63439	-101,5	    0,652044	-100,9
     41,6838	    0,637286	-101,8	    0,657698	-101,7
     41,6857	     0,64121	-102,3	    0,657003	-101,3
     41,6877	    0,640325	-102,0	    0,658281	-101,2
     41,6896	    0,644671	-102,2	    0,662764	-101,3
     41,6916	    0,642925	-101,9	    0,660259	-101,0
     41,6936	    0,648819	-101,2	    0,663063	-101,7
     41,6955	    0,647798	-102,2	    0,662984	-100,8
     41,6975	    0,647282	-101,9	     0,66359	-100,7
     41,6994	     0,65086	-101,9	     0,66945	-101,1
     41,7014	    0,651529	-101,3	    0,668368	-100,8
     41,7033	    0,651677	-101,3	    0,672833	-101,2
     41,7053	     0,65798	-101,8	    0,672998	-100,7
     41,7072	    0,654423	-101,9	    0,673008	-101,2
     41,7092	    0,661264	-101,5	    0,678444	-101,1
     41,7111	    0,662597	-101,9	    0,678417	-100,6
     41,7131	      0,6593	-101,0	    0,679774	-100,6
     41,7151	    0,662662	-101,5	    0,681813	-100,5
      41,717	    0,663671	-101,2	    0,681225	-100,6
      41,719	    0,666396	-101,1	    0,688153	-100,8
     41,7209	    0,666448	-101,1	    0,688792	-100,6
     41,7229	    0,669149	-100,6	    0,690982	-100,8
     41,7248	    0,670861	-101,8	    0,692627	-100,9
     41,7268	    0,671399	-101,5	    0,690575	-100,7
     41,7287	    0,674709	-101,2	    0,694998	-100,7
     41,7307	    0,677684	-101,4	     0,69437	-100,2
     41,7327	    0,677769	-101,0	    0,696923	-100,6
     41,7346	    0,680542	-101,0	    0,700258	-100,2
     41,7366	    0,681194	-101,1	    0,700352	-99,8
     41,7385	    0,683667	-100,7	    0,705964	-100,6
     41,7405	    0,686172	-101,2	    0,709322	-99,8
     41,7424	    0,683044	-100,6	    0,706646	-100,4
     41,7444	    0,689801	-101,0	    0,708225	-100,6
     41,7463	    0,687714	-101,2	    0,708699	-99,9
     41,7483	    0,692879	-100,5	    0,715829	-100,3
     41,7502	    0,694091	-101,0	    0,718117	-99,7
     41,7522	    0,694001	-100,4	     0,71638	-99,4
     41,7542	    0,697528	-100,3	     0,72067	-100,2
     41,7561	    0,698214	-100,9	    0,721561	-99,5
     41,7581	     0,70109	-100,1	    0,725279	-100,1
       41,76	    0,703492	-100,9	    0,729067	-99,5
      41,762	    0,701668	-100,5	    0,725408	-99,5
     41,7639	    0,708413	-100,1	    0,727777	-100,0
     41,7659	     0,70953	-100,9	    0,731977	-99,7
     41,7678	    0,712901	-100,1	    0,731991	-99,6
     41,7698	    0,714749	-100,6	    0,738638	-99,3
     41,7718	    0,714748	-100,7	    0,739667	-99,0
     41,7737	    0,717017	-99,8	    0,742665	-99,5
     41,7757	    0,718914	-100,5	    0,743111	-98,8
     41,7776	    0,720108	-100,1	    0,740728	-99,2
     41,7796	    0,724512	-100,4	    0,748175	-99,6
     41,7815	    0,723434	-99,8	    0,750466	-99,0
     41,7835	    0,727044	-99,6	    0,751991	-99,0
     41,7854	     0,73033	-100,0	    0,754675	-99,5
     41,7874	    0,734376	-99,6	    0,754409	-99,2
     41,7893	    0,735223	-99,7	    0,759048	-99,0
     41,7913	    0,732884	-99,8	    0,760635	-98,6
     41,7933	    0,733087	-99,4	    0,761819	-98,8
     41,7952	    0,738017	-100,0	      0,7645	-98,6
     41,7972	    0,740669	-99,7	    0,765448	-98,7
     41,7991	    0,749514	-99,0	    0,770349	-99,1
     41,8011	     0,74742	-99,7	    0,771593	-98,7
      41,803	    0,746373	-99,3	    0,773557	-98,9
      41,805	    0,750127	-99,0	    0,780056	-98,6
     41,8069	    0,749593	-99,5	    0,781426	-98,2
     41,8089	    0,752948	-99,0	    0,780362	-98,2
     41,8109	    0,755493	-99,1	    0,784647	-98,3
     41,8128	    0,759411	-99,1	    0,784818	-98,1
     41,8148	    0,762993	-99,0	    0,786256	-98,3
     41,8167	    0,764675	-99,1	    0,792403	-98,1
     41,8187	    0,764965	-99,3	    0,793369	-97,7
     41,8206	    0,770721	-99,2	    0,799481	-98,3
     41,8226	    0,770341	-99,5	    0,799836	-98,1
     41,8245	    0,772263	-98,2	    0,800857	-98,1
     41,8265	     0,77584	-98,7	     0,80295	-98,0
     41,8284	    0,774783	-98,8	    0,805482	-97,6
     41,8304	    0,776697	-98,4	    0,809419	-98,2
     41,8324	    0,782295	-98,8	    0,811499	-97,3
     41,8343	    0,783436	-98,2	    0,813481	-97,5
     41,8363	    0,785778	-98,0	    0,819449	-97,2
     41,8382	    0,787355	-98,3	    0,819041	-97,3
     41,8402	    0,789221	-98,2	    0,823032	-97,5
     41,8421	    0,794773	-98,4	    0,825204	-97,5
     41,8441	     0,79332	-98,4	    0,825826	-97,7
      41,846	    0,795295	-98,0	    0,830205	-97,5
      41,848	    0,797675	-98,5	    0,833243	-96,6
       41,85	    0,800467	-98,3	    0,833086	-96,9
     41,8519	    0,807725	-98,2	    0,840266	-96,9
     41,8539	    0,807847	-98,5	    0,839567	-97,1
     41,8558	    0,811377	-97,4	     0,84387	-96,7
     41,8578	    0,815101	-97,6	    0,849562	-96,4
     41,8597	    0,815378	-97,8	     0,85104	-96,6
     41,8617	    0,818661	-97,6	    0,855633	-96,9
     41,8636	    0,822081	-98,2	    0,856351	-96,4
     41,8656	    0,822276	-97,8	     0,85897	-96,8
     41,8675	    0,824777	-97,5	     0,86397	-96,7
     41,8695	    0,828744	-97,6	    0,867316	-96,2
     41,8715	    0,834122	-96,9	    0,869547	-96,7
     41,8734	    0,839529	-97,8	    0,873713	-96,0
     41,8754	    0,837504	-97,2	    0,876001	-95,8
     41,8773	    0,841597	-96,7	    0,878069	-96,0
     41,8793	    0,843256	-97,3	    0,883621	-96,1
     41,8812	    0,844425	-97,0	    0,882627	-96,7
     41,8832	     0,85028	-96,7	    0,887315	-96,1
     41,8851	    0,853251	-97,5	    0,889909	-95,7
     41,8871	    0,853135	-96,7	     0,89282	-95,5
     41,8891	    0,857673	-96,6	    0,898978	-95,9
      41,891	    0,860121	-96,8	    0,901416	-95,2
      41,893	    0,860777	-96,5	    0,902916	-95,9
     41,8949	    0,867332	-97,0	    0,911809	-95,2
     41,8969	    0,865722	-96,8	    0,912707	-94,9
     41,8988	    0,873755	-96,1	    0,917032	-95,5
     41,9008	    0,877163	-96,2	    0,919327	-94,9
     41,9027	    0,879035	-96,2	    0,919847	-95,3
     41,9047	    0,881128	-95,8	    0,925143	-95,5
     41,9066	    0,885735	-96,2	    0,928842	-94,2
     41,9086	    0,887731	-95,7	    0,930599	-94,8
     41,9106	    0,891845	-95,5	     0,93632	-94,9
     41,9125	    0,892035	-95,9	    0,938606	-94,2
     41,9145	    0,894247	-95,7	    0,944829	-94,8
     41,9164	    0,903211	-96,1	    0,948943	-94,5
     41,9184	    0,905147	-95,9	    0,951102	-94,2
     41,9203	    0,908053	-95,4	    0,953997	-94,4
     41,9223	    0,912053	-95,5	    0,959116	-93,6
     41,9242	    0,912578	-95,2	    0,961197	-93,6
     41,9262	    0,920187	-95,2	    0,968673	-94,1
     41,9282	    0,920649	-96,1	    0,973728	-93,5
     41,9301	     0,92292	-95,1	    0,974233	-93,7
     41,9321	    0,927459	-94,6	     0,97841	-93,5
      41,934	    0,931564	-95,2	    0,985148	-93,2
      41,936	    0,935942	-94,4	    0,987228	-94,0
     41,9379	    0,941424	-94,7	    0,992498	-93,5
     41,9399	    0,940422	-95,1	    0,999918	-93,3
     41,9418	    0,944694	-94,6	     1,00396	-93,2
     41,9438	    0,951078	-94,8	     1,00953	-92,7
     41,9457	    0,954375	-94,7	     1,01384	-92,7
     41,9477	     0,95845	-94,0	     1,02101	-93,0
     41,9497	    0,961469	-94,1	     1,02789	-92,6
     41,9516	     0,96232	-94,1	     1,03004	-92,6
     41,9536	     0,97117	-94,2	     1,03358	-92,7
     41,9555	    0,974025	-94,2	     1,03974	-92,2
     41,9575	     0,97798	-93,5	     1,04286	-91,9
     41,9594	    0,982351	-93,4	     1,05201	-91,4
     41,9614	    0,987622	-93,5	     1,05439	-91,2
     41,9633	    0,990291	-93,6	     1,05836	-92,2
     41,9653	    0,996704	-93,1	      1,0671	-91,9
     41,9673	     1,00081	-93,3	      1,0697	-91,5
     41,9692	     1,00259	-93,7	     1,07681	-91,4
     41,9712	     1,01018	-93,3	     1,08318	-91,2
     41,9731	     1,01047	-93,5	     1,08838	-90,6
     41,9751	     1,01156	-92,9	     1,09374	-91,0
      41,977	     1,01997	-92,8	     1,10434	-90,3
      41,979	      1,0234	-93,0	     1,10815	-90,6
     41,9809	     1,03124	-92,5	     1,11435	-90,8
     41,9829	     1,03442	-92,6	     1,12394	-90,4
     41,9848	     1,03703	-92,1	     1,12593	-89,8
     41,9868	      1,0434	-92,0	     1,13071	-90,0
     41,9888	     1,04617	-92,5	     1,13984	-89,6
     41,9907	     1,05219	-92,0	     1,14571	-89,5
     41,9927	     1,05691	-91,9	     1,15596	-89,7
     41,9946	     1,06222	-92,1	     1,16207	-88,9
     41,9966	     1,06676	-92,0	     1,16663	-89,0
     41,9985	     1,07249	-91,2	     1,17674	-89,2
     42,0005	     1,07451	-91,3	     1,18497	-88,3
     42,0024	     1,08007	-91,2	     1,18995	-88,4
     42,0044	     1,08776	-90,7	     1,20174	-88,5
     42,0064	     1,09181	-91,1	     1,20943	-87,9
     42,0083	     1,09656	-90,8	      1,2137	-88,4
     42,0103	     1,10307	-90,6	     1,22686	-87,0
     42,0122	     1,10831	-90,3	     1,23318	-87,2
     42,0142	     1,11599	-90,6	     1,24009	-87,6
     42,0161	     1,12205	-90,3	     1,25589	-87,0
     42,0181	     1,12432	-90,2	     1,26327	-86,6
       42,02	     1,13161	-90,0	     1,27576	-87,0
      42,022	     1,13714	-90,2	     1,28625	-86,3
     42,0239	     1,13853	-89,9	     1,29523	-86,2
     42,0259	       1,149	-89,5	     1,30641	-86,1
     42,0279	     1,15467	-89,4	     1,32242	-84,9
     42,0298	     1,15796	-89,2	     1,33387	-84,8
     42,0318	     1,16669	-89,4	     1,35093	-84,8
     42,0337	     1,17316	-88,6	       1,365	-84,4
     42,0357	     1,17497	-88,9	     1,37736	-84,3
     42,0376	      1,1832	-88,7	     1,38989	-84,1
     42,0396	     1,18989	-88,6	     1,41398	-83,2
     42,0415	     1,19693	-88,3	     1,42718	-82,8
     42,0435	     1,20642	-88,0	     1,45234	-82,3
     42,0455	     1,21147	-87,8	     1,47223	-81,8
     42,0474	     1,21904	-87,6	     1,49584	-81,7
     42,0494	     1,22663	-87,8	     1,51518	-81,3
     42,0513	     1,23059	-87,2	     1,54059	-80,4
     42,0533	     1,23612	-87,0	     1,55951	-79,9
     42,0552	      1,2494	-86,7	     1,59074	-78,9
     42,0572	     1,25376	-87,3	     1,61257	-78,6
     42,0591	     1,26364	-86,4	     1,63921	-77,6
     42,0611	     1,27385	-85,7	      1,6636	-77,1
      42,063	     1,27827	-86,0	     1,69729	-76,0
      42,065	      1,2837	-85,7	      1,7196	-75,7
      42,067	     1,29711	-85,8	      1,7559	-74,5
     42,0689	      1,3008	-86,1	     1,78224	-73,4
     42,0709	     1,30871	-85,5	     1,80978	-72,4
     42,0728	     1,32107	-84,8	     1,83552	-71,7
     42,0748	     1,32608	-85,1	     1,86473	-70,6
     42,0767	     1,33301	-84,5	     1,88888	-70,1
     42,0787	     1,34244	-84,2	     1,92194	-68,9
     42,0806	     1,35248	-84,4	     1,94454	-68,0
     42,0826	     1,36512	-83,9	     1,96964	-67,3
     42,0846	     1,37342	-83,5	     1,99192	-66,3
     42,0865	     1,38178	-83,8	     2,02231	-64,9
     42,0885	     1,38886	-83,3	     2,04006	-64,6
     42,0904	     1,40304	-82,7	      2,0731	-62,6
     42,0924	     1,40999	-82,5	     2,09228	-61,9
     42,0943	     1,41962	-82,4	     2,11388	-61,5
     42,0963	     1,43426	-81,5	     2,13467	-60,3
     42,0982	     1,44499	-81,5	     2,15259	-59,4
     42,1002	     1,45712	-81,3	        2,17	-58,6
     42,1021	     1,46561	-80,9	     2,19541	-57,2
     42,1041	     1,47791	-80,8	     2,20973	-56,4
     42,1061	     1,48769	-80,4	     2,22638	-56,0
      42,108	      1,5036	-79,4	     2,23898	-55,0
       42,11	     1,51442	-79,7	     2,26077	-54,2
     42,1119	     1,52632	-79,0	      2,2708	-53,3
     42,1139	     1,54744	-78,5	      2,2835	-52,9
     42,1158	     1,55796	-78,4	      2,3018	-51,4
     42,1178	     1,56682	-78,0	     2,31171	-50,8
     42,1197	     1,58461	-76,9	     2,32699	-50,0
     42,1217	     1,59923	-76,5	     2,33707	-49,3
     42,1237	     1,61131	-76,5	     2,34698	-49,0
     42,1256	     1,62537	-75,6	      2,3536	-48,4
     42,1276	     1,64329	-75,9	     2,36816	-47,2
     42,1295	     1,65445	-75,3	     2,37566	-46,9
     42,1315	     1,67561	-74,2	     2,38399	-45,6
     42,1334	     1,69013	-73,7	     2,39364	-45,0
     42,1354	     1,70806	-73,3	     2,39959	-44,5
     42,1373	     1,72295	-72,3	     2,40598	-44,0
     42,1393	     1,74544	-72,0	     2,41871	-43,6
     42,1413	     1,76188	-71,8	     2,42444	-43,1
     42,1432	     1,78548	-70,7	     2,43152	-42,3
     42,1452	     1,80153	-70,0	      2,4392	-41,8
     42,1471	     1,81941	-69,2	     2,44139	-40,9
     42,1491	     1,83845	-68,7	     2,44653	-40,5
      42,151	     1,86408	-67,6	     2,45788	-39,2
      42,153	     1,87823	-66,9	     2,46017	-39,5
     42,1549	       1,904	-66,4	     2,46355	-38,9
     42,1569	      1,9237	-65,2	     2,47255	-38,1
     42,1588	     1,94895	-64,3	     2,47467	-37,6
     42,1608	      1,9673	-64,1	     2,47722	-37,6
     42,1628	       1,997	-62,5	     2,48193	-37,0
     42,1647	     2,01616	-61,6	     2,48796	-36,0
     42,1667	     2,03444	-61,3	     2,49086	-35,9
     42,1686	      2,0667	-59,3	     2,49412	-34,9
     42,1706	     2,08861	-57,9	     2,49528	-34,8
     42,1725	     2,11542	-57,4	     2,49718	-34,3
     42,1745	     2,14526	-55,8	     2,50302	-33,7
     42,1764	     2,16846	-55,1	     2,50612	-33,1
     42,1784	     2,19442	-54,1	     2,50586	-33,0
     42,1804	     2,21728	-52,7	      2,5086	-32,5
     42,1823	     2,24427	-50,9	     2,51255	-31,8
     42,1843	     2,26581	-49,8	     2,51181	-31,2
     42,1862	     2,28866	-48,6	     2,51074	-31,5
     42,1882	     2,31765	-46,7	     2,51762	-30,4
     42,1901	     2,33462	-45,9	     2,51784	-30,3
     42,1921	     2,36113	-44,4	     2,51588	-30,1
      42,194	     2,37943	-43,6	     2,51645	-29,5
      42,196	     2,39943	-42,0	     2,52333	-29,3
     42,1979	     2,41559	-41,0	     2,52098	-28,2
     42,1999	     2,43708	-39,0	     2,52275	-28,0
     42,2019	     2,44907	-37,7	     2,52713	-27,5
     42,2038	     2,46223	-36,8	     2,52326	-27,5
     42,2058	     2,47506	-36,1	     2,52401	-26,9
     42,2077	     2,49031	-34,6	     2,52906	-26,8
     42,2097	     2,49703	-33,9	     2,52737	-26,6
     42,2116	     2,50996	-32,8	     2,52713	-25,9
     42,2136	     2,51911	-31,7	     2,52917	-25,6
     42,2155	     2,52264	-30,8	     2,52453	-25,6
     42,2175	     2,52933	-30,1	      2,5251	-25,2
     42,2195	     2,53678	-28,9	     2,52641	-24,1
     42,2214	     2,53799	-28,2	     2,52652	-24,1
     42,2234	     2,54454	-28,1	     2,52278	-24,0
     42,2253	     2,54633	-27,2	     2,52843	-23,6
     42,2273	     2,54633	-26,7	     2,52647	-23,2
     42,2292	      2,5492	-26,3	     2,52396	-23,3
     42,2312	     2,54932	-24,8	      2,5264	-22,4
     42,2331	      2,5514	-24,5	     2,52733	-22,2
     42,2351	     2,55129	-24,4	     2,52203	-21,8
      42,237	     2,55338	-23,9	     2,52279	-21,2
      42,239	     2,55138	-23,6	     2,52414	-21,2
      42,241	     2,54842	-23,3	     2,52225	-20,9
     42,2429	     2,54763	-23,0	     2,52124	-20,4
     42,2449	     2,55102	-21,9	     2,52191	-20,3
     42,2468	     2,54772	-21,9	     2,52104	-19,9
     42,2488	     2,54517	-21,7	     2,51768	-20,0
     42,2507	     2,54632	-21,5	     2,51806	-19,7
     42,2527	     2,54106	-21,0	     2,51733	-19,2
     42,2546	     2,54132	-20,5	     2,51419	-19,2
     42,2566	     2,54319	-19,9	     2,51311	-18,1
     42,2586	     2,53948	-19,6	     2,51322	-18,1
     42,2605	     2,53907	-19,6	     2,50863	-18,2
     42,2625	     2,53862	-19,4	      2,5055	-17,5
     42,2644	     2,53959	-18,6	     2,50888	-17,5
     42,2664	     2,53526	-18,6	     2,50731	-17,5
     42,2683	      2,5354	-18,2	     2,50526	-16,7
     42,2703	     2,53395	-17,7	      2,5056	-16,0
     42,2722	     2,52874	-17,3	      2,5037	-16,2
     42,2742	     2,52728	-17,2	     2,49839	-16,2
     42,2761	     2,52876	-17,0	     2,49797	-15,4
     42,2781	      2,5262	-16,3	     2,49755	-15,3
     42,2801	     2,52248	-16,7	     2,49153	-15,3
      42,282	     2,52349	-16,1	     2,48976	-14,8
      42,284	      2,5212	-15,2	     2,49236	-14,6
     42,2859	     2,51955	-15,4	     2,48958	-14,9
     42,2879	     2,51359	-15,0	     2,48607	-14,2
     42,2898	     2,51482	-14,9	     2,48465	-13,8
     42,2918	     2,51044	-14,1	     2,48481	-13,7
     42,2937	     2,50817	-14,3	     2,47781	-13,4
     42,2957	     2,50809	-13,8	     2,47937	-13,1
     42,2977	     2,50736	-13,4	     2,47827	-12,7
     42,2996	     2,50246	-14,2	      2,4757	-12,6
     42,3016	     2,50153	-13,3	     2,47128	-12,2
     42,3035	     2,49887	-12,0	     2,47305	-12,5
     42,3055	     2,49634	-12,3	     2,46895	-12,2
     42,3074	     2,49503	-12,4	     2,46413	-12,0
     42,3094	     2,49437	-11,6	     2,46415	-11,2
     42,3113	     2,48611	-11,4	     2,46277	-11,4
     42,3133	     2,48314	-11,2	     2,45751	-11,3
     42,3153	     2,48364	-11,2	     2,45358	-10,9
     42,3172	     2,48099	-11,0	     2,45257	-10,5
     42,3192	     2,47524	-10,9	     2,44962	-10,4
     42,3211	     2,47364	-10,6	     2,44112	-9,9
     42,3231	     2,47029	-10,4	     2,44145	-9,5
      42,325	     2,46412	-10,1	     2,44286	-9,7
      42,327	     2,46314	-9,8	     2,43764	-9,7
     42,3289	      2,4635	-9,0	     2,43659	-9,1
     42,3309	     2,46056	-8,7	     2,43585	-9,1
     42,3328	     2,45508	-9,2	     2,43268	-8,8
     42,3348	     2,45363	-9,2	     2,42671	-8,2
     42,3368	     2,45335	-8,5	     2,42647	-8,0
     42,3387	      2,4467	-8,3	     2,42362	-8,0
     42,3407	     2,44334	-8,3	     2,41573	-7,7
     42,3426	     2,44295	-7,7	     2,41447	-7,4
     42,3446	     2,44051	-7,3	     2,41325	-7,4
     42,3465	      2,4314	-7,2	     2,41098	-7,0
     42,3485	     2,42953	-7,3	     2,40721	-6,9
     42,3504	     2,42765	-6,4	     2,40822	-7,0
     42,3524	     2,42654	-6,4	      2,4049	-6,6
     42,3544	     2,42234	-6,4	     2,40018	-6,7
     42,3563	     2,42065	-6,5	     2,39746	-5,7
     42,3583	     2,41685	-5,8	     2,39498	-6,1
     42,3602	     2,41196	-5,8	      2,3914	-5,9
     42,3622	      2,4119	-5,9	     2,38829	-5,7
     42,3641	      2,4098	-5,7	     2,38863	-4,8
     42,3661	     2,40258	-5,1	      2,3849	-5,1
      42,368	     2,39963	-5,3	     2,37691	-4,7
       42,37	     2,39996	-4,5	     2,37597	-4,0
     42,3719	     2,39776	-4,5	     2,37691	-4,4
     42,3739	     2,38997	-4,1	     2,37142	-4,5
     42,3759	     2,38926	-3,7	      2,3667	-3,7
     42,3778	     2,38785	-3,5	     2,36556	-3,6
     42,3798	     2,38307	-3,2	     2,36434	-3,7
     42,3817	     2,37893	-3,9	     2,36024	-3,7
     42,3837	     2,37572	-3,5	     2,35738	-3,1
     42,3856	     2,37281	-2,8	     2,35515	-2,9
     42,3876	     2,36913	-2,9	     2,35053	-2,3
     42,3895	     2,36703	-2,6	     2,34618	-2,5
     42,3915	     2,36353	-2,6	     2,34763	-2,2
     42,3935	     2,35553	-2,2	     2,34427	-2,0
     42,3954	     2,35274	-2,1	     2,33833	-2,0
     42,3974	     2,35455	-1,8	     2,33407	-1,4
     42,3993	     2,35056	-1,4	     2,33383	-1,8
     42,4013	     2,34368	-1,3	     2,33113	-1,6
     42,4032	     2,34064	-1,4	     2,32529	-1,3
     42,4052	     2,34049	-0,9	     2,32323	-1,1
     42,4071	     2,33582	-0,5	     2,32166	-0,9
     42,4091	     2,32891	-1,0	     2,31808	-0,9
      42,411	     2,32544	-0,8	     2,31243	-0,8
      42,413	     2,32366	 0,1	     2,31022	-0,1
      42,415	     2,31939	 0,2	     2,30876	-0,1
     42,4169	     2,31379	-0,0	     2,30251	 0,1
     42,4189	     2,31342	 0,1	     2,29775	 0,4
     42,4208	     2,30799	 0,8	     2,29789	 0,5
     42,4228	     2,30235	 0,9	     2,29336	 0,5
     42,4247	     2,30338	 0,7	     2,28839	 0,9
     42,4267	     2,30005	 1,3	     2,28674	 1,2
     42,4286	     2,29649	 1,5	     2,28535	 0,7
     42,4306	     2,28991	 1,3	     2,28061	 1,1
     42,4326	     2,28804	 1,4	     2,27611	 1,4
     42,4345	     2,28839	 1,8	     2,27489	 1,9
     42,4365	     2,27786	 1,8	     2,26721	 2,0
     42,4384	     2,27383	 1,9	     2,26396	 1,9
     42,4404	     2,27452	 2,3	     2,26146	 2,8
     42,4423	     2,27042	 2,6	     2,26192	 2,3
     42,4443	     2,26312	 2,9	     2,26038	 2,7
     42,4462	     2,26165	 2,8	     2,25315	 3,0
     42,4482	     2,26212	 3,1	     2,24984	 3,1
     42,4501	     2,25687	 3,6	     2,24949	 3,1
     42,4521	     2,24929	 3,7	     2,24366	 3,1
     42,4541	     2,25151	 3,4	     2,23915	 3,8
      42,456	     2,24788	 3,5	     2,23566	 4,2
      42,458	     2,23765	 4,1	     2,23533	 3,4
     42,4599	     2,23716	 3,9	     2,22881	 3,6
     42,4619	     2,23492	 3,9	     2,22578	 4,4
     42,4638	     2,23279	 3,9	     2,22212	 4,6
     42,4658	     2,22243	 4,7	     2,22423	 4,3
     42,4677	     2,22065	 4,7	     2,21374	 4,8
     42,4697	     2,21684	 5,0	     2,21181	 4,9
     42,4717	     2,21552	 5,6	     2,21155	 5,1
     42,4736	     2,21086	 5,4	     2,20193	 5,3
     42,4756	     2,20659	 5,4	     2,20107	 5,4
     42,4775	     2,20484	 5,8	     2,20049	 5,7
     42,4795	     2,20108	 6,1	     2,19833	 6,0
     42,4814	     2,19418	 5,5	     2,19026	 5,8
     42,4834	     2,19203	 5,8	     2,18808	 6,2
     42,4853	     2,19103	 5,9	      2,1862	 6,2
     42,4873	     2,18704	 6,6	     2,18423	 6,2
     42,4892	     2,18233	 6,7	     2,17708	 6,3
     42,4912	      2,1799	 6,6	      2,1732	 6,6
     42,4932	     2,17557	 6,7	     2,17235	 6,8
     42,4951	      2,1687	 7,2	     2,16931	 6,7
     42,4971	     2,16416	 7,2	     2,16514	 6,5
      42,499	     2,16307	 6,7	     2,15911	 7,6
      42,501	     2,16295	 7,4	     2,15511	 7,6
     42,5029	     2,15388	 8,0	     2,15263	 7,6
     42,5049	     2,15208	 8,0	     2,14656	 8,0
     42,5068	     2,14993	 7,8	     2,14403	 8,6
     42,5088	     2,14922	 8,1	     2,14662	 8,6
     42,5108	     2,14011	 8,7	      2,1383	 8,1
     42,5127	     2,13577	 8,9	     2,13261	 8,4
     42,5147	     2,13703	 8,3	     2,13348	 8,8
     42,5166	     2,13305	 8,9	     2,13136	 9,1
     42,5186	     2,12826	 8,7	     2,12283	 8,5
     42,5205	     2,12311	 8,8	     2,11888	 8,8
     42,5225	     2,12492	 8,8	      2,1172	 8,9
     42,5244	     2,12276	 9,2	     2,11479	 9,1
     42,5264	     2,11106	 9,7	     2,10855	 9,1
     42,5283	     2,10864	 9,6	     2,10543	 9,3
     42,5303	     2,10571	10,0	     2,10626	 9,8
     42,5323	     2,10361	 9,6	     2,10514	 9,7
     42,5342	     2,09489	10,1	     2,09085	10,4
     42,5362	     2,09158	10,0	     2,09254	10,5
     42,5381	     2,09269	10,6	     2,09235	10,4
     42,5401	     2,08693	10,9	     2,08825	10,4
      42,542	      2,0799	10,8	     2,07962	10,7
      42,544	     2,07813	11,2	     2,07765	11,2
     42,5459	     2,07664	11,2	     2,07628	11,2
     42,5479	     2,07346	11,6	     2,07435	11,4
     42,5499	      2,0665	11,6	     2,06581	11,1
     42,5518	     2,06241	11,4	     2,06388	11,5
     42,5538	     2,06298	11,4	     2,06171	11,7
     42,5557	     2,05934	11,6	     2,05532	11,3
     42,5577	     2,05398	11,9	     2,05405	11,6
     42,5596	     2,04884	11,9	     2,04611	11,9
     42,5616	     2,04664	12,1	     2,04661	12,2
     42,5635	     2,04365	12,4	     2,04577	12,0
     42,5655	     2,03488	12,7	      2,0386	12,3
     42,5674	     2,03349	12,4	     2,03384	12,4
     42,5694	     2,03184	12,5	     2,03373	12,5
     42,5714	     2,02741	12,9	     2,02821	12,2
     42,5733	     2,01942	13,3	     2,02227	13,0
     42,5753	     2,01722	13,2	     2,02049	12,9
     42,5772	     2,01901	13,4	     2,02115	13,3
     42,5792	     2,01348	13,8	     2,01676	13,3
     42,5811	     2,00818	13,8	     2,00926	13,4
     42,5831	     2,00418	13,4	     2,00572	14,3
      42,585	     2,00278	13,8	     2,00384	14,4
      42,587	     2,00307	14,2	     2,00027	13,8
      42,589	     1,99569	14,4	     1,99523	14,0
     42,5909	     1,99042	14,0	     1,99107	14,1
     42,5929	     1,98618	14,1	     1,99383	14,6
     42,5948	      1,9855	14,5	     1,98769	14,3
     42,5968	     1,98022	14,6	     1,98123	14,4
     42,5987	     1,97146	14,5	     1,97707	14,4
     42,6007	     1,97432	14,4	     1,97453	15,0
     42,6026	     1,97047	14,8	     1,97292	15,2
     42,6046	     1,96172	15,3	     1,96819	14,5
     42,6065	     1,95814	15,3	     1,96258	15,5
     42,6085	     1,95565	15,2	     1,96144	15,5
     42,6105	     1,95424	15,7	     1,95969	15,2
     42,6124	     1,95116	15,8	     1,95353	15,0
     42,6144	      1,9463	16,3	     1,95037	15,7
     42,6163	      1,9409	16,1	     1,94575	15,7
     42,6183	      1,9393	16,5	     1,94516	15,8
     42,6202	     1,93536	16,4	     1,94173	15,6
     42,6222	     1,92878	16,8	     1,93293	16,0
     42,6241	     1,92499	16,6	      1,9304	16,3
     42,6261	     1,92445	16,6	     1,93031	16,8
     42,6281	     1,92119	16,7	     1,92699	16,6
       42,63	     1,91281	17,1	     1,91792	16,9
      42,632	     1,90799	17,0	     1,91524	17,2
     42,6339	     1,91138	16,8	     1,91295	17,0
     42,6359	     1,90849	17,2	     1,91058	17,1
     42,6378	     1,89995	17,3	     1,90296	17,5
     42,6398	     1,89711	17,5	      1,8997	17,8
     42,6417	     1,89513	17,0	     1,90102	17,4
     42,6437	     1,89495	17,5	     1,89963	17,5
     42,6456	     1,88526	18,3	     1,88957	17,6
     42,6476	     1,88117	18,0	     1,88713	18,0
     42,6496	     1,88108	17,9	     1,88325	18,4
     42,6515	     1,87988	18,0	     1,88366	18,1
     42,6535	     1,87632	18,2	     1,87962	18,0
     42,6554	     1,86458	18,7	     1,87034	17,9
     42,6574	      1,8634	18,3	     1,86457	18,1
     42,6593	     1,86294	18,4	     1,86765	18,2
     42,6613	     1,85928	18,4	     1,86212	17,9
     42,6632	     1,85079	19,5	     1,85426	18,4
     42,6652	     1,84861	19,2	     1,85152	18,7
     42,6672	     1,84876	19,3	     1,85254	18,4
     42,6691	     1,84451	19,4	     1,85024	18,4
     42,6711	     1,84231	19,5	     1,83925	18,9
      42,673	     1,83317	20,1	     1,83696	19,1
      42,675	      1,8323	19,4	     1,83752	19,4
     42,6769	     1,83038	19,6	      1,8358	19,0
     42,6789	     1,82275	20,2	     1,82736	19,3
     42,6808	     1,81824	20,5	     1,82367	19,4
     42,6828	     1,81805	19,7	     1,82233	20,0
     42,6847	     1,81436	20,1	     1,82038	20,0
     42,6867	     1,81372	20,2	     1,81703	19,6
     42,6887	     1,80738	20,8	     1,81071	20,1
     42,6906	      1,8022	21,1	     1,80343	20,4
     42,6926	     1,80082	20,2	      1,8053	20,5
     42,6945	     1,79993	20,7	     1,80244	20,4
     42,6965	      1,7938	21,2	       1,796	20,5
     42,6984	     1,79002	21,2	     1,79012	21,1
     42,7004	     1,78307	20,8	     1,78928	21,2
     42,7023	     1,78079	21,2	     1,78829	20,5
     42,7043	     1,77676	21,3	     1,78372	20,7
     42,7063	     1,77025	21,5	     1,77451	21,4
     42,7082	       1,768	21,6	     1,77138	21,8
     42,7102	     1,76713	21,5	     1,77279	21,3
     42,7121	     1,76545	21,7	     1,76937	21,2
     42,7141	     1,76317	22,0	     1,76459	21,3
      42,716	     1,75456	22,0	     1,75874	22,0
      42,718	     1,75326	21,9	     1,75682	22,3
     42,7199	      1,7503	22,0	     1,75657	21,8
     42,7219	     1,74959	22,3	      1,7555	21,9
     42,7239	     1,73931	22,8	     1,74185	22,2
     42,7258	     1,73744	22,9	     1,74421	22,2
     42,7278	     1,73423	22,7	     1,73996	22,4
     42,7297	     1,73231	22,6	      1,7341	22,2
     42,7317	     1,72435	23,5	     1,73118	22,4
     42,7336	      1,7214	23,4	     1,72855	22,9
     42,7356	     1,71977	23,1	     1,72335	23,1
     42,7375	     1,71844	22,9	     1,72217	23,0
     42,7395	      1,7138	23,7	     1,71737	22,6
     42,7414	     1,70974	23,8	     1,71398	22,7
     42,7434	     1,70576	23,6	     1,71046	23,3
     42,7454	     1,70299	23,3	     1,70707	23,6
     42,7473	     1,70039	23,6	     1,70724	22,8
     42,7493	     1,69725	24,1	     1,70428	23,1
     42,7512	     1,69041	24,1	     1,69704	23,5
     42,7532	     1,68814	24,2	      1,6938	23,6
     42,7551	     1,68799	24,3	     1,69163	23,4
     42,7571	     1,68538	24,7	     1,68209	23,7
      42,759	     1,68073	24,8	      1,6799	23,8
      42,761	     1,67474	24,9	     1,67608	24,3
      42,763	     1,66843	24,9	      1,6786	24,3
     42,7649	     1,66794	24,7	     1,67465	24,2
     42,7669	      1,6646	24,7	     1,67064	24,4
     42,7688	     1,65901	25,3	     1,66441	24,4
     42,7708	     1,65691	25,3	     1,66146	25,2
     42,7727	     1,65556	24,8	     1,66132	24,9
     42,7747	     1,65264	25,5	     1,65607	24,5
     42,7766	     1,64744	25,5	     1,65326	24,2
     42,7786	     1,64258	25,2	      1,6475	25,3
     42,7805	     1,64336	25,3	     1,64432	25,3
     42,7825	     1,64187	25,0	     1,64205	25,2
     42,7845	     1,64017	25,7	     1,64061	25,0
     42,7864	      1,6321	26,2	     1,63137	26,1
     42,7884	     1,62619	25,6	     1,62705	25,9
     42,7903	     1,62288	25,9	     1,62759	25,7
     42,7923	      1,6244	25,9	     1,62388	25,4
     42,7942	     1,62084	25,7	     1,61543	26,0
     42,7962	      1,6119	26,5	     1,61477	26,1
     42,7981	      1,6108	25,8	     1,61101	26,6
     42,8001	     1,61025	25,9	     1,61329	26,4
     42,8021	     1,60994	26,6	     1,60566	26,1
      42,804	     1,60473	26,6	     1,60153	26,5
      42,806	     1,60009	26,9	     1,59897	26,7
     42,8079	     1,59681	26,4	     1,59789	27,1
     42,8099	     1,59488	26,6	     1,59559	27,0
     42,8118	     1,58988	27,2	     1,59187	26,6
     42,8138	     1,58793	26,9	     1,58589	26,6
     42,8157	     1,57913	27,3	     1,57969	27,1
     42,8177	     1,57774	27,2	     1,57832	27,6
     42,8196	     1,57916	27,1	     1,57559	27,1
     42,8216	     1,57513	26,8	     1,57502	26,9
     42,8236	     1,57059	27,7	     1,56643	27,9
     42,8255	     1,56427	27,7	     1,56412	27,7
     42,8275	       1,561	27,3	      1,5615	27,6
     42,8294	     1,56078	27,8	     1,56178	27,7
     42,8314	     1,55669	28,0	     1,55358	28,0
     42,8333	     1,55358	28,1	     1,55257	27,8
     42,8353	     1,54692	28,0	     1,54586	28,5
     42,8372	      1,5445	27,9	     1,54431	28,0
     42,8392	     1,54324	28,1	     1,54296	27,8
     42,8412	     1,54302	27,8	     1,53877	27,9
     42,8431	     1,53196	29,0	     1,53694	28,2
     42,8451	     1,52918	29,0	     1,52954	28,8
      42,847	     1,52758	28,5	     1,52891	28,9
      42,849	     1,52429	28,4	     1,52973	28,4
     42,8509	      1,5232	28,9	     1,52441	28,5
     42,8529	     1,51573	29,5	     1,51584	29,1
     42,8548	     1,51316	29,1	     1,51561	29,0
     42,8568	     1,51312	29,1	     1,51545	29,0
     42,8587	      1,5103	29,1	     1,51308	29,0
     42,8607	     1,50692	29,3	     1,50304	29,1
     42,8627	     1,49577	30,2	     1,50032	29,5
     42,8646	     1,49502	29,9	     1,49881	29,3
     42,8666	     1,49481	29,3	     1,49719	29,6
     42,8685	     1,49334	29,1	     1,49466	29,4
     42,8705	     1,48642	29,8	     1,49341	29,4
     42,8724	     1,48496	30,1	     1,48499	30,1
     42,8744	     1,47809	30,0	     1,48169	29,9
     42,8763	     1,47996	29,7	     1,48214	30,1
     42,8783	     1,48155	29,7	     1,47992	29,8
     42,8803	     1,47305	30,5	     1,47673	29,8
     42,8822	     1,46881	30,8	     1,46935	30,4
     42,8842	     1,46338	30,6	     1,46708	30,3
     42,8861	      1,4616	30,5	     1,46489	30,4
     42,8881	     1,45982	30,3	     1,46082	30,3
       42,89	     1,45513	30,9	     1,45729	30,0
      42,892	     1,45307	31,0	     1,45576	30,3
     42,8939	     1,44765	30,9	     1,44772	31,0
     42,8959	     1,44694	30,8	     1,44529	31,0
     42,8979	      1,4471	30,8	      1,4474	30,7
     42,8998	     1,44358	30,9	     1,44554	30,6
     42,9018	     1,43442	31,6	     1,43936	30,8
     42,9037	     1,43244	31,5	     1,43674	31,0
     42,9057	     1,42996	31,2	      1,4339	31,7
     42,9076	     1,43035	31,1	     1,43232	31,4
     42,9096	     1,42385	31,8	     1,43032	30,9
     42,9115	     1,42079	31,9	     1,42571	30,9
     42,9135	     1,41688	31,7	     1,41778	31,6
     42,9154	     1,41546	31,9	      1,4151	31,8
     42,9174	     1,41489	31,8	     1,41531	31,1
     42,9194	     1,41111	31,7	     1,41184	31,6
     42,9213	      1,4017	32,5	     1,40868	31,2
     42,9233	     1,39674	32,5	     1,40247	32,2
     42,9252	     1,39804	32,2	     1,40056	32,1
     42,9272	     1,39613	31,8	     1,40085	31,9
     42,9291	     1,39634	31,7	     1,39862	31,6
     42,9311	     1,39127	32,6	     1,39323	31,8
      42,933	     1,38838	32,6	     1,39033	31,7
      42,935	     1,38541	32,4	      1,3856	32,1
      42,937	     1,38092	32,4	     1,38231	32,3
     42,9389	     1,38239	32,3	     1,38069	32,5
     42,9409	     1,37929	32,2	     1,38155	31,8
     42,9428	     1,37097	33,2	     1,37668	32,0
     42,9448	     1,36626	33,0	     1,36874	32,4
     42,9467	     1,36559	32,8	     1,36733	32,8
     42,9487	     1,36549	32,9	     1,36502	32,9
     42,9506	     1,36307	32,9	     1,36281	32,8
     42,9526	     1,36096	33,3	     1,36151	32,4
     42,9545	     1,35074	33,5	     1,35754	32,6
     42,9565	     1,34992	33,3	     1,35226	33,5
     42,9585	      1,3496	32,9	     1,35062	33,3
     42,9604	     1,34554	33,0	     1,34939	33,2
     42,9624	     1,34582	33,6	     1,34537	32,9
     42,9643	      1,3436	33,7	     1,33849	33,1
     42,9663	     1,33616	33,7	     1,33602	33,5
     42,9682	     1,33574	33,3	     1,33265	33,9
     42,9702	     1,33672	33,0	     1,33095	34,2
     42,9721	     1,32847	34,5	      1,3301	33,5
     42,9741	     1,32624	33,9	     1,32885	33,8
     42,9761	     1,32267	34,0	     1,32258	33,7
      42,978	     1,32057	34,0	     1,31739	34,3
       42,98	     1,31985	34,1	     1,31583	34,5
     42,9819	     1,31743	33,9	     1,31552	34,1
     42,9839	     1,31611	34,4	     1,31606	34,1
     42,9858	      1,3044	35,0	     1,30956	34,4
     42,9878	     1,30298	34,7	      1,3064	34,2
     42,9897	     1,30193	34,4	     1,30254	34,3
     42,9917	     1,29962	34,4	     1,30025	34,9
     42,9936	     1,29763	34,5	      1,2982	34,8
     42,9956	     1,29723	34,8	     1,29438	34,5
     42,9976	      1,2899	35,4	     1,29401	34,1
     42,9995	     1,28465	35,4	     1,28764	35,0
     43,0015	     1,28712	34,8	     1,28253	34,7
     43,0034	     1,28379	34,9	     1,28257	35,1
     43,0054	     1,28089	35,3	     1,28349	34,7
     43,0073	     1,27779	35,6	      1,2811	34,5
     43,0093	     1,27137	35,9	     1,27227	35,3
     43,0112	     1,26833	36,0	     1,26953	35,1
     43,0132	        1,27	35,4	     1,26763	35,3
     43,0152	     1,26491	35,6	     1,26759	35,1
     43,0171	     1,26027	35,9	     1,26439	35,4
     43,0191	     1,25918	35,7	     1,26093	35,0
      43,021	     1,25362	36,2	     1,26102	35,2
      43,023	     1,25251	36,0	     1,25318	35,8
     43,0249	     1,25319	35,6	     1,25063	35,5
     43,0269	     1,25089	36,3	     1,25084	35,5
     43,0288	     1,24636	36,6	     1,24675	35,8
     43,0308	      1,2426	36,3	     1,24445	35,6
     43,0327	     1,23791	36,4	     1,23934	35,6
     43,0347	     1,23613	36,2	     1,23436	36,3
     43,0367	     1,23495	35,9	     1,23207	36,6
     43,0386	     1,23355	36,0	     1,23602	35,9
     43,0406	     1,22611	36,7	     1,23151	35,8
     43,0425	     1,22561	36,7	     1,22711	35,9
     43,0445	     1,22247	36,3	     1,22323	36,3
     43,0464	      1,2213	35,9	     1,21931	36,9
     43,0484	     1,22024	36,4	     1,21529	36,8
     43,0503	     1,22037	36,2	     1,21749	36,5
     43,0523	     1,21135	37,2	     1,21627	36,4
     43,0543	     1,20775	37,0	     1,21292	36,6
     43,0562	     1,20869	36,6	     1,20744	36,6
     43,0582	     1,20527	36,6	     1,20479	36,4
     43,0601	     1,20414	36,9	     1,20026	37,2
     43,0621	     1,20435	36,8	      1,2005	37,0
      43,064	     1,19411	37,2	     1,20148	36,7
      43,066	     1,19259	37,4	     1,20085	36,8
     43,0679	      1,1936	36,7	     1,19349	36,8
     43,0699	     1,19202	37,0	     1,18842	37,0
     43,0718	     1,19149	37,3	      1,1869	37,4
     43,0738	     1,18859	37,6	     1,18374	37,3
     43,0758	     1,18415	37,8	     1,18155	37,2
     43,0777	     1,17838	38,1	     1,18059	36,9
     43,0797	     1,17488	38,3	     1,17997	36,9
     43,0816	     1,17496	37,7	     1,17193	37,6
     43,0836	     1,17257	37,5	     1,17013	37,7
     43,0855	      1,1705	38,0	     1,16893	37,6
     43,0875	     1,16446	38,1	     1,16764	37,8
     43,0894	     1,16072	38,6	     1,16578	37,2
     43,0914	     1,15933	38,4	     1,16264	37,3
     43,0934	     1,16021	37,9	     1,15865	37,5
     43,0953	      1,1561	38,0	     1,15035	38,3
     43,0973	     1,15214	38,4	     1,15404	37,6
     43,0992	      1,1499	38,5	     1,15417	38,2
     43,1012	      1,1456	38,9	     1,15034	37,9
     43,1031	     1,14236	38,6	     1,14829	37,8
     43,1051	     1,14441	38,1	     1,14793	37,9
      43,107	     1,14277	38,1	     1,14121	38,8
      43,109	     1,14014	38,3	      1,1396	38,5
     43,1109	     1,13877	38,4	      1,1372	38,2
     43,1129	     1,13076	38,7	     1,13551	38,3
     43,1149	      1,1292	38,7	     1,13277	38,2
     43,1168	     1,13094	38,6	     1,12994	38,1
     43,1188	     1,13058	38,3	     1,12417	38,6
     43,1207	     1,12576	38,9	     1,12324	38,8
     43,1227	     1,12275	38,9	     1,12236	38,4
     43,1246	     1,12104	39,3	     1,12096	38,9
     43,1266	     1,11419	39,4	     1,11944	38,0
     43,1285	       1,113	39,6	      1,1183	38,5
     43,1305	     1,11331	38,9	     1,11104	38,9
     43,1325	     1,11138	39,1	     1,10814	38,9
     43,1344	     1,10762	39,3	     1,10531	39,0
     43,1364	     1,10659	39,6	     1,10142	39,1
     43,1383	     1,09904	39,9	     1,10211	38,7
     43,1403	     1,09687	40,1	     1,09989	39,0
     43,1422	     1,09717	39,2	     1,09398	39,5
     43,1442	     1,09368	38,9	     1,09424	39,4
     43,1461	     1,09513	39,4	     1,09195	39,8
     43,1481	     1,08932	39,5	     1,09043	39,8
       43,15	     1,08671	40,0	     1,09125	39,3
      43,152	      1,0854	40,2	     1,09069	39,0
      43,154	     1,08037	39,3	     1,08595	38,9
     43,1559	     1,08011	39,6	     1,07932	39,6
     43,1579	     1,08282	39,5	     1,07606	39,7
     43,1598	     1,08002	39,4	     1,07336	40,1
     43,1618	     1,07318	40,4	     1,07388	39,7
     43,1637	     1,07082	40,3	     1,07443	39,2
     43,1657	     1,07019	39,9	     1,07299	39,6
     43,1676	     1,06657	40,1	     1,06628	39,7
     43,1696	     1,06761	39,8	     1,06308	39,7
     43,1716	     1,06531	40,1	     1,05965	40,4
     43,1735	     1,05904	40,5	     1,05754	40,6
     43,1755	     1,05829	40,7	     1,05682	40,5
     43,1774	     1,05183	40,9	     1,05729	39,9
     43,1794	     1,05025	41,3	     1,05443	40,0
     43,1813	     1,05403	40,4	     1,04912	40,2
     43,1833	     1,05261	40,3	     1,04462	40,9
     43,1852	     1,04657	40,9	     1,04343	41,1
     43,1872	      1,0449	40,5	     1,04427	41,0
     43,1891	     1,03872	41,4	     1,04411	40,4
     43,1911	      1,0361	41,3	     1,04295	40,3
     43,1931	      1,0376	40,5	     1,03947	40,2
      43,195	     1,03622	40,5	     1,03841	39,9
      43,197	     1,03841	40,2	     1,03199	40,6
     43,1989	     1,03712	40,7	     1,02902	40,4
     43,2009	     1,02882	41,2	      1,0287	41,1
     43,2028	     1,02495	41,3	     1,02642	41,1
     43,2048	     1,02253	41,1	     1,02927	40,2
     43,2067	     1,02023	41,3	     1,02657	40,7
     43,2087	     1,01735	41,5	     1,01978	40,7
     43,2107	     1,02115	41,1	     1,01778	40,7
     43,2126	     1,01939	40,9	     1,01192	41,5
     43,2146	     1,01237	41,7	     1,01118	42,0
     43,2165	     1,01251	41,8	     1,01515	41,0
     43,2185	     1,00535	41,9	     1,01173	41,4
     43,2204	     1,00415	41,6	     1,00924	40,9
     43,2224	     1,00329	41,3	     1,00851	40,7
     43,2243	     1,00371	41,2	     1,00147	41,5
     43,2263	     1,00159	41,6	    0,999019	41,2
     43,2282	    0,998733	41,4	    0,995108	41,8
     43,2302	    0,991441	42,0	     0,99782	41,1
     43,2322	    0,993309	41,7	     0,99788	41,2
     43,2341	    0,993138	41,7	    0,996077	41,1
     43,2361	    0,989735	41,7	    0,992169	41,1
      43,238	    0,987365	41,5	    0,988824	41,6
       43,24	    0,988712	41,6	    0,984997	42,1
     43,2419	    0,980216	42,1	    0,981063	42,0
     43,2439	    0,979412	42,5	    0,980094	42,1
     43,2458	    0,977187	42,2	    0,980831	42,3
     43,2478	    0,974479	42,7	    0,980536	41,5
     43,2498	     0,97799	41,7	    0,979011	41,5
     43,2517	    0,972681	41,7	    0,972708	42,1
     43,2537	    0,971378	42,4	    0,971517	42,0
     43,2556	    0,969619	42,3	    0,969187	42,5
     43,2576	    0,962379	42,7	    0,970201	42,0
     43,2595	     0,96243	42,5	    0,967695	41,9
     43,2615	    0,962273	42,5	    0,965837	41,9
     43,2634	    0,960221	42,4	    0,963824	41,9
     43,2654	    0,962412	42,2	    0,960158	41,7
     43,2673	    0,959049	42,2	    0,954543	42,6
     43,2693	     0,95362	42,9	    0,950367	42,7
     43,2713	    0,953886	42,6	    0,950354	42,6
     43,2732	    0,951301	43,0	    0,948828	43,2
     43,2752	    0,947654	43,1	    0,951545	42,2
     43,2771	    0,946703	43,5	    0,949643	42,6
     43,2791	    0,946759	42,8	    0,949864	42,3
      43,281	    0,942098	43,0	    0,945765	42,0
      43,283	    0,943212	43,0	    0,941195	42,8
     43,2849	    0,941019	42,6	    0,940175	42,8
     43,2869	    0,934393	43,6	    0,938933	43,1
     43,2889	    0,935295	43,1	    0,933409	43,0
     43,2908	    0,933127	43,2	    0,938564	42,3
     43,2928	       0,928	43,4	    0,934016	42,5
     43,2947	    0,932825	42,6	    0,931333	42,5
     43,2967	    0,930557	42,7	    0,929642	42,9
     43,2986	    0,930344	43,1	    0,923668	43,1
     43,3006	    0,927606	43,4	    0,922628	43,5
     43,3025	    0,925674	43,5	    0,918166	43,4
     43,3045	    0,918716	43,9	     0,91881	43,7
     43,3064	    0,914335	44,2	    0,920555	43,0
     43,3084	    0,915913	43,6	    0,920848	42,6
     43,3104	    0,914407	43,3	    0,916348	43,2
     43,3123	    0,913701	43,1	    0,915897	42,8
     43,3143	    0,913894	43,2	    0,914461	42,6
     43,3162	    0,908791	43,8	    0,905889	43,4
     43,3182	    0,908931	43,7	    0,908732	43,4
     43,3201	    0,904124	43,8	    0,904579	43,6
     43,3221	    0,901033	44,1	    0,905207	43,0
      43,324	    0,898646	43,9	    0,902174	43,1
      43,326	    0,902051	43,2	    0,900301	43,7
      43,328	    0,900625	43,7	    0,901137	43,6
     43,3299	    0,899346	43,8	    0,895555	44,4
     43,3319	    0,897845	43,8	     0,89465	44,2
     43,3338	    0,892664	44,6	    0,894051	44,1
     43,3358	    0,891843	44,3	    0,891749	43,4
     43,3377	    0,886243	44,7	    0,887541	43,7
     43,3397	    0,883671	44,2	     0,88821	43,3
     43,3416	    0,886379	43,9	    0,887955	43,8
     43,3436	    0,885128	43,5	    0,885635	43,2
     43,3456	    0,883707	43,8	    0,880134	44,0
     43,3475	    0,884046	43,6	     0,87969	44,1
     43,3495	    0,877469	44,4	    0,875438	44,4
     43,3514	    0,877374	44,6	     0,87531	44,5
     43,3534	     0,87541	44,6	    0,874367	44,3
     43,3553	     0,86924	44,9	    0,872271	44,3
     43,3573	    0,873395	44,2	    0,877249	43,7
     43,3592	    0,870764	44,3	    0,875954	43,7
     43,3612	    0,868968	44,0	    0,868124	44,1
     43,3631	    0,870189	44,3	    0,865251	44,2
     43,3651	     0,87039	43,8	    0,863499	44,2
     43,3671	     0,86214	44,8	     0,85753	44,5
      43,369	    0,861864	44,5	    0,857873	45,1
      43,371	    0,858412	44,7	    0,861385	44,7
     43,3729	    0,853248	45,5	    0,861785	44,0
     43,3749	    0,859184	44,2	    0,859774	44,1
     43,3768	     0,85554	44,7	    0,852937	44,3
     43,3788	     0,85766	44,6	    0,852527	44,5
     43,3807	    0,853182	44,7	    0,853579	44,2
     43,3827	    0,847187	45,7	      0,8479	44,9
     43,3847	    0,847996	45,1	    0,848045	44,6
     43,3866	    0,847806	44,9	    0,842882	44,8
     43,3886	    0,839898	45,2	    0,841806	44,9
     43,3905	    0,843684	44,5	    0,842526	44,3
     43,3925	     0,84125	45,0	    0,840404	44,7
     43,3944	    0,843756	44,5	    0,842122	44,5
     43,3964	    0,842151	44,6	    0,844359	44,0
     43,3983	    0,839641	45,1	    0,837433	45,0
     43,4003	    0,836156	45,5	    0,836423	44,6
     43,4022	    0,829555	45,8	    0,833136	45,5
     43,4042	    0,826797	45,8	    0,831144	45,1
     43,4062	    0,826542	45,9	    0,829714	45,3
     43,4081	    0,826619	45,3	    0,832191	44,6
     43,4101	     0,82535	45,4	     0,83013	44,4
      43,412	    0,826919	44,9	    0,827158	44,9
      43,414	     0,82529	44,8	    0,822098	44,9
     43,4159	    0,825862	45,0	    0,822443	45,0
     43,4179	    0,824917	45,1	    0,817151	45,6
     43,4198	    0,818608	46,2	    0,817416	45,4
     43,4218	    0,816389	46,0	    0,816122	45,7
     43,4238	    0,813406	46,1	    0,813599	45,8
     43,4257	    0,811104	46,3	    0,817823	45,1
     43,4277	    0,812371	45,6	     0,81293	45,5
     43,4296	    0,810106	45,6	    0,813962	44,6
     43,4316	    0,810455	45,2	    0,809133	45,1
     43,4335	    0,809505	44,9	    0,807161	45,1
     43,4355	    0,807664	45,3	    0,806098	45,5
     43,4374	    0,809241	45,8	    0,800277	46,0
     43,4394	    0,802346	46,1	     0,80059	45,9
     43,4413	    0,799532	46,7	    0,800897	46,3
     43,4433	    0,797657	46,1	    0,798573	46,0
     43,4453	    0,793025	46,3	    0,801665	45,1
     43,4472	    0,798072	45,7	    0,799069	45,5
     43,4492	    0,798653	45,8	    0,798423	45,2
     43,4511	    0,796884	45,8	    0,794145	45,6
     43,4531	    0,796893	45,3	    0,792639	45,6
      43,455	    0,792586	45,5	    0,794096	45,3
      43,457	     0,78992	45,8	    0,786474	46,4
     43,4589	    0,787064	46,4	    0,786166	46,4
     43,4609	    0,785773	46,6	    0,783241	46,2
     43,4629	    0,785993	46,4	    0,782832	46,1
     43,4648	    0,784113	46,8	      0,7867	45,6
     43,4668	     0,78001	46,6	    0,785633	45,4
     43,4687	     0,78241	45,8	    0,784987	45,3
     43,4707	    0,781454	45,7	    0,780315	45,2
     43,4726	    0,780757	45,7	    0,775183	45,8
     43,4746	    0,782069	45,7	    0,776915	45,9
     43,4765	    0,774999	46,6	    0,771565	46,9
     43,4785	    0,773204	46,3	    0,771055	46,7
     43,4804	     0,76866	47,0	    0,770384	46,6
     43,4824	    0,766433	46,9	    0,768192	46,7
     43,4844	    0,764952	47,1	    0,766033	46,8
     43,4863	     0,77261	46,2	    0,771101	45,8
     43,4883	    0,769356	46,2	    0,770274	45,8
     43,4902	    0,766126	46,4	    0,768361	46,0
     43,4922	     0,76682	46,2	    0,762336	46,0
     43,4941	    0,766724	46,2	    0,761274	46,3
     43,4961	    0,760164	46,8	    0,758348	46,6
      43,498	    0,758009	46,6	    0,755696	46,7
        43,5	    0,761087	46,1	    0,755158	47,2

