X-Data [Hz]	Laser (M - Filtered) [m/s]	Phase [Deg]	Laser (M - Filtered) [m/s]	Phase [Deg]	
	003: [06-04-24 10:45]		005: [06-04-24 10:50]	
         120	  0,00766906	64,3	  0,00983982	61,5
     120,098	  0,00888545	68,0	  0,00947542	61,1
     120,196	  0,00907307	60,1	  0,00871615	62,3
     120,293	   0,0094756	59,9	  0,00917422	63,4
     120,391	  0,00980357	63,2	  0,00970742	62,3
     120,489	   0,0092788	63,3	  0,00949061	58,8
     120,587	  0,00958838	58,8	  0,00915537	62,3
     120,684	  0,00917248	62,1	   0,0101558	62,9
     120,782	  0,00967317	60,3	  0,00916186	62,3
      120,88	  0,00929048	64,7	  0,00970874	63,3
     120,978	  0,00965722	60,3	   0,0094764	62,4
     121,075	  0,00963785	60,5	   0,0102911	64,0
     121,173	  0,00945588	63,7	  0,00958666	65,2
     121,271	  0,00923482	60,1	   0,0100449	63,4
     121,369	   0,0101535	63,0	  0,00917662	62,3
     121,466	  0,00964132	60,2	   0,0100856	62,3
     121,564	  0,00966572	62,8	  0,00951206	61,0
     121,662	   0,0104969	61,7	  0,00976332	60,4
      121,76	  0,00937415	61,7	   0,0102776	63,7
     121,857	   0,0104435	62,6	   0,0096728	58,8
     121,955	  0,00990538	56,7	   0,0106184	64,7
     122,053	   0,0100204	64,1	   0,0102567	63,8
     122,151	   0,0105234	62,8	  0,00985056	61,6
     122,248	   0,0101589	58,4	  0,00985016	58,2
     122,346	  0,00994289	58,2	   0,0102112	58,1
     122,444	  0,00988594	61,4	   0,0106074	60,6
     122,542	   0,0101241	61,5	   0,0107119	66,3
     122,639	   0,0103342	62,6	   0,0098054	58,9
     122,737	   0,0107052	66,2	   0,0107788	63,7
     122,835	   0,0103324	62,1	   0,0105162	64,4
     122,933	   0,0103959	62,6	   0,0102351	62,9
      123,03	   0,0103593	61,5	   0,0104626	62,0
     123,128	   0,0104859	62,3	    0,010752	64,9
     123,226	   0,0103488	58,2	   0,0106014	63,7
     123,324	   0,0107622	59,3	   0,0110367	61,5
     123,421	   0,0110497	60,8	    0,011329	62,0
     123,519	     0,01119	64,0	    0,011169	60,3
     123,617	   0,0108674	63,2	   0,0109496	63,2
     123,715	   0,0107442	59,3	    0,011535	64,4
     123,812	    0,011232	60,4	   0,0110967	59,6
      123,91	   0,0112847	64,1	   0,0109491	59,9
     124,008	   0,0109242	61,5	   0,0112068	63,4
     124,106	   0,0112786	58,9	   0,0113842	60,6
     124,203	   0,0118579	65,4	   0,0111178	59,8
     124,301	   0,0112353	60,7	   0,0117375	64,4
     124,399	    0,011435	63,5	   0,0113474	59,5
     124,497	   0,0116376	60,2	    0,011719	63,2
     124,594	   0,0111742	59,1	    0,011562	59,2
     124,692	    0,011986	60,6	   0,0117146	65,2
      124,79	   0,0114805	60,5	   0,0117793	60,2
     124,888	   0,0115566	64,1	   0,0117567	63,8
     124,985	   0,0118479	59,6	   0,0121173	61,4
     125,083	   0,0114461	57,5	   0,0117898	63,3
     125,181	   0,0119478	64,4	   0,0116654	58,3
     125,279	   0,0121099	62,1	   0,0122391	61,2
     125,376	   0,0121631	63,7	   0,0122443	63,5
     125,474	   0,0123881	61,4	   0,0120453	62,6
     125,572	   0,0120618	58,8	   0,0117458	60,4
      125,67	   0,0120989	59,2	   0,0124738	61,9
     125,767	   0,0120788	61,9	   0,0125547	61,2
     125,865	    0,012655	63,3	    0,012776	64,9
     125,963	   0,0127851	60,4	   0,0122335	58,9
     126,061	   0,0126472	59,6	   0,0127629	62,0
     126,158	   0,0124872	59,1	    0,012778	61,7
     126,256	   0,0125255	57,6	   0,0131554	62,7
     126,354	   0,0127484	58,2	   0,0130561	62,6
     126,452	   0,0128818	60,4	    0,013193	64,4
     126,549	   0,0128928	60,3	   0,0130581	59,2
     126,647	   0,0131359	62,3	   0,0132164	60,9
     126,745	   0,0133184	60,7	   0,0127447	58,9
     126,843	   0,0131391	63,0	   0,0130741	62,0
      126,94	   0,0131655	61,2	   0,0133538	62,7
     127,038	   0,0131843	58,0	   0,0135603	62,9
     127,136	   0,0135158	61,9	   0,0132502	60,0
     127,234	   0,0132376	62,4	   0,0136626	63,0
     127,331	   0,0133389	60,2	   0,0137879	60,7
     127,429	   0,0139312	62,3	   0,0135971	58,1
     127,527	   0,0135586	61,9	   0,0135244	61,9
     127,625	   0,0138191	58,9	   0,0140616	61,8
     127,722	   0,0141899	63,3	   0,0140107	58,9
      127,82	   0,0140916	59,8	   0,0141214	61,9
     127,918	   0,0139833	59,9	   0,0140699	59,0
     128,016	   0,0143815	61,1	   0,0142987	62,2
     128,113	   0,0141697	58,7	   0,0141568	60,1
     128,211	   0,0142072	60,0	   0,0143804	63,4
     128,309	   0,0147077	62,8	   0,0144029	62,5
     128,407	   0,0145211	61,2	   0,0145372	60,5
     128,504	   0,0148359	64,3	   0,0147698	62,2
     128,602	   0,0145842	59,1	    0,014573	61,8
       128,7	   0,0148436	60,9	   0,0148585	59,6
     128,798	   0,0150116	62,2	   0,0150693	61,8
     128,895	   0,0148448	61,2	   0,0153341	60,7
     128,993	   0,0151803	63,1	    0,015029	64,8
     129,091	   0,0153727	62,2	   0,0149577	60,9
     129,189	   0,0154647	63,4	   0,0153718	57,0
     129,286	   0,0153887	59,0	   0,0155241	60,6
     129,384	   0,0155768	60,4	   0,0153415	60,0
     129,482	   0,0156117	60,8	    0,015559	60,5
      129,58	   0,0157699	59,2	   0,0156929	59,7
     129,677	   0,0157921	62,5	   0,0160262	60,0
     129,775	   0,0159803	62,5	   0,0157947	60,4
     129,873	   0,0161115	61,7	   0,0159358	60,7
     129,971	   0,0161039	62,7	    0,016245	59,3
     130,068	    0,016053	61,1	   0,0164382	60,8
     130,166	   0,0161172	59,3	   0,0162498	61,7
     130,264	   0,0164488	58,9	   0,0165968	62,0
     130,362	   0,0166746	62,9	   0,0168712	58,9
     130,459	   0,0165194	61,1	   0,0168897	59,0
     130,557	   0,0166385	59,9	   0,0167612	61,8
     130,655	   0,0169236	60,1	   0,0171877	62,0
     130,753	   0,0170526	61,2	   0,0173847	59,6
      130,85	   0,0171252	58,7	   0,0173957	61,9
     130,948	   0,0174407	59,1	   0,0172418	61,6
     131,046	   0,0174721	60,4	   0,0177905	61,4
     131,144	   0,0175559	58,5	   0,0176959	60,8
     131,241	   0,0180627	60,9	   0,0179092	59,0
     131,339	   0,0182036	60,1	   0,0182107	57,6
     131,437	   0,0180228	58,2	   0,0181785	57,8
     131,535	   0,0184512	61,0	   0,0183963	60,9
     131,632	   0,0183604	58,4	     0,01848	63,7
      131,73	    0,018756	62,1	   0,0185039	59,6
     131,828	   0,0186517	58,6	   0,0188224	62,6
     131,926	   0,0188655	61,6	   0,0190077	58,8
     132,023	   0,0192471	60,0	    0,019524	59,2
     132,121	   0,0189013	60,1	    0,019265	58,6
     132,219	   0,0193857	59,2	   0,0195378	62,5
     132,317	   0,0195868	61,4	   0,0196583	59,6
     132,414	   0,0198274	59,4	   0,0195048	60,1
     132,512	   0,0199776	58,6	   0,0205762	59,3
      132,61	   0,0200709	58,1	   0,0199231	60,7
     132,708	    0,020295	59,1	   0,0203849	61,0
     132,805	   0,0202803	60,0	   0,0205672	61,3
     132,903	   0,0208649	57,5	    0,021016	60,3
     133,001	    0,020686	60,9	   0,0213353	59,8
     133,099	   0,0211318	59,0	   0,0211293	61,2
     133,196	   0,0212063	58,4	   0,0216662	60,6
     133,294	   0,0216479	61,2	   0,0218444	59,9
     133,392	   0,0216218	62,7	   0,0218675	59,8
      133,49	   0,0219728	60,9	   0,0222206	58,4
     133,587	   0,0220252	59,5	   0,0227794	57,8
     133,685	   0,0224924	57,8	   0,0228008	61,0
     133,783	   0,0225458	61,3	   0,0228214	59,9
     133,881	   0,0228153	58,7	    0,023377	58,9
     133,979	   0,0230327	59,8	   0,0233467	59,4
     134,076	   0,0231243	61,0	    0,023281	60,9
     134,174	   0,0235313	58,1	   0,0237384	59,4
     134,272	   0,0239131	59,4	   0,0239612	58,7
      134,37	   0,0240205	59,7	   0,0242386	61,1
     134,467	   0,0244237	59,2	   0,0247766	60,3
     134,565	   0,0246423	59,6	   0,0246634	61,6
     134,663	   0,0250645	58,3	   0,0252595	60,0
     134,761	    0,025153	60,5	    0,025158	59,3
     134,858	   0,0253988	59,0	   0,0256416	59,3
     134,956	   0,0259193	60,2	   0,0260724	60,2
     135,054	   0,0259741	60,3	   0,0264282	59,3
     135,152	    0,026183	57,6	   0,0268006	60,6
     135,249	   0,0266197	60,4	   0,0265892	60,2
     135,347	   0,0270013	59,8	   0,0275914	57,3
     135,445	   0,0272896	58,2	   0,0277517	61,7
     135,543	   0,0274926	59,1	   0,0280534	59,2
      135,64	   0,0281085	58,0	   0,0283901	58,6
     135,738	   0,0282087	60,7	   0,0288525	59,9
     135,836	   0,0284638	61,4	   0,0293402	58,4
     135,934	   0,0289416	59,7	   0,0292505	60,1
     136,031	   0,0292514	58,8	    0,029735	60,6
     136,129	   0,0298825	57,9	   0,0305798	58,9
     136,227	   0,0300915	58,1	   0,0306965	59,4
     136,325	   0,0307557	59,0	   0,0312911	57,8
     136,422	   0,0308239	59,4	   0,0320441	57,6
      136,52	    0,031276	60,2	   0,0323515	57,7
     136,618	   0,0315235	60,2	   0,0328004	58,5
     136,716	   0,0322178	59,6	    0,033322	59,1
     136,813	    0,032638	60,3	   0,0332691	59,1
     136,911	   0,0332001	60,7	   0,0337562	60,1
     137,009	   0,0338062	59,2	   0,0342967	60,1
     137,107	   0,0346189	57,4	   0,0352193	57,4
     137,204	   0,0348155	58,5	    0,035457	58,4
     137,302	   0,0351502	61,0	   0,0363123	60,6
       137,4	   0,0360488	58,9	   0,0371163	59,7
     137,498	   0,0364493	57,6	   0,0379765	58,4
     137,595	   0,0370301	59,4	   0,0383634	58,0
     137,693	   0,0375067	58,3	   0,0390734	59,7
     137,791	   0,0386826	57,7	   0,0401274	57,0
     137,889	   0,0392263	59,1	   0,0406127	57,9
     137,986	   0,0397848	57,8	   0,0417009	58,9
     138,084	   0,0406177	59,8	   0,0424949	59,0
     138,182	    0,041811	57,3	   0,0440439	58,0
      138,28	   0,0420036	60,5	   0,0442079	59,1
     138,377	   0,0433252	57,2	    0,046055	57,8
     138,475	   0,0444073	58,5	   0,0462838	59,1
     138,573	   0,0450998	59,2	   0,0475743	58,5
     138,671	   0,0465492	57,7	   0,0483757	59,6
     138,768	   0,0471776	59,9	    0,049789	59,1
     138,866	   0,0482713	59,9	   0,0516465	58,6
     138,964	   0,0496424	58,2	   0,0519333	59,9
     139,062	   0,0508373	58,9	   0,0530513	60,7
     139,159	   0,0513923	60,8	   0,0543117	59,3
     139,257	   0,0529647	61,0	   0,0566628	58,6
     139,355	   0,0541511	60,8	   0,0575098	60,7
     139,453	   0,0554877	61,0	   0,0583356	61,5
      139,55	   0,0568378	61,2	   0,0602687	60,6
     139,648	   0,0580301	60,3	   0,0612231	61,0
     139,746	   0,0596672	59,4	   0,0632649	61,3
     139,844	   0,0614334	60,1	   0,0645751	62,0
     139,941	   0,0627833	60,2	   0,0668095	61,9
     140,039	   0,0641996	61,3	   0,0689509	61,6
     140,137	   0,0659527	60,5	   0,0709505	61,7
     140,235	   0,0672918	61,6	   0,0725118	62,0
     140,332	    0,069068	62,9	   0,0748326	60,6
      140,43	   0,0714657	61,7	   0,0766006	60,5
     140,528	   0,0735474	60,2	   0,0786906	62,2
     140,626	   0,0757567	62,3	   0,0816587	61,9
     140,723	   0,0778478	63,1	   0,0846831	62,6
     140,821	   0,0802681	62,0	   0,0873979	62,0
     140,919	   0,0831089	60,9	   0,0900163	61,6
     141,017	    0,085294	63,5	   0,0925864	62,8
     141,114	   0,0880037	62,3	   0,0949268	62,9
     141,212	    0,091351	63,0	   0,0971068	61,8
      141,31	    0,093877	63,9	    0,100522	63,7
     141,408	   0,0971602	63,0	    0,103518	62,7
     141,505	   0,0999309	64,0	     0,10716	63,9
     141,603	    0,103601	63,6	    0,110006	62,5
     141,701	    0,106398	64,1	    0,113841	64,6
     141,799	    0,110218	63,8	    0,117649	62,4
     141,896	    0,113522	64,3	    0,120369	64,7
     141,994	    0,116819	65,5	    0,124349	64,3
     142,092	    0,120538	64,4	    0,128085	63,1
      142,19	    0,123871	65,7	    0,132068	65,5
     142,287	     0,12773	65,8	     0,13505	64,2
     142,385	    0,131997	65,4	    0,139971	64,0
     142,483	    0,135477	65,1	    0,143074	65,2
     142,581	    0,139177	64,8	     0,14669	65,9
     142,678	    0,142612	66,3	    0,150804	66,1
     142,776	    0,146345	66,7	    0,154329	64,5
     142,874	    0,150602	67,5	    0,158368	65,3
     142,972	    0,154917	67,0	    0,162845	64,4
     143,069	    0,158928	67,3	    0,166155	64,4
     143,167	    0,162641	67,7	    0,170158	65,0
     143,265	    0,166853	67,8	    0,173685	64,1
     143,363	    0,170863	67,8	    0,177825	65,2
      143,46	    0,174279	67,9	    0,181451	64,8
     143,558	    0,178023	67,9	    0,184903	65,3
     143,656	     0,18154	68,5	    0,187822	66,2
     143,754	    0,185495	68,0	    0,192027	67,4
     143,851	    0,190111	66,6	    0,195739	67,4
     143,949	    0,194338	66,6	    0,200274	67,9
     144,047	    0,198183	69,3	    0,203064	67,0
     144,145	    0,200752	69,1	    0,205581	68,0
     144,242	    0,205293	67,0	    0,209558	68,4
      144,34	     0,20917	69,4	    0,214206	67,3
     144,438	    0,211583	69,5	    0,216733	67,3
     144,536	     0,21692	67,1	    0,221318	68,6
     144,633	      0,2196	70,2	    0,224064	68,8
     144,731	    0,222983	68,2	    0,226911	69,6
     144,829	    0,228068	69,5	    0,231537	67,3
     144,927	    0,229766	68,9	    0,233792	69,4
     145,024	    0,234103	71,5	    0,238775	68,8
     145,122	    0,237572	67,6	    0,240879	70,4
      145,22	     0,24069	71,7	    0,243588	68,5
     145,318	    0,245498	68,4	    0,249668	69,0
     145,415	    0,246799	70,9	    0,250608	70,6
     145,513	    0,251828	71,6	    0,254671	68,9
     145,611	    0,256361	69,2	    0,260531	71,6
     145,709	    0,255971	69,8	    0,260553	77,2
     145,806	    0,260794	73,7	    0,249268	82,7
     145,904	    0,267416	71,5	    0,179299	-145,3
     146,002	    0,269423	68,7	    0,134462	-135,0
       146,1	    0,269395	68,0	    0,117894	-132,3
     146,197	     0,27083	72,4	    0,108593	-132,2
     146,295	     0,27625	74,8	    0,101405	-130,1
     146,393	    0,282375	73,2	   0,0975519	-130,4
     146,491	    0,285691	72,3	   0,0919769	-130,7
     146,588	    0,290005	72,3	   0,0888072	-129,5
     146,686	     0,29327	72,0	   0,0844174	-128,5
     146,784	    0,295518	73,2	   0,0820283	-129,1
     146,882	    0,298221	72,6	   0,0786284	-128,4
     146,979	    0,300437	73,3	   0,0780183	-128,7
     147,077	    0,301992	73,1	   0,0752877	-128,7
     147,175	    0,304655	72,8	   0,0718928	-126,6
     147,273	    0,308278	72,1	   0,0688069	-129,2
      147,37	    0,312559	71,4	    0,068255	-129,1
     147,468	    0,315589	71,5	   0,0673143	-128,8
     147,566	      0,3173	73,7	   0,0639554	-126,7
     147,664	    0,320638	71,7	   0,0628197	-128,2
     147,761	    0,324178	72,1	   0,0624292	-127,5
     147,859	    0,326037	72,9	    0,060171	-127,9
     147,957	    0,329406	73,3	   0,0587032	-127,9
     148,055	    0,332697	71,5	   0,0583105	-128,7
     148,152	    0,334826	72,4	   0,0562411	-126,8
      148,25	    0,338349	72,5	   0,0562473	-126,5
     148,348	    0,340424	72,1	   0,0541686	-127,3
     148,446	    0,343785	72,8	   0,0537204	-126,9
     148,544	    0,346543	72,7	   0,0515685	-128,6
     148,641	    0,349273	73,0	   0,0511945	-126,1
     148,739	    0,352246	71,5	   0,0503592	-127,7
     148,837	     0,35442	73,9	   0,0488195	-127,4
     148,935	    0,357757	72,9	   0,0491857	-126,1
     149,032	    0,360549	73,8	   0,0476241	-127,6
      149,13	    0,362909	73,5	   0,0468719	-127,9
     149,228	    0,365612	73,5	   0,0463802	-126,6
     149,326	    0,368347	74,6	   0,0452692	-126,4
     149,423	    0,371377	72,7	   0,0452001	-126,5
     149,521	    0,373766	74,1	   0,0433547	-127,9
     149,619	    0,376743	74,1	   0,0438885	-127,4
     149,717	    0,379497	73,1	   0,0421888	-126,7
     149,814	     0,38203	73,7	   0,0422122	-126,6
     149,912	    0,384595	73,5	   0,0415279	-125,2
      150,01	    0,387041	74,0	   0,0404737	-127,1
     150,108	    0,389914	75,1	   0,0405391	-127,9
     150,205	    0,392631	74,0	    0,040018	-127,8
     150,303	    0,395298	74,7	   0,0391644	-127,0
     150,401	    0,398046	74,3	   0,0387202	-126,2
     150,499	    0,400203	75,4	   0,0379033	-127,8
     150,596	    0,402581	75,1	   0,0373527	-127,3
     150,694	    0,405266	74,6	   0,0372341	-127,1
     150,792	    0,408256	74,0	   0,0372356	-126,4
      150,89	    0,410777	73,9	    0,036245	-127,4
     150,987	    0,413462	75,6	   0,0354769	-126,8
     151,085	    0,415728	74,0	   0,0355421	-126,1
     151,183	    0,418209	74,7	   0,0348091	-127,7
     151,281	    0,420868	76,3	   0,0343292	-126,2
     151,378	    0,423375	76,4	   0,0341494	-128,4
     151,476	    0,425779	74,9	   0,0334104	-126,0
     151,574	    0,428285	75,2	   0,0333228	-126,0
     151,672	    0,431498	74,6	   0,0326721	-126,5
     151,769	    0,433472	75,4	   0,0331514	-124,8
     151,867	    0,436158	75,8	   0,0317726	-125,8
     151,965	    0,438459	76,1	   0,0319239	-126,6
     152,063	    0,440603	74,7	   0,0312198	-126,2
      152,16	    0,443693	76,9	   0,0312076	-127,7
     152,258	    0,445905	75,3	   0,0309279	-126,1
     152,356	    0,448255	75,4	   0,0303409	-127,1
     152,454	    0,451456	75,7	    0,030268	-126,1
     152,551	    0,453027	75,9	   0,0303848	-125,2
     152,649	    0,455713	75,9	   0,0290357	-127,0
     152,747	    0,457874	76,2	     0,02896	-126,3
     152,845	    0,460912	76,8	   0,0289925	-125,1
     152,942	    0,463276	76,7	   0,0293331	-126,8
      153,04	    0,465896	76,8	   0,0285111	-127,1
     153,138	    0,468354	77,6	   0,0287605	-126,1
     153,236	     0,47056	76,4	   0,0279836	-126,6
     153,333	     0,47266	78,1	   0,0277508	-126,1
     153,431	    0,475319	77,3	   0,0272378	-125,3
     153,529	     0,47765	77,2	   0,0273098	-126,0
     153,627	    0,480089	76,5	   0,0267893	-126,1
     153,724	    0,483228	76,7	   0,0271278	-126,6
     153,822	    0,485212	77,4	   0,0269315	-126,1
      153,92	    0,487423	77,6	   0,0266491	-127,4
     154,018	    0,489663	76,2	    0,026274	-127,4
     154,115	    0,491384	77,7	    0,025372	-125,6
     154,213	    0,494314	77,6	   0,0255257	-125,5
     154,311	    0,497823	77,2	   0,0256048	-126,7
     154,409	    0,499309	77,0	   0,0253107	-126,5
     154,506	    0,500681	77,8	   0,0246962	-126,7
     154,604	    0,504121	78,8	   0,0251255	-125,4
     154,702	    0,505988	76,0	    0,024483	-126,7
       154,8	    0,508047	78,7	   0,0240321	-125,8
     154,897	    0,512155	78,5	   0,0245959	-125,4
     154,995	    0,512237	78,4	   0,0234558	-126,0
     155,093	    0,516728	78,0	   0,0240772	-125,8
     155,191	    0,516756	78,6	   0,0230986	-126,1
     155,288	    0,521444	79,5	   0,0238644	-125,4
     155,386	    0,520924	78,6	   0,0230179	-126,5
     155,484	    0,526862	75,6	   0,0234884	-126,7
     155,582	    0,526816	81,4	   0,0229042	-127,0
     155,679	    0,528716	77,2	   0,0224085	-126,0
     155,777	    0,533955	77,7	   0,0229177	-125,2
     155,875	    0,531741	79,9	   0,0223765	-126,3
     155,973	    0,536488	74,7	   0,0220631	-125,5
      156,07	     0,54131	77,7	   0,0219237	-128,1
     156,168	    0,541048	81,0	   0,0226716	-124,9
     156,266	    0,541368	81,8	    0,022151	-126,3
     156,364	    0,543871	79,2	   0,0217564	-126,6
     156,461	    0,547145	77,2	   0,0214139	-125,0
     156,559	    0,551613	78,2	   0,0209433	-127,9
     156,657	    0,553909	78,9	   0,0208024	-126,3
     156,755	     0,55608	79,3	   0,0205324	-127,1
     156,852	    0,558281	78,4	   0,0208827	-126,4
      156,95	    0,560425	79,3	   0,0207204	-124,5
     157,048	    0,562178	78,9	   0,0203559	-125,0
     157,146	    0,564728	78,7	   0,0202348	-127,0
     157,243	      0,5667	78,2	   0,0203562	-125,4
     157,341	     0,56772	80,2	   0,0205175	-125,3
     157,439	    0,570062	80,2	   0,0204732	-125,4
     157,537	    0,572396	81,9	   0,0203402	-128,7
     157,634	    0,575943	79,8	   0,0197097	-126,5
     157,732	    0,578013	79,3	    0,019917	-125,4
      157,83	     0,57909	80,0	    0,020237	-125,5
     157,928	     0,58153	81,9	   0,0197583	-127,7
     158,025	    0,584281	80,6	   0,0188374	-124,7
     158,123	    0,586105	79,3	   0,0196315	-125,7
     158,221	    0,588412	81,3	   0,0190513	-125,5
     158,319	    0,591149	78,8	   0,0189437	-126,7
     158,416	    0,592607	81,4	   0,0193782	-126,0
     158,514	    0,595881	80,6	   0,0188151	-127,8
     158,612	    0,596931	82,0	   0,0188232	-126,2
      158,71	    0,599881	81,7	     0,01885	-125,2
     158,807	    0,601378	81,9	   0,0186478	-126,1
     158,905	    0,604547	81,3	   0,0186687	-125,1
     159,003	    0,606338	80,5	   0,0180076	-124,5
     159,101	      0,6082	82,3	   0,0184228	-126,5
     159,198	    0,611097	80,3	   0,0180735	-126,2
     159,296	    0,613331	80,9	   0,0178721	-125,3
     159,394	    0,614695	80,7	   0,0178029	-127,5
     159,492	    0,617931	80,5	   0,0183957	-125,3
     159,589	    0,619986	81,6	   0,0178043	-124,4
     159,687	    0,621515	82,8	   0,0175584	-125,6
     159,785	    0,623777	82,0	    0,017527	-127,2
     159,883	    0,626405	81,4	   0,0173527	-127,1
      159,98	     0,62837	82,4	   0,0174152	-125,6
     160,078	    0,630444	81,4	   0,0176334	-126,9
     160,176	     0,63275	82,0	   0,0172491	-126,1
     160,274	    0,634718	82,0	   0,0172823	-125,5
     160,371	    0,637055	81,9	   0,0168329	-126,6
     160,469	    0,639058	81,3	   0,0172131	-126,2
     160,567	    0,641342	82,3	   0,0167914	-124,8
     160,665	    0,643678	82,7	   0,0166182	-125,7
     160,762	    0,645574	82,8	   0,0167082	-126,0
      160,86	    0,648463	82,8	   0,0164957	-127,3
     160,958	    0,650797	81,0	     0,01669	-125,5
     161,056	    0,652954	81,1	   0,0167064	-125,8
     161,153	    0,655025	83,1	   0,0162813	-127,6
     161,251	    0,656615	84,4	    0,016508	-126,8
     161,349	    0,659361	82,9	   0,0165861	-127,0
     161,447	    0,661506	82,2	   0,0162287	-125,9
     161,544	    0,663249	82,4	   0,0161747	-123,6
     161,642	    0,665669	82,2	   0,0162769	-125,1
      161,74	    0,667686	82,6	   0,0157575	-128,7
     161,838	    0,669987	84,0	   0,0160003	-126,2
     161,935	    0,672155	83,1	   0,0157116	-127,5
     162,033	    0,674549	83,9	   0,0159393	-125,4
     162,131	    0,676234	85,5	   0,0155396	-126,3
     162,229	    0,678453	83,9	   0,0159611	-125,8
     162,326	    0,680152	83,6	   0,0155269	-126,6
     162,424	    0,682735	84,0	   0,0154716	-127,9
     162,522	    0,685178	83,1	   0,0157087	-125,7
      162,62	    0,686887	84,9	   0,0152331	-127,7
     162,717	    0,689196	84,6	   0,0153237	-126,2
     162,815	    0,691634	81,8	   0,0153947	-125,6
     162,913	    0,693487	85,1	   0,0154573	-125,5
     163,011	    0,695665	84,0	   0,0150374	-127,8
     163,109	    0,697801	85,2	   0,0149591	-128,0
     163,206	    0,700293	83,3	   0,0149451	-126,8
     163,304	    0,702736	81,8	   0,0150748	-125,2
     163,402	    0,705029	83,4	   0,0150173	-126,8
       163,5	    0,706976	83,6	   0,0150404	-126,5
     163,597	    0,709475	82,3	   0,0150193	-123,9
     163,695	    0,710967	84,9	   0,0148823	-124,7
     163,793	    0,712658	85,4	   0,0148306	-124,0
     163,891	    0,715185	84,7	   0,0147263	-126,0
     163,988	    0,717014	85,0	   0,0147676	-126,0
     164,086	    0,719446	83,6	   0,0147443	-124,0
     164,184	    0,722058	84,5	   0,0144658	-124,7
     164,282	    0,724009	84,5	   0,0142634	-126,2
     164,379	    0,725964	85,7	   0,0143856	-124,6
     164,477	    0,727907	85,4	   0,0145023	-123,0
     164,575	    0,730346	85,4	   0,0142602	-125,9
     164,673	    0,732442	84,6	   0,0140594	-125,9
      164,77	    0,734287	86,9	   0,0144843	-126,2
     164,868	    0,736935	84,6	   0,0143127	-124,5
     164,966	    0,738843	85,1	    0,013819	-127,7
     165,064	    0,740746	86,8	   0,0141509	-124,8
     165,161	    0,742709	85,0	   0,0138114	-125,3
     165,259	    0,745249	87,0	   0,0141845	-126,5
     165,357	    0,747367	85,5	   0,0139691	-125,9
     165,455	    0,749303	86,4	   0,0139348	-125,1
     165,552	    0,751751	83,9	   0,0137491	-125,7
      165,65	    0,753508	86,5	   0,0138263	-124,2
     165,748	    0,755982	85,6	   0,0137344	-128,8
     165,846	    0,757851	86,2	   0,0136341	-126,4
     165,943	    0,760101	86,2	    0,013799	-126,4
     166,041	    0,762788	85,2	   0,0135006	-128,2
     166,139	    0,764586	86,6	    0,013596	-125,8
     166,237	    0,766683	85,1	   0,0134514	-124,4
     166,334	    0,768929	86,0	   0,0135336	-126,0
     166,432	    0,771365	85,5	   0,0133265	-127,5
      166,53	    0,773194	86,0	   0,0132472	-127,6
     166,628	    0,775504	86,9	   0,0133364	-126,6
     166,725	    0,777221	87,3	   0,0133557	-126,8
     166,823	    0,779671	87,0	   0,0133034	-126,9
     166,921	    0,781584	86,3	   0,0131963	-123,8
     167,019	    0,783666	86,8	   0,0131383	-126,2
     167,116	    0,785648	88,4	    0,013148	-127,1
     167,214	    0,787889	87,0	   0,0131025	-125,3
     167,312	    0,789804	88,1	   0,0129641	-124,2
      167,41	    0,792449	87,8	    0,013062	-125,9
     167,507	    0,794379	86,5	   0,0130067	-127,3
     167,605	    0,796821	86,1	   0,0129873	-127,8
     167,703	    0,798574	86,8	   0,0129822	-124,6
     167,801	    0,800715	86,7	   0,0128501	-122,8
     167,898	    0,803156	88,3	   0,0128448	-127,3
     167,996	    0,805036	85,5	   0,0126593	-127,2
     168,094	    0,807306	87,0	   0,0126865	-126,7
     168,192	    0,809763	87,5	   0,0125961	-127,3
     168,289	    0,811495	87,5	   0,0126186	-125,3
     168,387	    0,813698	86,2	   0,0124416	-128,4
     168,485	    0,815832	86,4	   0,0124672	-125,4
     168,583	    0,817779	87,1	   0,0124249	-127,5
      168,68	    0,819692	89,9	   0,0125848	-125,2
     168,778	     0,82244	87,0	   0,0122348	-129,8
     168,876	    0,824356	87,0	   0,0123514	-126,1
     168,974	    0,826476	86,4	   0,0122081	-129,0
     169,071	    0,828438	88,6	   0,0123274	-125,3
     169,169	    0,831284	87,5	   0,0124677	-128,3
     169,267	    0,833032	86,8	    0,012163	-125,9
     169,365	    0,834687	88,5	   0,0121414	-126,2
     169,462	    0,836803	88,8	   0,0122956	-128,6
      169,56	    0,839373	88,5	   0,0120274	-125,1
     169,658	    0,841499	87,3	   0,0121455	-124,6
     169,756	    0,843596	89,0	   0,0118999	-128,4
     169,853	    0,845557	88,5	   0,0119726	-127,6
     169,951	    0,848168	87,9	   0,0122007	-126,9
     170,049	    0,850104	88,7	   0,0117874	-121,9
     170,147	    0,851945	90,3	   0,0119661	-123,4
     170,244	    0,854143	89,2	   0,0119499	-126,5
     170,342	    0,856619	89,7	    0,011639	-123,6
      170,44	    0,858856	89,1	   0,0118188	-128,0
     170,538	    0,860832	88,5	   0,0118699	-125,1
     170,635	    0,863038	89,1	   0,0118932	-127,2
     170,733	    0,865399	89,1	   0,0118343	-125,9
     170,831	    0,867033	88,8	   0,0116379	-127,9
     170,929	    0,869695	88,7	   0,0117457	-125,8
     171,026	    0,871452	89,5	   0,0116135	-127,8
     171,124	    0,873929	89,0	   0,0114955	-125,6
     171,222	    0,875872	89,7	   0,0118067	-127,9
      171,32	    0,878181	89,8	   0,0116457	-126,7
     171,417	    0,880211	88,5	    0,011492	-126,8
     171,515	    0,882039	91,0	   0,0116914	-127,9
     171,613	    0,884772	89,1	   0,0116616	-124,7
     171,711	    0,886131	90,5	   0,0113951	-125,8
     171,808	    0,888625	88,9	   0,0116105	-128,2
     171,906	    0,891054	88,9	   0,0114753	-125,7
     172,004	    0,893178	88,4	   0,0115094	-124,5
     172,102	    0,894699	91,2	   0,0113484	-124,5
     172,199	    0,897299	88,3	   0,0112899	-126,2
     172,297	    0,899034	90,1	   0,0114269	-126,4
     172,395	    0,901797	90,4	   0,0111506	-125,0
     172,493	    0,903532	89,4	   0,0109628	-127,6
      172,59	    0,906062	90,4	   0,0115859	-130,5
     172,688	    0,907712	89,2	   0,0108964	-125,5
     172,786	    0,909868	90,9	   0,0111608	-129,1
     172,884	    0,911937	90,7	   0,0112001	-125,5
     172,981	    0,914519	88,9	   0,0111452	-126,7
     173,079	    0,916295	88,6	    0,011016	-125,8
     173,177	     0,91857	90,6	   0,0111905	-128,7
     173,275	    0,920641	91,7	   0,0110706	-128,0
     173,372	    0,923131	90,0	   0,0112287	-126,6
      173,47	    0,924797	89,5	   0,0111511	-125,8
     173,568	    0,926889	90,3	   0,0109061	-124,7
     173,666	    0,929367	88,9	   0,0109705	-126,4
     173,763	    0,931472	90,2	   0,0109312	-128,0
     173,861	    0,933576	91,3	   0,0109764	-126,4
     173,959	    0,935844	89,9	     0,01115	-126,7
     174,057	    0,937804	89,5	   0,0109221	-125,4
     174,154	    0,939484	91,4	   0,0108918	-130,3
     174,252	    0,942273	89,6	   0,0108379	-127,2
      174,35	    0,944546	90,8	   0,0109658	-127,9
     174,448	    0,946593	90,5	   0,0107745	-127,4
     174,545	    0,948606	92,2	   0,0105971	-124,3
     174,643	    0,950729	92,0	    0,010975	-127,3
     174,741	    0,953182	91,0	   0,0108105	-126,5
     174,839	    0,954804	90,1	   0,0109989	-128,5
     174,936	    0,956958	90,1	   0,0109518	-128,2
     175,034	    0,959302	90,4	   0,0108728	-124,8
     175,132	    0,961748	89,9	   0,0107638	-127,8
      175,23	    0,963467	92,4	    0,010346	-126,6
     175,327	    0,965147	92,9	   0,0109277	-126,9
     175,425	    0,967784	90,7	   0,0107771	-127,9
     175,523	    0,969721	92,0	   0,0101037	-122,3
     175,621	    0,972112	92,4	    0,010808	-129,3
     175,718	    0,974598	91,9	   0,0101233	-124,5
     175,816	    0,976888	90,1	   0,0108427	-125,8
     175,914	    0,979149	92,0	   0,0102238	-125,5
     176,012	    0,980912	92,4	   0,0105515	-125,9
     176,109	    0,983323	91,7	   0,0104142	-128,5
     176,207	    0,985734	91,7	    0,010759	-127,8
     176,305	    0,987842	92,2	   0,0101231	-123,5
     176,403	    0,989956	92,4	   0,0104779	-126,6
       176,5	    0,992071	92,0	   0,0105708	-125,1
     176,598	    0,994374	92,2	   0,0101782	-127,1
     176,696	    0,996546	89,9	    0,010503	-127,7
     176,794	    0,998476	91,8	   0,0100955	-125,0
     176,891	     1,00038	91,9	   0,0106229	-128,5
     176,989	     1,00249	92,8	   0,0106415	-130,2
     177,087	     1,00536	91,7	   0,0103994	-126,6
     177,185	     1,00707	91,0	   0,0103496	-127,4
     177,283	     1,00978	91,9	   0,0104444	-129,5
      177,38	     1,01164	93,2	   0,0104227	-126,2
     177,478	      1,0137	94,2	   0,0103768	-124,6
     177,576	     1,01576	92,1	   0,0101713	-128,0
     177,674	     1,01826	92,8	   0,0102253	-128,2
     177,771	     1,02031	93,4	    0,010291	-127,4
     177,869	     1,02229	92,6	   0,0104504	-127,4
     177,967	     1,02427	92,7	   0,0101051	-125,6
     178,065	     1,02628	91,7	   0,0102312	-126,6
     178,162	     1,02867	92,4	   0,0105876	-130,2
      178,26	     1,03077	90,9	   0,0100637	-127,8
     178,358	     1,03322	93,6	  0,00993912	-125,2
     178,456	     1,03487	93,2	   0,0102183	-125,9
     178,553	     1,03726	91,8	    0,010394	-131,0
     178,651	     1,03934	92,3	  0,00978461	-125,0
     178,749	     1,04135	93,2	   0,0100155	-125,9
     178,847	     1,04336	93,6	   0,0097296	-125,2
     178,944	     1,04536	95,3	   0,0101116	-128,5
     179,042	     1,04775	93,2	  0,00971678	-128,3
      179,14	     1,05011	92,7	   0,0100016	-124,6
     179,238	      1,0521	93,1	   0,0100746	-125,6
     179,335	     1,05406	92,6	  0,00986393	-128,9
     179,433	     1,05668	94,0	  0,00977619	-123,3
     179,531	     1,05891	92,3	   0,0108501	-129,1
     179,629	     1,06089	93,1	  0,00971635	-126,6
     179,726	      1,0631	94,3	  0,00982128	-127,4
     179,824	     1,06542	93,4	   0,0103784	-124,8
     179,922	     1,06773	92,9	  0,00988119	-124,8
      180,02	     1,07024	92,6	  0,00990151	-126,9
     180,117	     1,07203	93,3	  0,00938154	-125,1
     180,215	     1,07424	91,1	   0,0100897	-125,2
     180,313	     1,07592	94,2	  0,00996013	-128,1
     180,411	     1,07812	92,6	   0,0102197	-128,9
     180,508	     1,08037	94,0	   0,0097279	-126,7
     180,606	      1,0824	93,4	   0,0100029	-126,8
     180,704	     1,08486	93,8	   0,0100941	-122,9
     180,802	     1,08693	92,3	    0,009308	-128,3
     180,899	     1,08904	92,9	  0,00970378	-125,8
     180,997	     1,09136	93,5	  0,00998085	-123,9
     181,095	     1,09339	92,8	   0,0101992	-125,7
     181,193	      1,0958	94,8	  0,00950438	-126,2
      181,29	     1,09777	94,1	    0,010262	-126,1
     181,388	      1,0996	95,2	   0,0100444	-128,3
     181,486	     1,10229	93,4	  0,00969808	-126,6
     181,584	     1,10428	95,4	  0,00955812	-125,3
     181,681	     1,10623	93,6	   0,0100361	-127,2
     181,779	     1,10826	95,2	  0,00934815	-127,4
     181,877	     1,11079	93,4	  0,00990017	-126,8
     181,975	      1,1126	95,2	  0,00937164	-127,7
     182,072	     1,11511	94,4	   0,0102848	-129,2
      182,17	     1,11716	93,9	  0,00951161	-126,9
     182,268	     1,11915	95,4	  0,00973177	-126,9
     182,366	     1,12159	95,3	  0,00956608	-125,1
     182,463	     1,12347	94,7	  0,00998229	-128,7
     182,561	     1,12557	94,9	  0,00948586	-125,7
     182,659	     1,12852	93,4	  0,00981485	-125,3
     182,757	     1,13037	95,1	  0,00936778	-126,5
     182,854	     1,13248	95,3	  0,00960056	-129,1
     182,952	     1,13462	94,8	  0,00988519	-127,1
      183,05	     1,13698	93,7	  0,00986463	-127,1
     183,148	     1,13934	94,9	  0,00921574	-125,3
     183,245	     1,14177	95,3	  0,00985851	-124,9
     183,343	     1,14386	95,8	  0,00924531	-124,4
     183,441	     1,14597	95,1	  0,00977386	-126,9
     183,539	     1,14847	95,3	  0,00911192	-126,6
     183,636	     1,15038	95,4	  0,00957071	-128,0
     183,734	     1,15243	96,5	  0,00936753	-125,5
     183,832	     1,15457	94,3	  0,00917183	-125,5
      183,93	     1,15687	95,3	  0,00988198	-125,8
     184,027	     1,15898	94,6	  0,00992591	-127,4
     184,125	     1,16088	95,8	  0,00947065	-127,2
     184,223	     1,16344	94,6	  0,00937831	-124,9
     184,321	     1,16594	94,4	  0,00948073	-125,2
     184,418	     1,16771	96,5	   0,0094676	-126,5
     184,516	     1,17004	96,4	   0,0092153	-128,8
     184,614	     1,17231	96,8	  0,00972542	-129,4
     184,712	     1,17438	95,6	  0,00933939	-129,7
     184,809	     1,17646	96,6	  0,00887704	-124,9
     184,907	     1,17841	95,1	  0,00921274	-126,2
     185,005	     1,18079	96,9	  0,00923268	-122,7
     185,103	     1,18323	94,8	  0,00995444	-127,3
       185,2	     1,18564	96,7	   0,0089912	-126,7
     185,298	     1,18759	96,0	  0,00933041	-125,2
     185,396	     1,18996	96,4	  0,00916545	-128,6
     185,494	     1,19213	96,0	  0,00940252	-123,8
     185,591	     1,19416	96,0	  0,00963467	-125,9
     185,689	     1,19662	95,7	  0,00929089	-125,0
     185,787	     1,19846	95,4	  0,00982883	-128,1
     185,885	     1,20075	97,7	  0,00972322	-125,1
     185,982	     1,20302	95,3	  0,00926214	-126,5
      186,08	     1,20499	96,6	  0,00917386	-128,3
     186,178	     1,20815	95,2	  0,00940883	-126,4
     186,276	      1,2098	97,4	  0,00911825	-130,4
     186,373	     1,21162	98,2	  0,00972632	-124,2
     186,471	     1,21413	96,7	  0,00875431	-126,0
     186,569	     1,21652	97,6	  0,00953196	-128,2
     186,667	     1,21879	99,5	  0,00980863	-126,3
     186,764	     1,22101	96,5	  0,00967838	-125,3
     186,862	     1,22346	96,9	  0,00892105	-125,5
      186,96	     1,22543	97,0	  0,00931315	-124,9
     187,058	      1,2276	96,1	  0,00940686	-126,6
     187,155	     1,22994	96,8	  0,00924547	-129,9
     187,253	     1,23205	97,5	  0,00927704	-130,6
     187,351	     1,23494	97,1	  0,00903399	-128,9
     187,449	     1,23621	97,9	  0,00938211	-126,4
     187,546	     1,23873	96,4	  0,00886126	-124,9
     187,644	     1,24164	96,5	   0,0090229	-126,3
     187,742	     1,24281	100,2	  0,00889978	-127,7
      187,84	     1,24456	99,2	  0,00928743	-126,9
     187,937	     1,24743	98,5	  0,00970991	-128,2
     188,035	     1,24869	97,0	  0,00886961	-125,1
     188,133	     1,25096	101,4	   0,0092304	-125,3
     188,231	      1,2518	104,1	   0,0089317	-129,0
     188,328	     1,25518	101,0	  0,00907664	-124,0
     188,426	      1,2549	108,6	  0,00956851	-128,6
     188,524	     1,25711	106,0	  0,00888427	-127,6
     188,622	      1,2583	108,5	  0,00892362	-126,6
     188,719	     1,25881	112,4	  0,00948675	-124,9
     188,817	     1,26327	109,9	  0,00921598	-125,7
     188,915	     1,26533	110,6	  0,00924791	-124,6
     189,013	     1,26952	107,6	  0,00944036	-128,2
      189,11	     1,27276	104,9	  0,00951772	-124,7
     189,208	     1,27635	104,7	  0,00895238	-127,9
     189,306	     1,27875	101,9	   0,0090668	-126,8
     189,404	     1,28128	101,5	  0,00945899	-127,8
     189,501	     1,28373	102,9	  0,00932388	-125,7
     189,599	     1,28578	100,7	  0,00933595	-126,9
     189,697	     1,28881	100,2	  0,00954317	-127,6
     189,795	     1,29091	100,3	  0,00899907	-125,3
     189,892	     1,29271	99,4	  0,00885798	-125,8
      189,99	     1,29569	100,4	   0,0090119	-126,7
     190,088	     1,29792	102,2	  0,00900231	-126,0
     190,186	     1,30038	101,9	  0,00912328	-127,2
     190,283	     1,30258	99,8	  0,00897912	-128,4
     190,381	     1,30512	98,6	  0,00885578	-127,9
     190,479	     1,30703	100,0	  0,00900722	-125,3
     190,577	     1,30924	101,5	  0,00927181	-126,0
     190,674	     1,31202	97,8	  0,00888543	-125,1
     190,772	     1,31477	97,4	  0,00880363	-125,4
      190,87	     1,31585	99,7	  0,00931873	-126,4
     190,968	     1,31893	101,6	  0,00966012	-126,1
     191,065	     1,32138	99,8	  0,00990569	-124,1
     191,163	     1,32343	100,3	  0,00938048	-124,8
     191,261	     1,32591	98,5	  0,00915106	-127,0
     191,359	     1,32791	99,4	  0,00941838	-125,2
     191,456	     1,33015	100,5	  0,00996908	-124,9
     191,554	      1,3329	99,9	  0,00924673	-128,2
     191,652	     1,33513	101,2	   0,0089925	-123,3
      191,75	     1,33719	98,4	  0,00866508	-126,0
     191,848	     1,33944	99,0	  0,00898197	-127,1
     191,945	     1,34224	99,4	  0,00955184	-124,6
     192,043	     1,34409	101,3	  0,00892652	-127,2
     192,141	      1,3463	100,1	  0,00854834	-127,4
     192,239	     1,34924	101,3	  0,00962958	-127,5
     192,336	     1,35097	101,4	  0,00895242	-126,5
     192,434	     1,35352	99,8	  0,00925323	-125,3
     192,532	      1,3562	98,8	   0,0092745	-125,0
      192,63	     1,35846	101,0	   0,0088901	-127,4
     192,727	     1,36108	99,6	  0,00935586	-127,7
     192,825	     1,36229	100,2	    0,009407	-128,6
     192,923	     1,36528	100,4	  0,00904234	-125,7
     193,021	      1,3678	100,1	   0,0089597	-122,2
     193,118	     1,37039	99,2	  0,00874418	-129,1
     193,216	     1,37238	100,4	  0,00927054	-124,7
     193,314	     1,37483	101,3	  0,00899304	-126,3
     193,412	      1,3771	101,7	  0,00960195	-127,0
     193,509	     1,37979	98,7	  0,00939606	-124,9
     193,607	     1,38164	101,6	  0,00936977	-126,7
     193,705	     1,38401	99,9	  0,00920238	-128,1
     193,803	     1,38676	99,8	  0,00926093	-128,8
       193,9	     1,38906	101,6	  0,00867359	-127,8
     193,998	     1,39143	101,2	  0,00893047	-129,5
     194,096	     1,39348	101,7	  0,00898524	-124,9
     194,194	     1,39623	101,3	  0,00882099	-125,2
     194,291	     1,39843	99,8	   0,0089748	-125,4
     194,389	     1,40064	101,3	  0,00940781	-125,6
     194,487	     1,40381	101,2	  0,00927694	-126,2
     194,585	     1,40567	100,5	  0,00888231	-123,5
     194,682	     1,40804	101,1	   0,0092638	-123,6
      194,78	     1,41055	100,1	  0,00894358	-128,3
     194,878	     1,41271	100,7	  0,00875962	-124,6
     194,976	     1,41512	101,2	  0,00923357	-124,5
     195,073	     1,41738	102,8	  0,00928724	-124,5
     195,171	     1,42025	100,0	  0,00932392	-126,8
     195,269	     1,42276	100,2	  0,00862468	-126,7
     195,367	     1,42466	99,7	  0,00921603	-126,6
     195,464	     1,42714	100,0	  0,00889552	-126,1
     195,562	     1,42928	101,0	  0,00936528	-126,8
      195,66	      1,4321	100,6	  0,00960806	-124,9
     195,758	     1,43425	101,6	  0,00908018	-126,2
     195,855	     1,43675	99,5	  0,00874835	-129,9
     195,953	     1,43897	100,4	  0,00909975	-124,2
     196,051	     1,44138	99,0	  0,00906892	-123,9
     196,149	     1,44377	101,1	  0,00921356	-130,6
     196,246	     1,44553	102,5	  0,00910689	-124,9
     196,344	     1,44848	102,7	  0,00897839	-128,5
     196,442	     1,45053	101,4	  0,00861375	-129,4
      196,54	     1,45297	100,7	  0,00938433	-126,1
     196,637	     1,45517	102,4	  0,00912144	-124,7
     196,735	     1,45759	102,8	  0,00885361	-122,9
     196,833	     1,46001	102,8	  0,00831757	-126,8
     196,931	     1,46301	100,5	  0,00881355	-130,4
     197,028	     1,46538	101,3	  0,00876391	-127,4
     197,126	     1,46765	99,8	  0,00876655	-126,4
     197,224	     1,47001	101,9	  0,00915753	-127,1
     197,322	     1,47244	101,7	  0,00919802	-124,9
     197,419	     1,47482	102,0	  0,00852193	-128,0
     197,517	     1,47727	102,4	  0,00876742	-125,2
     197,615	     1,47962	102,3	  0,00948643	-123,8
     197,713	     1,48209	103,2	   0,0092556	-127,2
      197,81	      1,4843	102,8	  0,00910242	-125,9
     197,908	     1,48718	101,2	   0,0089507	-127,0
     198,006	      1,4895	101,7	  0,00887753	-127,6
     198,104	     1,49145	104,1	  0,00882462	-126,7
     198,201	     1,49417	102,5	  0,00930424	-123,9
     198,299	     1,49663	102,1	  0,00925731	-125,5
     198,397	     1,49949	101,8	  0,00892089	-129,0
     198,495	     1,50184	101,9	  0,00887248	-126,5
     198,592	     1,50397	102,9	   0,0093655	-125,1
      198,69	      1,5065	103,9	  0,00909692	-127,6
     198,788	     1,50913	100,9	  0,00907615	-123,4
     198,886	     1,51169	103,0	  0,00922434	-124,4
     198,983	     1,51341	102,2	  0,00880267	-126,4
     199,081	     1,51603	104,4	  0,00901036	-128,5
     199,179	     1,51891	102,1	  0,00925754	-126,5
     199,277	     1,52143	101,6	    0,009279	-124,2
     199,374	     1,52364	102,7	  0,00905337	-125,7
     199,472	     1,52582	103,4	  0,00888209	-126,0
      199,57	      1,5289	101,5	  0,00930555	-124,4
     199,668	     1,53137	102,0	  0,00919206	-125,0
     199,765	     1,53354	103,7	  0,00927602	-125,8
     199,863	     1,53616	102,3	  0,00895131	-128,5
     199,961	     1,53851	103,3	  0,00922238	-126,4
     200,059	     1,54128	101,6	  0,00937967	-126,2
     200,156	     1,54365	102,1	  0,00909333	-126,2
     200,254	      1,5461	103,7	  0,00931065	-122,8
     200,352	     1,54844	103,1	  0,00926584	-123,4
      200,45	     1,55067	103,1	  0,00948732	-124,0
     200,547	     1,55321	104,5	  0,00925307	-124,6
     200,645	     1,55582	105,6	   0,0089493	-126,7
     200,743	     1,55776	105,7	  0,00900997	-126,5
     200,841	     1,56098	104,3	  0,00902092	-123,7
     200,938	     1,56338	103,0	  0,00888607	-126,2
     201,036	     1,56621	102,9	  0,00919612	-125,1
     201,134	     1,56824	103,9	  0,00928603	-122,9
     201,232	     1,57115	103,0	   0,0091647	-124,9
     201,329	     1,57374	104,0	  0,00910009	-123,3
     201,427	     1,57574	103,8	  0,00930405	-123,2
     201,525	     1,57854	104,7	  0,00951294	-126,9
     201,623	      1,5808	104,6	   0,0090327	-125,1
      201,72	     1,58379	103,6	  0,00919326	-124,1
     201,818	     1,58624	105,0	  0,00920531	-125,9
     201,916	     1,58917	103,9	  0,00897867	-126,2
     202,014	     1,59096	105,0	  0,00919688	-125,5
     202,111	     1,59405	103,1	  0,00931455	-122,7
     202,209	     1,59609	103,4	  0,00907501	-130,6
     202,307	     1,59907	103,8	  0,00939645	-123,7
     202,405	     1,60142	103,3	  0,00924038	-124,9
     202,502	     1,60417	105,6	   0,0090622	-126,5
       202,6	     1,60672	103,4	  0,00939431	-126,1
     202,698	     1,60956	105,2	  0,00940104	-126,4
     202,796	     1,61225	104,3	  0,00907272	-126,6
     202,893	     1,61469	104,7	  0,00926511	-128,2
     202,991	     1,61726	105,8	  0,00907369	-125,4
     203,089	     1,61996	102,1	  0,00902419	-126,4
     203,187	     1,62283	104,6	  0,00933218	-124,4
     203,284	     1,62487	105,5	   0,0094359	-125,7
     203,382	     1,62746	105,6	  0,00935267	-124,3
      203,48	     1,62998	104,5	  0,00924695	-125,5
     203,578	     1,63257	106,6	  0,00937162	-124,3
     203,675	     1,63612	101,8	  0,00954089	-123,9
     203,773	     1,63802	104,6	  0,00897037	-127,4
     203,871	     1,64122	103,6	  0,00908665	-125,7
     203,969	      1,6436	105,0	  0,00931419	-122,0
     204,066	     1,64682	105,2	  0,00951292	-126,0
     204,164	     1,64878	105,2	  0,00927871	-121,2
     204,262	     1,65121	105,5	  0,00940413	-123,9
      204,36	     1,65406	105,8	  0,00934833	-123,9
     204,457	     1,65688	104,3	  0,00923372	-125,8
     204,555	     1,65974	103,2	  0,00941209	-124,5
     204,653	     1,66186	106,8	  0,00946649	-124,8
     204,751	     1,66474	105,6	  0,00949079	-125,0
     204,848	     1,66753	103,1	  0,00951562	-124,5
     204,946	     1,67014	102,1	  0,00926291	-127,7
     205,044	     1,67258	104,6	  0,00931004	-128,6
     205,142	     1,67498	106,9	  0,00923531	-127,1
     205,239	      1,6773	105,0	   0,0095455	-122,2
     205,337	     1,68017	106,5	   0,0092968	-126,2
     205,435	     1,68226	108,8	  0,00953191	-124,6
     205,533	     1,68592	103,8	  0,00938831	-124,5
      205,63	      1,6875	106,0	  0,00945309	-123,7
     205,728	     1,69038	105,8	  0,00940361	-126,5
     205,826	     1,69315	105,1	  0,00942033	-124,9
     205,924	     1,69655	104,6	  0,00953623	-127,4
     206,021	     1,69816	107,5	  0,00961694	-123,5
     206,119	     1,70106	106,3	  0,00945201	-125,5
     206,217	     1,70399	105,6	  0,00956496	-125,7
     206,315	     1,70607	107,8	   0,0097419	-124,4
     206,413	     1,70872	107,1	  0,00925501	-127,4
      206,51	     1,71179	105,5	   0,0095548	-123,9
     206,608	     1,71378	108,0	  0,00962801	-122,3
     206,706	     1,71671	106,4	  0,00961169	-124,8
     206,804	     1,71989	107,6	  0,00963695	-125,4
     206,901	     1,72194	107,6	  0,00947613	-123,1
     206,999	     1,72478	107,2	  0,00957652	-124,4
     207,097	     1,72785	106,1	  0,00943037	-124,5
     207,195	     1,73064	106,0	  0,00935559	-130,2
     207,292	     1,73308	107,5	  0,00948165	-124,9
      207,39	     1,73532	107,6	  0,00947103	-124,9
     207,488	      1,7378	106,3	   0,0097372	-126,6
     207,586	     1,74024	107,5	  0,00943274	-127,2
     207,683	     1,74363	107,1	  0,00943903	-124,9
     207,781	      1,7453	106,9	  0,00961207	-124,6
     207,879	     1,74859	108,2	  0,00951107	-122,8
     207,977	     1,75207	108,9	  0,00952154	-126,3
     208,074	     1,75297	114,5	   0,0095811	-125,2
     208,172	      1,7576	108,8	  0,00957924	-128,5
      208,27	     1,76004	108,4	  0,00972279	-126,2
     208,368	     1,76254	109,0	  0,00968469	-125,8
     208,465	     1,76445	107,2	  0,00957263	-125,3
     208,563	     1,76785	107,1	  0,00948884	-122,1
     208,661	     1,76977	109,8	  0,00953088	-125,2
     208,759	     1,77287	108,3	  0,00983973	-124,7
     208,856	     1,77515	110,2	  0,00963202	-127,5
     208,954	     1,77816	111,5	  0,00983425	-126,0
     209,052	     1,78247	104,3	  0,00968085	-123,1
      209,15	     1,78487	108,9	  0,00988629	-123,2
     209,247	      1,7876	107,0	  0,00994136	-125,6
     209,345	     1,78995	108,0	  0,00968119	-123,5
     209,443	      1,7942	116,5	  0,00976325	-125,9
     209,541	      1,7959	114,6	  0,00984946	-124,5
     209,638	     1,79832	104,2	    0,010016	-124,9
     209,736	     1,80185	110,4	  0,00991318	-127,7
     209,834	     1,79929	121,7	  0,00960146	-125,8
     209,932	  0,00965695	-123,8	  0,00995006	-126,4
     210,029	  0,00961473	-123,0	   0,0102751	-125,0
     210,127	  0,00970216	-124,3	   0,0098897	-123,2
     210,225	  0,00957853	-124,5	  0,00957761	-123,2
     210,323	  0,00978331	-126,1	   0,0099189	-128,5
      210,42	  0,00959912	-123,7	  0,00950052	-121,5
     210,518	  0,00967834	-123,5	  0,00989853	-122,0
     210,616	  0,00972238	-125,9	  0,00997462	-124,4
     210,714	  0,00978384	-124,7	  0,00995896	-124,9
     210,811	  0,00993017	-126,5	    0,010059	-122,5
     210,909	  0,00964285	-123,9	  0,00965607	-121,6
     211,007	  0,00974881	-124,7	  0,00984128	-123,1
     211,105	  0,00969926	-123,6	  0,00981884	-124,1
     211,202	  0,00990872	-123,7	   0,0099353	-126,1
       211,3	  0,00986909	-125,1	   0,0101254	-122,6
     211,398	  0,00982156	-124,8	  0,00985502	-122,3
     211,496	  0,00986257	-124,3	    0,010078	-124,4
     211,593	  0,00989612	-127,2	   0,0099083	-124,5
     211,691	   0,0100044	-126,3	  0,00981218	-124,7
     211,789	   0,0099438	-119,9	   0,0101086	-127,8
     211,887	  0,00997169	-125,5	    0,010124	-125,3
     211,984	   0,0102641	-126,3	   0,0102396	-127,5
     212,082	  0,00994921	-126,2	   0,0104235	-125,9
      212,18	  0,00990009	-123,7	   0,0102779	-125,4
     212,278	  0,00955477	-120,8	    0,010104	-123,0
     212,375	  0,00995729	-123,9	   0,0100725	-124,6
     212,473	    0,010232	-126,9	   0,0102013	-125,2
     212,571	  0,00998231	-124,6	   0,0100985	-123,0
     212,669	  0,00985142	-124,6	   0,0101295	-123,6
     212,766	  0,00996682	-121,0	    0,010095	-125,5
     212,864	  0,00996251	-124,7	   0,0100248	-125,4
     212,962	  0,00999487	-126,3	   0,0100151	-123,0
      213,06	    0,009866	-125,5	   0,0103235	-125,8
     213,157	    0,010325	-123,1	   0,0101383	-126,8
     213,255	   0,0102881	-125,7	   0,0101604	-121,8
     213,353	  0,00990112	-123,5	   0,0102771	-122,6
     213,451	   0,0102252	-124,0	   0,0101579	-121,6
     213,548	    0,010241	-124,3	   0,0102988	-122,8
     213,646	   0,0101568	-123,1	   0,0101912	-123,8
     213,744	   0,0102601	-124,7	   0,0102928	-125,0
     213,842	   0,0103665	-127,2	   0,0108496	-124,9
     213,939	   0,0107828	-125,5	   0,0106799	-124,0
     214,037	   0,0104607	-125,0	   0,0102768	-124,0
     214,135	     0,01083	-123,3	   0,0105264	-126,3
     214,233	   0,0103537	-123,4	   0,0106463	-123,2
      214,33	   0,0105797	-126,3	   0,0104155	-123,2
     214,428	   0,0103522	-122,7	   0,0103602	-123,5
     214,526	   0,0104041	-121,9	   0,0105302	-123,2
     214,624	   0,0103486	-124,0	   0,0106361	-125,4
     214,721	   0,0104935	-126,5	   0,0107811	-126,0
     214,819	   0,0105024	-124,1	   0,0106182	-125,8
     214,917	   0,0105118	-123,7	   0,0105315	-125,2
     215,015	   0,0105141	-126,9	   0,0106449	-123,1
     215,112	   0,0103189	-122,4	   0,0107275	-125,4
      215,21	   0,0102846	-119,7	   0,0106648	-124,8
     215,308	   0,0104552	-122,4	   0,0107399	-124,3
     215,406	   0,0104506	-124,7	   0,0105443	-125,2
     215,503	   0,0107181	-124,0	   0,0101969	-125,2
     215,601	   0,0103352	-124,4	   0,0107213	-123,5
     215,699	   0,0109999	-124,9	   0,0105968	-124,9
     215,797	   0,0103334	-124,8	   0,0106166	-125,1
     215,894	   0,0107769	-123,8	   0,0105608	-124,8
     215,992	   0,0107254	-125,2	   0,0109948	-121,4
      216,09	   0,0106567	-124,9	    0,010906	-125,9
     216,188	    0,010956	-123,9	    0,010708	-121,6
     216,285	   0,0108928	-124,0	   0,0111366	-125,2
     216,383	   0,0107564	-124,0	    0,010751	-124,9
     216,481	   0,0106654	-124,2	   0,0106128	-122,3
     216,579	   0,0114572	-125,6	   0,0110541	-124,9
     216,676	   0,0111301	-121,7	   0,0110645	-125,8
     216,774	   0,0109213	-123,6	   0,0108001	-125,6
     216,872	   0,0108792	-123,4	     0,01074	-123,6
      216,97	   0,0110283	-123,3	   0,0111232	-124,7
     217,067	   0,0109464	-123,1	   0,0109393	-124,0
     217,165	   0,0108593	-121,7	    0,011156	-126,0
     217,263	   0,0111445	-122,6	   0,0110365	-124,1
     217,361	   0,0104771	-124,3	   0,0113264	-126,5
     217,458	   0,0110892	-125,2	   0,0112741	-127,8
     217,556	   0,0113042	-124,4	   0,0112058	-125,7
     217,654	   0,0113741	-124,6	   0,0111547	-125,5
     217,752	   0,0110792	-124,0	    0,010951	-122,8
     217,849	    0,011011	-124,9	   0,0114776	-122,6
     217,947	   0,0111714	-125,7	   0,0111171	-120,7
     218,045	   0,0110852	-123,8	   0,0118393	-122,5
     218,143	   0,0110958	-124,5	   0,0114468	-124,6
      218,24	   0,0113117	-124,5	   0,0110826	-122,4
     218,338	   0,0112674	-124,8	   0,0113408	-123,9
     218,436	   0,0113869	-124,1	   0,0110549	-121,7
     218,534	   0,0114607	-124,4	   0,0113293	-123,3
     218,631	   0,0110339	-122,2	   0,0113281	-122,6
     218,729	   0,0112576	-123,5	   0,0116708	-123,7
     218,827	   0,0115065	-124,0	   0,0116825	-124,7
     218,925	   0,0116206	-122,7	   0,0113889	-124,8
     219,022	   0,0110381	-124,1	   0,0113579	-122,5
      219,12	   0,0113886	-121,1	    0,011379	-125,1
     219,218	   0,0115634	-123,3	   0,0115473	-122,5
     219,316	   0,0115408	-125,4	    0,012066	-125,0
     219,413	   0,0117551	-124,5	   0,0119452	-123,4
     219,511	    0,011514	-124,0	   0,0119668	-123,9
     219,609	   0,0112337	-121,6	   0,0118092	-124,4
     219,707	   0,0115664	-123,6	   0,0114117	-123,3
     219,804	   0,0114958	-123,7	   0,0116846	-125,8
     219,902	    0,011563	-124,5	   0,0113929	-123,2
         220	   0,0116274	-122,6	   0,0114624	-122,3

