X-Data [Hz]	Laser (M - Filtered) [m/s]	Phase [Deg]	Laser (M - Filtered) [m/s]	Phase [Deg]	
	002: [07-09-24 13:47]		003: [07-09-24 13:49]	
          42	  0,00737349	87,6	  0,00762325	81,0
      42,002	  0,00761863	87,0	  0,00756163	83,8
     42,0039	  0,00758484	82,3	  0,00748528	84,9
     42,0059	  0,00760238	81,2	  0,00742871	83,4
     42,0078	  0,00756444	80,0	  0,00748368	77,5
     42,0098	  0,00749786	82,9	  0,00751585	81,5
     42,0117	  0,00745721	85,8	  0,00759666	80,8
     42,0137	  0,00756585	82,6	  0,00764303	85,4
     42,0156	   0,0075619	82,5	   0,0077281	85,1
     42,0176	  0,00762053	81,8	  0,00773747	84,3
     42,0196	  0,00771126	78,0	  0,00768705	81,5
     42,0215	  0,00753043	80,9	  0,00767322	83,7
     42,0235	  0,00754939	84,0	  0,00766654	85,4
     42,0254	  0,00757461	83,5	  0,00779072	83,1
     42,0274	  0,00766057	83,9	  0,00778288	83,0
     42,0293	  0,00769722	82,6	  0,00774585	82,4
     42,0313	  0,00766117	82,9	  0,00777804	82,7
     42,0332	  0,00762824	84,4	  0,00778951	84,0
     42,0352	  0,00759992	84,9	  0,00775211	85,5
     42,0371	  0,00770829	81,5	  0,00779945	85,6
     42,0391	  0,00777751	82,5	  0,00777516	86,0
     42,0411	   0,0077667	83,0	  0,00779834	82,0
      42,043	    0,007729	84,0	  0,00783366	82,2
      42,045	  0,00765629	84,8	  0,00781773	83,1
     42,0469	  0,00775258	85,6	  0,00788504	82,6
     42,0489	  0,00782732	84,5	   0,0079421	85,5
     42,0508	  0,00786836	82,6	   0,0078488	84,0
     42,0528	   0,0078714	81,7	  0,00787003	81,8
     42,0547	  0,00788121	83,6	  0,00788483	81,7
     42,0567	  0,00781954	87,1	  0,00791138	79,3
     42,0587	  0,00785694	87,0	  0,00795079	84,3
     42,0606	  0,00786095	85,6	  0,00795932	85,1
     42,0626	  0,00792369	82,3	  0,00792408	81,5
     42,0645	  0,00791757	81,3	  0,00800765	82,0
     42,0665	  0,00796812	82,1	  0,00799856	82,3
     42,0684	  0,00794841	82,6	  0,00809441	83,7
     42,0704	  0,00804084	85,7	  0,00811474	84,4
     42,0723	  0,00803315	83,5	  0,00807565	85,5
     42,0743	  0,00799965	80,4	  0,00802028	83,4
     42,0762	  0,00807721	83,3	  0,00801604	82,1
     42,0782	  0,00800601	83,0	  0,00810312	81,9
     42,0802	  0,00804935	85,0	  0,00817407	84,1
     42,0821	  0,00797853	84,2	  0,00818035	86,8
     42,0841	  0,00804657	83,9	  0,00819132	85,4
      42,086	  0,00809487	85,1	  0,00817671	85,8
      42,088	  0,00808791	84,1	  0,00824789	84,0
     42,0899	  0,00808895	82,7	  0,00829112	83,9
     42,0919	  0,00806746	84,8	  0,00822935	84,2
     42,0938	  0,00815417	88,1	  0,00811801	86,9
     42,0958	  0,00819031	86,4	  0,00811486	85,8
     42,0978	  0,00818686	88,2	   0,0081463	84,1
     42,0997	  0,00823043	84,4	   0,0081624	83,8
     42,1017	  0,00821469	84,3	  0,00816187	83,4
     42,1036	  0,00823783	83,9	  0,00822133	85,3
     42,1056	  0,00822607	85,8	  0,00826703	85,8
     42,1075	  0,00824085	85,9	  0,00832807	85,0
     42,1095	   0,0082525	83,6	  0,00834676	84,9
     42,1114	  0,00831492	83,4	  0,00832422	83,3
     42,1134	  0,00828349	84,2	  0,00831215	82,7
     42,1153	  0,00837087	85,6	  0,00832463	84,1
     42,1173	   0,0083034	86,0	  0,00836994	85,1
     42,1193	  0,00831707	86,6	   0,0084339	87,5
     42,1212	  0,00828182	86,5	  0,00845229	87,2
     42,1232	  0,00829509	82,2	  0,00843409	86,7
     42,1251	  0,00827938	83,1	   0,0085424	82,7
     42,1271	  0,00843254	83,5	  0,00857505	84,7
      42,129	  0,00840992	87,3	  0,00860581	86,2
      42,131	  0,00841931	87,6	  0,00858284	87,9
     42,1329	   0,0084423	87,9	  0,00854776	90,2
     42,1349	  0,00839342	88,2	   0,0085036	88,3
     42,1369	  0,00843866	85,4	  0,00851778	85,7
     42,1388	  0,00847078	84,3	  0,00855239	83,3
     42,1408	  0,00853298	85,4	  0,00855871	82,4
     42,1427	  0,00861432	90,3	  0,00866363	86,9
     42,1447	  0,00864971	88,0	   0,0086508	88,8
     42,1466	  0,00861991	85,0	  0,00871286	84,6
     42,1486	  0,00860258	84,4	  0,00873636	85,4
     42,1505	   0,0086793	85,1	  0,00864908	83,9
     42,1525	  0,00862604	85,5	   0,0086774	84,3
     42,1544	  0,00863308	87,5	  0,00870685	85,6
     42,1564	  0,00871133	88,8	  0,00871327	88,6
     42,1584	  0,00869411	87,7	  0,00878805	86,6
     42,1603	  0,00872705	83,8	  0,00884529	86,2
     42,1623	   0,0088052	82,7	   0,0087784	85,7
     42,1642	   0,0087771	85,2	   0,0087958	85,8
     42,1662	   0,0088151	84,9	  0,00880206	84,1
     42,1681	  0,00876311	87,1	  0,00891146	87,5
     42,1701	  0,00880514	88,9	  0,00887495	88,3
      42,172	  0,00880086	89,6	   0,0089022	89,4
      42,174	   0,0088675	87,7	  0,00891041	86,9
      42,176	  0,00886931	86,1	  0,00891544	86,5
     42,1779	    0,008879	85,0	  0,00884594	85,4
     42,1799	  0,00885438	86,5	  0,00894972	82,4
     42,1818	  0,00888325	88,3	  0,00898594	86,5
     42,1838	  0,00892023	89,2	   0,0090233	86,8
     42,1857	  0,00889969	88,2	  0,00913968	84,2
     42,1877	  0,00895431	87,8	  0,00912215	84,1
     42,1896	  0,00910333	86,2	  0,00906911	84,8
     42,1916	  0,00909735	87,8	  0,00908019	83,0
     42,1936	   0,0090988	88,0	  0,00913418	87,0
     42,1955	  0,00905859	89,3	  0,00920739	90,1
     42,1975	  0,00901096	86,2	   0,0092003	88,9
     42,1994	  0,00898288	84,7	  0,00913673	88,4
     42,2014	  0,00903591	84,5	  0,00919445	86,4
     42,2033	   0,0090825	84,6	  0,00914459	87,7
     42,2053	  0,00914389	86,4	  0,00923176	85,4
     42,2072	  0,00911585	89,9	  0,00921795	87,9
     42,2092	  0,00921357	89,8	    0,009307	89,2
     42,2111	  0,00914791	91,3	  0,00933353	89,1
     42,2131	   0,0091914	90,0	  0,00935146	88,4
     42,2151	  0,00924242	88,5	  0,00930083	88,3
      42,217	  0,00929121	86,9	  0,00935659	86,3
      42,219	  0,00926978	86,6	  0,00933958	86,3
     42,2209	  0,00930733	85,1	  0,00938114	85,3
     42,2229	  0,00926942	89,4	  0,00936799	87,4
     42,2248	  0,00929585	88,4	   0,0094971	89,0
     42,2268	  0,00918866	88,6	   0,0095823	89,2
     42,2287	   0,0092043	89,3	  0,00970859	89,7
     42,2307	  0,00927377	87,5	  0,00961254	89,4
     42,2327	  0,00945454	88,7	  0,00960325	87,4
     42,2346	   0,0094714	89,1	  0,00955321	88,3
     42,2366	  0,00944667	90,0	  0,00956541	88,5
     42,2385	  0,00945968	90,3	  0,00963723	90,8
     42,2405	  0,00945322	88,2	  0,00967476	89,2
     42,2424	  0,00949889	88,6	  0,00969196	87,3
     42,2444	  0,00956597	87,9	  0,00960646	88,2
     42,2463	   0,0096118	89,1	  0,00961733	89,4
     42,2483	  0,00963514	88,8	  0,00961616	89,0
     42,2502	  0,00968745	89,9	  0,00965445	88,6
     42,2522	  0,00973371	90,6	  0,00971683	89,6
     42,2542	  0,00967796	90,5	  0,00976139	88,9
     42,2561	  0,00962844	88,6	  0,00979038	88,2
     42,2581	   0,0096141	88,2	  0,00987833	86,4
       42,26	  0,00964621	87,3	  0,00986064	88,1
      42,262	  0,00968202	87,9	  0,00993618	87,9
     42,2639	  0,00976485	89,2	  0,00998454	91,5
     42,2659	  0,00978978	91,4	  0,00997597	94,1
     42,2678	  0,00978423	89,2	  0,00998222	91,8
     42,2698	  0,00981423	86,1	   0,0100353	90,1
     42,2718	  0,00983825	88,4	   0,0100884	89,2
     42,2737	  0,00985342	90,3	   0,0100353	88,1
     42,2757	  0,00991169	91,6	   0,0100076	88,0
     42,2776	  0,00996014	92,7	   0,0100274	87,7
     42,2796	  0,00998199	91,3	   0,0101075	86,7
     42,2815	  0,00991256	92,3	   0,0101606	87,2
     42,2835	  0,00998124	90,8	   0,0102059	88,9
     42,2854	  0,00999009	87,5	   0,0101576	88,0
     42,2874	  0,00997998	86,3	   0,0101698	88,2
     42,2893	  0,00998152	89,6	   0,0101853	88,3
     42,2913	   0,0100753	89,9	   0,0102125	89,7
     42,2933	   0,0100799	91,9	   0,0102221	92,0
     42,2952	   0,0101065	92,6	   0,0102232	94,0
     42,2972	   0,0101352	93,3	   0,0102418	92,5
     42,2991	   0,0102416	94,4	   0,0102093	91,8
     42,3011	   0,0102189	90,9	   0,0103759	88,3
      42,303	   0,0102129	87,1	   0,0104773	88,0
      42,305	    0,010245	87,6	    0,010504	87,0
     42,3069	    0,010262	87,4	   0,0105235	88,1
     42,3089	   0,0102011	89,5	   0,0105132	91,7
     42,3109	   0,0102375	91,8	   0,0104605	89,8
     42,3128	   0,0103607	90,3	   0,0105521	87,9
     42,3148	   0,0104001	88,9	   0,0105938	89,5
     42,3167	   0,0104521	87,7	   0,0107103	89,5
     42,3187	   0,0104379	89,6	   0,0107033	90,9
     42,3206	    0,010411	92,6	   0,0107253	91,7
     42,3226	   0,0104892	92,4	   0,0108085	92,5
     42,3245	    0,010484	94,0	   0,0107757	95,3
     42,3265	   0,0105187	92,6	   0,0107932	92,6
     42,3284	   0,0105488	93,2	   0,0107536	91,2
     42,3304	   0,0106511	91,3	   0,0107479	89,1
     42,3324	   0,0106565	87,9	   0,0107451	88,7
     42,3343	   0,0106289	88,6	   0,0108132	89,5
     42,3363	   0,0107203	90,8	   0,0108279	91,4
     42,3382	   0,0107582	91,4	    0,010888	92,3
     42,3402	   0,0107328	93,4	   0,0109957	94,4
     42,3421	   0,0107205	92,8	   0,0110105	95,6
     42,3441	   0,0106883	95,7	   0,0110984	94,3
      42,346	   0,0107903	94,0	   0,0110762	95,7
      42,348	   0,0107621	93,7	   0,0110463	91,0
       42,35	   0,0108293	91,9	    0,011078	91,0
     42,3519	   0,0109214	93,4	   0,0110427	89,0
     42,3539	   0,0109691	91,7	   0,0111452	91,4
     42,3558	   0,0109631	95,4	   0,0111512	92,4
     42,3578	   0,0110286	94,9	   0,0111789	93,0
     42,3597	   0,0110612	90,9	   0,0112392	90,7
     42,3617	   0,0110737	92,1	   0,0112691	90,7
     42,3636	   0,0111151	91,4	   0,0113132	92,2
     42,3656	   0,0111028	92,9	   0,0113993	91,8
     42,3675	   0,0111159	91,9	   0,0114583	92,2
     42,3695	   0,0111861	92,8	   0,0115258	94,1
     42,3715	   0,0111493	95,8	   0,0114769	95,6
     42,3734	   0,0111993	95,5	   0,0114472	95,8
     42,3754	   0,0112437	94,2	   0,0113886	95,5
     42,3773	   0,0112645	93,3	   0,0114497	94,8
     42,3793	   0,0113391	93,5	   0,0115764	90,8
     42,3812	   0,0114133	92,9	   0,0115897	91,6
     42,3832	   0,0113993	92,7	   0,0116133	92,2
     42,3851	   0,0113606	95,8	   0,0116848	92,0
     42,3871	   0,0114019	94,5	   0,0117378	95,3
     42,3891	   0,0113936	95,1	   0,0117275	96,2
      42,391	   0,0114627	97,3	   0,0117304	96,0
      42,393	   0,0115259	95,6	   0,0117442	96,0
     42,3949	    0,011644	94,1	   0,0118099	93,6
     42,3969	   0,0116941	95,0	   0,0118863	91,2
     42,3988	   0,0116105	95,3	   0,0119661	92,8
     42,4008	   0,0116882	93,0	    0,011928	95,0
     42,4027	   0,0116222	95,0	   0,0119463	95,8
     42,4047	   0,0116571	96,5	   0,0120158	95,7
     42,4066	   0,0116827	95,0	   0,0120326	96,4
     42,4086	   0,0117871	94,1	    0,012091	98,3
     42,4106	   0,0116892	96,4	   0,0121026	97,4
     42,4125	   0,0116506	95,8	   0,0121864	93,4
     42,4145	   0,0118086	94,1	   0,0122495	97,2
     42,4164	   0,0119038	94,6	   0,0122245	95,1
     42,4184	   0,0120373	94,9	   0,0122239	95,2
     42,4203	   0,0120778	97,8	   0,0122447	93,4
     42,4223	   0,0121134	98,2	   0,0122861	96,4
     42,4242	   0,0121349	97,3	   0,0123577	96,5
     42,4262	   0,0121618	94,0	   0,0124025	95,1
     42,4282	   0,0120943	94,3	   0,0124984	94,7
     42,4301	   0,0121008	93,1	   0,0125707	93,7
     42,4321	   0,0121886	94,5	   0,0126384	95,2
      42,434	   0,0122779	98,6	   0,0126769	96,2
      42,436	   0,0123198	97,4	   0,0126712	98,7
     42,4379	   0,0123521	99,0	   0,0126979	100,6
     42,4399	   0,0123501	101,4	   0,0127132	100,7
     42,4418	   0,0124024	99,7	   0,0126844	98,4
     42,4438	   0,0124909	100,6	   0,0127001	98,0
     42,4457	   0,0125514	96,9	   0,0127374	96,8
     42,4477	   0,0125607	96,7	    0,012786	96,1
     42,4497	   0,0125808	93,2	   0,0127543	95,8
     42,4516	   0,0125721	95,8	   0,0128058	96,7
     42,4536	   0,0126477	97,8	   0,0129567	97,2
     42,4555	   0,0126583	100,3	   0,0130879	97,8
     42,4575	   0,0126977	101,3	    0,013065	100,1
     42,4594	   0,0127198	100,7	   0,0130972	99,8
     42,4614	   0,0127183	103,0	   0,0130816	100,4
     42,4633	   0,0127802	99,1	   0,0131734	97,7
     42,4653	   0,0128634	97,2	   0,0132123	97,0
     42,4673	   0,0129209	99,1	   0,0132217	98,4
     42,4692	   0,0130665	98,5	   0,0132602	97,2
     42,4712	    0,013029	100,3	   0,0133191	100,2
     42,4731	   0,0130482	99,1	   0,0134258	101,1
     42,4751	   0,0129813	99,2	   0,0134203	102,1
      42,477	   0,0129985	100,5	     0,01347	101,9
      42,479	   0,0130166	101,6	   0,0133806	101,9
     42,4809	   0,0130695	101,1	   0,0135533	98,6
     42,4829	   0,0131318	100,0	    0,013596	98,3
     42,4848	   0,0131644	98,0	   0,0136796	96,1
     42,4868	   0,0132039	99,9	   0,0136908	98,3
     42,4888	    0,013208	98,4	   0,0137675	100,1
     42,4907	   0,0133046	99,4	   0,0138749	98,5
     42,4927	   0,0134662	100,5	   0,0139114	102,0
     42,4946	   0,0134726	100,7	   0,0138984	104,7
     42,4966	   0,0134483	104,6	    0,013911	103,1
     42,4985	   0,0134927	99,6	   0,0138772	102,4
     42,5005	   0,0135725	100,1	   0,0138966	103,4
     42,5024	   0,0136045	101,0	    0,013928	99,8
     42,5044	   0,0135323	100,8	   0,0139986	100,0
     42,5064	   0,0136553	101,6	   0,0140643	98,5
     42,5083	   0,0137442	102,7	   0,0141264	99,4
     42,5103	   0,0137699	103,1	   0,0142174	101,3
     42,5122	   0,0137835	104,9	   0,0142689	103,0
     42,5142	   0,0138245	104,0	   0,0143452	103,5
     42,5161	   0,0139084	101,9	   0,0144428	102,4
     42,5181	   0,0139694	103,8	   0,0144233	102,4
       42,52	   0,0140501	103,0	    0,014523	102,9
      42,522	   0,0141005	101,2	   0,0145803	102,8
     42,5239	   0,0141329	101,4	   0,0145226	100,6
     42,5259	   0,0141553	101,9	   0,0145694	101,1
     42,5279	   0,0141202	103,3	   0,0145856	101,9
     42,5298	   0,0141958	104,0	   0,0146584	103,9
     42,5318	   0,0142357	106,0	   0,0147261	105,8
     42,5337	   0,0142472	106,0	   0,0147726	107,1
     42,5357	   0,0143528	108,4	   0,0148354	106,8
     42,5376	   0,0143919	107,1	   0,0148875	105,2
     42,5396	   0,0144681	105,6	   0,0149534	105,1
     42,5415	   0,0145463	103,7	   0,0149893	103,9
     42,5435	   0,0145785	101,5	   0,0151206	104,5
     42,5455	   0,0146123	101,3	   0,0151891	104,2
     42,5474	   0,0145981	101,4	   0,0151729	107,3
     42,5494	   0,0146525	104,8	   0,0152064	107,7
     42,5513	   0,0146896	104,9	   0,0152813	106,7
     42,5533	   0,0148106	107,1	   0,0153079	108,5
     42,5552	   0,0148958	107,4	   0,0154391	108,3
     42,5572	   0,0148903	107,8	    0,015542	105,9
     42,5591	   0,0150129	106,0	   0,0155951	105,4
     42,5611	   0,0150426	105,7	   0,0156831	103,9
      42,563	    0,015087	104,3	   0,0157207	102,0
      42,565	   0,0151112	106,9	   0,0157322	104,9
      42,567	    0,015242	104,4	   0,0157632	105,6
     42,5689	   0,0152359	108,3	   0,0157908	108,0
     42,5709	   0,0152471	111,4	   0,0157682	110,0
     42,5728	   0,0153374	112,7	   0,0158312	109,9
     42,5748	   0,0153491	113,0	    0,015993	109,1
     42,5767	   0,0153778	108,8	   0,0160434	109,5
     42,5787	   0,0154106	106,9	   0,0161889	109,3
     42,5806	    0,015434	106,3	   0,0161817	108,9
     42,5826	   0,0154143	103,8	    0,016248	106,8
     42,5846	    0,015461	105,4	   0,0163255	106,8
     42,5865	   0,0154819	108,4	   0,0163411	107,6
     42,5885	   0,0156112	108,8	   0,0164352	106,4
     42,5904	   0,0156177	108,8	    0,016414	108,6
     42,5924	   0,0156876	110,5	   0,0164907	109,3
     42,5943	   0,0157751	110,6	    0,016563	109,2
     42,5963	   0,0158783	111,4	   0,0166135	111,7
     42,5982	   0,0159592	112,9	   0,0167105	107,9
     42,6002	   0,0159798	110,0	   0,0168072	108,3
     42,6021	   0,0159453	112,0	    0,016804	108,2
     42,6041	   0,0159812	114,6	   0,0168888	109,6
     42,6061	   0,0160179	113,8	   0,0168837	110,7
      42,608	   0,0160536	111,7	   0,0168948	112,2
       42,61	   0,0161089	109,4	   0,0169811	112,3
     42,6119	   0,0162014	108,8	   0,0170636	111,5
     42,6139	   0,0162873	107,8	   0,0171803	111,6
     42,6158	   0,0163832	112,7	   0,0172022	113,4
     42,6178	   0,0164519	113,3	   0,0172733	114,5
     42,6197	   0,0165263	115,5	   0,0172419	116,6
     42,6217	   0,0166103	117,0	   0,0173324	117,5
     42,6237	   0,0166869	115,3	   0,0174476	115,4
     42,6256	   0,0166622	111,3	   0,0174656	113,2
     42,6276	    0,016669	110,6	   0,0175183	112,1
     42,6295	     0,01665	111,8	   0,0175881	111,0
     42,6315	   0,0167421	110,7	   0,0177209	114,1
     42,6334	   0,0168146	111,9	   0,0177592	113,5
     42,6354	   0,0168978	113,8	   0,0178029	115,9
     42,6373	   0,0169974	116,1	   0,0178122	119,3
     42,6393	   0,0170493	116,0	   0,0178191	120,1
     42,6413	   0,0171159	116,7	   0,0179058	117,7
     42,6432	   0,0171464	116,2	   0,0179402	118,8
     42,6452	   0,0171977	115,9	   0,0180739	114,7
     42,6471	   0,0172816	117,7	   0,0180232	113,2
     42,6491	   0,0173369	119,2	   0,0180547	114,3
      42,651	   0,0174085	120,6	   0,0181735	114,9
      42,653	   0,0174735	118,7	   0,0182781	116,7
     42,6549	   0,0174514	116,3	   0,0183349	118,4
     42,6569	   0,0175967	117,3	   0,0183829	118,1
     42,6588	   0,0176305	115,6	   0,0185034	119,0
     42,6608	    0,017713	118,5	   0,0185415	119,1
     42,6628	   0,0178062	117,7	   0,0185747	118,9
     42,6647	   0,0178284	119,5	   0,0185986	120,1
     42,6667	    0,017823	119,9	    0,018667	117,6
     42,6686	   0,0178739	122,4	    0,018729	119,6
     42,6706	    0,017849	121,2	   0,0187831	119,5
     42,6725	   0,0178759	122,7	   0,0188344	120,6
     42,6745	   0,0179661	119,9	   0,0188748	119,8
     42,6764	   0,0180793	120,0	   0,0188988	118,1
     42,6784	   0,0180923	121,5	    0,018947	120,8
     42,6804	   0,0181481	120,4	   0,0190923	120,9
     42,6823	   0,0181983	118,5	   0,0190661	121,5
     42,6843	   0,0182594	120,0	   0,0192109	123,7
     42,6862	   0,0182741	122,9	   0,0192625	125,4
     42,6882	   0,0183232	123,7	   0,0193282	125,4
     42,6901	   0,0184305	122,5	   0,0193825	125,7
     42,6921	   0,0185038	122,0	   0,0194324	124,9
      42,694	   0,0185969	123,4	   0,0194555	124,4
      42,696	   0,0186311	125,3	   0,0195742	125,4
     42,6979	   0,0186485	125,1	   0,0196285	125,8
     42,6999	   0,0187109	126,2	   0,0197079	123,9
     42,7019	   0,0187643	125,6	   0,0197071	126,4
     42,7038	   0,0188122	122,4	   0,0198214	125,1
     42,7058	   0,0188628	123,6	   0,0199365	127,3
     42,7077	   0,0189015	121,2	   0,0199061	127,7
     42,7097	   0,0189932	123,7	   0,0199519	128,7
     42,7116	    0,019031	125,5	   0,0200652	127,6
     42,7136	    0,019182	125,7	   0,0200137	130,0
     42,7155	   0,0192237	124,4	   0,0200532	130,2
     42,7175	    0,019252	123,8	    0,020041	129,9
     42,7195	   0,0192904	125,6	   0,0200637	129,1
     42,7214	   0,0193918	129,0	   0,0201678	129,9
     42,7234	   0,0194641	128,5	    0,020152	127,9
     42,7253	    0,019479	128,9	   0,0202495	128,3
     42,7273	   0,0194761	126,3	   0,0202802	128,8
     42,7292	   0,0195421	129,1	   0,0203236	128,3
     42,7312	   0,0196009	129,1	   0,0204047	129,6
     42,7331	   0,0197272	126,4	   0,0204689	127,4
     42,7351	   0,0197217	127,5	   0,0205599	127,1
      42,737	   0,0197805	126,6	   0,0206204	129,8
      42,739	   0,0198077	128,5	   0,0205435	132,1
      42,741	   0,0198105	129,5	   0,0206164	133,3
     42,7429	   0,0198369	129,4	   0,0206398	132,3
     42,7449	   0,0198618	128,9	   0,0206914	133,2
     42,7468	   0,0198625	132,1	    0,020674	134,8
     42,7488	   0,0198941	129,6	   0,0206618	134,9
     42,7507	   0,0199472	131,0	   0,0207094	131,9
     42,7527	   0,0201145	132,6	   0,0207987	132,8
     42,7546	   0,0201452	134,4	   0,0209125	131,3
     42,7566	   0,0202049	133,2	   0,0209591	133,1
     42,7586	     0,02023	138,3	   0,0209544	134,8
     42,7605	   0,0203008	135,0	   0,0208946	135,6
     42,7625	   0,0203504	132,9	   0,0209541	136,7
     42,7644	   0,0204074	131,2	   0,0210174	135,5
     42,7664	   0,0203651	132,1	   0,0211007	137,0
     42,7683	   0,0203481	134,9	   0,0210555	135,4
     42,7703	   0,0203918	135,7	   0,0210325	140,0
     42,7722	    0,020493	136,4	   0,0210943	138,3
     42,7742	   0,0205986	135,8	   0,0210621	141,9
     42,7761	   0,0206329	135,4	   0,0210788	141,2
     42,7781	   0,0205818	135,1	   0,0210895	140,7
     42,7801	   0,0205914	138,5	   0,0211382	139,4
      42,782	    0,020607	138,2	   0,0212109	142,1
      42,784	   0,0206721	141,0	   0,0211835	142,7
     42,7859	   0,0207374	142,1	   0,0211829	138,8
     42,7879	   0,0207742	140,2	   0,0212062	140,6
     42,7898	   0,0207976	140,9	    0,021196	141,9
     42,7918	   0,0208797	140,2	   0,0212792	141,2
     42,7937	   0,0208942	142,7	   0,0213168	140,8
     42,7957	   0,0209189	138,0	   0,0213117	143,1
     42,7977	   0,0209717	140,2	   0,0213159	145,4
     42,7996	   0,0210173	139,5	   0,0213212	145,3
     42,8016	   0,0210521	140,9	   0,0213726	147,3
     42,8035	   0,0210817	137,5	   0,0213684	145,5
     42,8055	   0,0210165	140,0	    0,021452	144,6
     42,8074	   0,0210409	141,7	   0,0214289	144,8
     42,8094	   0,0211095	142,7	   0,0214407	146,7
     42,8113	   0,0211683	145,8	   0,0214382	145,3
     42,8133	    0,021174	144,4	   0,0213928	146,1
     42,8153	   0,0211871	145,7	   0,0214011	147,4
     42,8172	   0,0211512	145,7	   0,0214331	145,0
     42,8192	   0,0212126	143,9	   0,0214635	146,3
     42,8211	   0,0211942	147,8	   0,0215071	143,6
     42,8231	   0,0212412	149,0	   0,0215548	144,9
      42,825	   0,0212206	147,1	   0,0215094	144,9
      42,827	   0,0211971	146,9	   0,0214831	147,6
     42,8289	   0,0212355	144,8	   0,0214394	150,3
     42,8309	   0,0212056	143,1	   0,0214303	148,2
     42,8328	   0,0211789	142,6	   0,0214331	148,7
     42,8348	   0,0212024	145,5	   0,0214126	148,9
     42,8368	   0,0212486	147,5	    0,021425	150,4
     42,8387	   0,0212823	146,9	   0,0214746	154,9
     42,8407	   0,0213312	147,6	   0,0214238	155,8
     42,8426	   0,0213509	149,3	   0,0214163	154,0
     42,8446	    0,021379	148,6	   0,0214212	152,3
     42,8465	   0,0213885	148,5	   0,0214739	152,2
     42,8485	   0,0214084	151,5	   0,0214518	155,7
     42,8504	   0,0214683	151,6	   0,0213285	155,4
     42,8524	   0,0215192	151,1	   0,0212992	155,5
     42,8544	   0,0215837	150,3	   0,0213421	156,1
     42,8563	   0,0215249	151,3	   0,0213142	149,9
     42,8583	    0,021534	152,0	    0,021266	151,3
     42,8602	    0,021547	152,3	   0,0213333	149,9
     42,8622	   0,0215533	152,8	   0,0214274	148,6
     42,8641	   0,0215367	155,7	   0,0213387	140,4
     42,8661	   0,0214931	154,6	   0,0212391	155,1
      42,868	   0,0215307	152,9	   0,0212206	157,6
       42,87	   0,0214646	154,1	   0,0212123	156,8
     42,8719	   0,0214865	155,2	   0,0212042	155,8
     42,8739	   0,0214194	155,1	   0,0212276	158,3
     42,8759	   0,0213752	154,0	   0,0212639	157,8
     42,8778	   0,0214043	155,3	   0,0212403	156,3
     42,8798	   0,0213826	155,3	   0,0211502	158,5
     42,8817	   0,0214196	151,9	   0,0211469	161,2
     42,8837	   0,0214426	154,4	   0,0211404	158,9
     42,8856	   0,0214697	156,2	   0,0210793	162,7
     42,8876	   0,0214552	155,5	   0,0210327	161,3
     42,8895	   0,0214123	156,6	   0,0209871	163,2
     42,8915	   0,0213849	154,6	   0,0209859	159,5
     42,8935	   0,0213331	157,6	   0,0209485	159,2
     42,8954	   0,0213358	159,1	   0,0209335	158,0
     42,8974	   0,0212937	160,2	   0,0209173	158,4
     42,8993	   0,0212781	160,3	   0,0208636	158,7
     42,9013	   0,0212585	161,8	    0,020756	160,0
     42,9032	    0,021282	161,0	   0,0207671	160,6
     42,9052	   0,0212395	159,6	   0,0207556	160,7
     42,9071	   0,0211398	160,7	   0,0207985	160,1
     42,9091	   0,0211596	160,4	   0,0207543	159,1
      42,911	   0,0211304	163,1	   0,0207411	162,1
      42,913	   0,0211331	161,7	   0,0206665	164,5
      42,915	   0,0211631	163,1	   0,0206325	166,1
     42,9169	   0,0211028	158,3	   0,0206412	164,1
     42,9189	   0,0210254	161,5	   0,0206091	162,5
     42,9208	   0,0209759	162,4	   0,0205178	165,2
     42,9228	   0,0210077	164,1	   0,0204801	166,6
     42,9247	   0,0209418	164,7	   0,0204518	167,1
     42,9267	   0,0209465	163,5	   0,0203517	168,1
     42,9286	   0,0209162	163,5	   0,0202456	168,0
     42,9306	   0,0209262	163,1	   0,0202416	166,0
     42,9326	   0,0209759	164,1	   0,0202543	165,8
     42,9345	   0,0208795	167,8	   0,0202294	165,2
     42,9365	   0,0209223	169,7	   0,0202593	167,6
     42,9384	   0,0208741	169,6	   0,0201734	169,3
     42,9404	   0,0207894	168,3	   0,0201166	167,8
     42,9423	   0,0206767	167,8	   0,0200581	166,1
     42,9443	   0,0206575	171,8	   0,0200487	165,7
     42,9462	   0,0206468	171,2	   0,0199418	165,4
     42,9482	    0,020607	172,6	   0,0198683	168,6
     42,9501	   0,0206852	169,6	   0,0198495	170,3
     42,9521	   0,0205786	170,1	   0,0197738	168,3
     42,9541	    0,020556	174,5	   0,0197197	167,1
      42,956	   0,0204742	173,0	   0,0197019	166,5
      42,958	   0,0203921	173,1	   0,0197002	168,6
     42,9599	    0,020362	172,2	    0,019668	169,7
     42,9619	   0,0203302	172,5	   0,0196471	171,0
     42,9638	   0,0202796	170,5	   0,0196307	169,7
     42,9658	   0,0202354	173,8	   0,0195938	171,8
     42,9677	   0,0201433	174,6	   0,0195951	170,0
     42,9697	   0,0200811	174,4	   0,0196091	171,7
     42,9717	   0,0200873	173,2	   0,0195371	173,5
     42,9736	   0,0200895	172,6	   0,0194266	174,2
     42,9756	   0,0200351	173,0	   0,0192302	174,5
     42,9775	   0,0200127	174,4	   0,0191886	176,6
     42,9795	   0,0200085	172,6	   0,0191851	175,9
     42,9814	    0,019988	173,0	   0,0192529	175,5
     42,9834	   0,0199042	175,5	   0,0191522	177,1
     42,9853	   0,0198254	175,0	    0,019007	178,8
     42,9873	   0,0197626	172,8	   0,0190078	175,8
     42,9892	   0,0197251	173,7	   0,0190677	176,9
     42,9912	   0,0196642	176,3	   0,0190114	178,2
     42,9932	   0,0195763	175,9	   0,0190086	178,6
     42,9951	   0,0195282	176,1	   0,0189977	179,3
     42,9971	   0,0194747	175,1	   0,0189537	179,8
      42,999	   0,0194312	176,3	   0,0188763	175,1
      43,001	   0,0193999	176,8	   0,0188645	173,6
     43,0029	   0,0192641	180,3	   0,0187428	174,4
     43,0049	   0,0192025	178,0	   0,0185546	169,8
     43,0068	   0,0191427	174,9	   0,0185779	173,4
     43,0088	   0,0190903	176,6	   0,0185665	178,3
     43,0108	    0,019112	177,9	   0,0185278	174,4
     43,0127	   0,0190101	181,5	   0,0184783	175,5
     43,0147	   0,0189754	183,1	   0,0183691	177,7
     43,0166	   0,0189483	181,4	   0,0184291	177,1
     43,0186	   0,0189445	181,7	   0,0184958	173,6
     43,0205	   0,0189075	180,1	   0,0182471	183,4
     43,0225	   0,0188405	182,8	   0,0182457	177,3
     43,0244	   0,0187825	184,7	    0,018281	177,8
     43,0264	   0,0187545	183,4	   0,0181949	180,3
     43,0283	   0,0186866	182,2	   0,0180957	180,6
     43,0303	   0,0186115	180,6	   0,0180711	180,9
     43,0323	   0,0185865	179,0	   0,0180772	180,1
     43,0342	   0,0186126	179,8	   0,0181254	176,2
     43,0362	   0,0185338	183,3	   0,0180115	180,4
     43,0381	   0,0184438	182,9	    0,017948	183,3
     43,0401	   0,0183845	178,9	   0,0178301	183,3
      43,042	   0,0183353	180,3	   0,0177969	184,7
      43,044	   0,0182042	181,1	   0,0177922	182,3
     43,0459	   0,0181587	180,8	   0,0177624	184,8
     43,0479	   0,0181995	182,4	   0,0176319	184,0
     43,0499	    0,018096	182,4	    0,017572	183,5
     43,0518	   0,0180435	181,3	   0,0175443	188,8
     43,0538	    0,017992	182,5	   0,0175344	187,6
     43,0557	   0,0179357	184,3	   0,0173992	185,2
     43,0577	   0,0178194	183,6	   0,0174055	184,0
     43,0596	   0,0178426	183,5	   0,0174247	186,2
     43,0616	    0,017837	183,7	    0,017204	188,8
     43,0635	   0,0178132	181,5	   0,0170879	185,2
     43,0655	   0,0177841	182,1	    0,017079	186,0
     43,0674	    0,017706	183,1	   0,0170676	183,0
     43,0694	   0,0176322	184,9	   0,0170019	188,4
     43,0714	   0,0176347	184,2	   0,0169445	187,3
     43,0733	   0,0175785	184,9	   0,0168984	186,7
     43,0753	   0,0174882	185,5	   0,0169252	186,0
     43,0772	   0,0173977	185,9	   0,0169212	184,9
     43,0792	   0,0173463	188,3	   0,0168998	189,9
     43,0811	     0,01729	188,9	   0,0168487	189,4
     43,0831	   0,0173274	187,2	   0,0167656	188,4
      43,085	   0,0172198	188,0	   0,0167312	186,9
      43,087	   0,0171108	188,1	    0,016742	184,9
      43,089	   0,0170162	190,9	   0,0166584	185,1
     43,0909	   0,0170145	189,4	   0,0165685	185,9
     43,0929	    0,016921	189,3	   0,0165571	188,4
     43,0948	   0,0169197	188,0	   0,0164512	186,7
     43,0968	   0,0169108	190,0	   0,0164151	186,4
     43,0987	   0,0168325	190,9	   0,0163542	185,6
     43,1007	   0,0167869	190,8	   0,0163238	187,9
     43,1026	    0,016678	190,0	   0,0162008	188,2
     43,1046	   0,0166376	189,5	   0,0161381	188,5
     43,1065	   0,0165305	190,1	   0,0161595	186,4
     43,1085	   0,0165141	191,7	   0,0160629	185,1
     43,1105	    0,016501	190,4	   0,0159948	187,8
     43,1124	   0,0164382	190,0	    0,015918	191,4
     43,1144	   0,0164279	190,1	   0,0159502	187,5
     43,1163	   0,0164232	192,6	   0,0159388	186,2
     43,1183	   0,0163632	193,0	   0,0159586	189,8
     43,1202	   0,0162425	196,0	   0,0158502	189,8
     43,1222	   0,0162013	192,5	    0,015715	192,6
     43,1241	   0,0161547	195,6	   0,0155918	189,0
     43,1261	   0,0160712	193,9	   0,0155542	190,6
     43,1281	   0,0160014	195,6	   0,0155238	189,7
       43,13	   0,0158673	197,7	   0,0154491	189,5
      43,132	   0,0158659	195,0	   0,0154131	192,0
     43,1339	   0,0158633	194,6	   0,0153711	194,1
     43,1359	   0,0157635	194,5	   0,0153341	191,8
     43,1378	    0,015711	189,0	    0,015363	190,4
     43,1398	   0,0155582	198,8	    0,015302	189,4
     43,1417	   0,0156298	199,3	   0,0152308	191,8
     43,1437	   0,0155948	193,2	   0,0152175	193,6
     43,1456	   0,0155064	193,9	   0,0152721	190,7
     43,1476	   0,0154231	191,9	   0,0151637	191,1
     43,1496	   0,0155227	-159,2	   0,0151305	194,1
     43,1515	   0,0153392	-161,6	   0,0150808	192,9
     43,1535	   0,0153691	-168,5	   0,0150101	191,9
     43,1554	   0,0154871	-161,0	   0,0149976	191,3
     43,1574	   0,0153535	-160,6	   0,0148951	190,1
     43,1593	   0,0153143	-163,6	    0,014828	193,4
     43,1613	   0,0151939	-162,9	    0,014719	195,4
     43,1632	   0,0152081	-163,3	   0,0147234	198,3
     43,1652	   0,0151259	-164,1	   0,0146657	197,1
     43,1672	   0,0150172	-160,7	   0,0146684	195,5
     43,1691	   0,0149432	-159,6	   0,0146735	194,9
     43,1711	   0,0149192	-160,0	     0,01455	197,2
      43,173	   0,0148328	-161,5	   0,0144772	196,8
      43,175	   0,0148351	-163,2	   0,0144706	196,7
     43,1769	   0,0147688	-157,8	   0,0144299	195,3
     43,1789	   0,0146465	-158,7	   0,0143893	194,1
     43,1808	     0,01463	-160,9	   0,0143527	198,0
     43,1828	   0,0145814	-162,5	   0,0142917	197,8
     43,1847	   0,0145518	-161,3	   0,0142279	195,0
     43,1867	   0,0145175	-159,0	   0,0141901	195,1
     43,1887	   0,0145502	-161,5	   0,0141782	195,5
     43,1906	    0,014409	-160,5	   0,0141214	199,1
     43,1926	   0,0143497	-160,4	   0,0140775	195,6
     43,1945	   0,0143868	-162,7	   0,0140845	194,8
     43,1965	   0,0143305	-159,3	   0,0139798	196,2
     43,1984	   0,0142324	-158,3	   0,0138972	197,9
     43,2004	   0,0141848	-160,2	   0,0138095	197,9
     43,2023	   0,0140911	-162,0	   0,0138472	197,8
     43,2043	   0,0140133	-158,0	   0,0138146	195,5
     43,2063	   0,0139613	-157,1	    0,013822	198,2
     43,2082	   0,0139411	-158,8	     0,01372	196,7
     43,2102	   0,0139644	-159,9	   0,0137024	-159,7
     43,2121	   0,0139485	-159,8	   0,0136581	-158,7
     43,2141	   0,0138905	-157,1	   0,0135675	-159,3
      43,216	    0,013813	-158,6	   0,0135382	-161,4
      43,218	   0,0137256	-159,0	   0,0135622	-159,4
     43,2199	   0,0137126	-160,5	   0,0134392	-159,7
     43,2219	   0,0137756	-160,2	   0,0134403	-159,8
     43,2239	   0,0137585	-159,5	    0,013386	-159,4
     43,2258	    0,013637	-155,9	    0,013313	-161,3
     43,2278	   0,0135301	-157,0	   0,0132912	-160,1
     43,2297	   0,0134776	-159,0	    0,013266	-162,7
     43,2317	   0,0133845	-158,9	   0,0131613	-159,4
     43,2336	    0,013368	-154,8	   0,0131583	-163,3
     43,2356	   0,0133343	-155,3	    0,013048	-159,9
     43,2375	   0,0133097	-156,9	   0,0130609	-160,4
     43,2395	    0,013208	-156,5	   0,0130558	-157,8
     43,2414	     0,01321	-156,5	    0,013024	-159,0
     43,2434	   0,0131871	-154,5	    0,012985	-162,0
     43,2454	   0,0130615	-156,0	   0,0129656	-159,7
     43,2473	   0,0130737	-155,0	   0,0129522	-158,6
     43,2493	   0,0130743	-158,3	   0,0128346	-159,8
     43,2512	   0,0129988	-156,8	   0,0127287	-161,6
     43,2532	   0,0129361	-153,9	   0,0127963	-160,0
     43,2551	   0,0129241	-156,2	   0,0128079	-159,6
     43,2571	   0,0129749	-156,9	   0,0127394	-156,3
      43,259	   0,0129221	-155,7	   0,0127667	-159,5
      43,261	   0,0128322	-156,9	    0,012716	-158,4
      43,263	   0,0128064	-155,5	    0,012683	-158,7
     43,2649	   0,0127804	-157,2	   0,0125315	-158,9
     43,2669	   0,0126905	-155,9	   0,0124607	-158,6
     43,2688	   0,0126225	-154,2	   0,0124656	-157,6
     43,2708	   0,0125702	-154,5	   0,0124952	-160,2
     43,2727	   0,0125035	-154,0	   0,0124581	-158,0
     43,2747	   0,0124541	-154,1	   0,0123529	-158,6
     43,2766	   0,0124967	-154,6	   0,0122854	-158,2
     43,2786	   0,0124709	-155,0	   0,0122892	-159,3
     43,2805	   0,0123956	-153,4	   0,0122301	-156,4
     43,2825	   0,0123884	-152,1	   0,0121426	-156,2
     43,2845	   0,0123524	-156,7	   0,0120599	-156,2
     43,2864	   0,0123734	-158,1	   0,0120151	-157,2
     43,2884	   0,0123726	-153,6	   0,0120017	-156,1
     43,2903	   0,0122287	-152,7	   0,0119209	-155,1
     43,2923	   0,0121619	-153,9	   0,0118846	-151,8
     43,2942	   0,0121491	-158,5	   0,0118532	-154,9
     43,2962	   0,0121868	-156,0	   0,0118389	-155,9
     43,2981	   0,0121145	-152,4	   0,0118561	-158,7
     43,3001	   0,0120665	-155,6	   0,0118405	-157,9
     43,3021	   0,0119765	-156,0	    0,011845	-151,9
      43,304	    0,011883	-158,5	   0,0117721	-152,4
      43,306	   0,0118715	-154,1	   0,0116917	-162,4
     43,3079	     0,01178	-150,1	   0,0117196	-154,1
     43,3099	   0,0117021	-156,5	   0,0116353	-155,4
     43,3118	   0,0116916	-156,4	   0,0115808	-155,8
     43,3138	   0,0116869	-153,9	   0,0115232	-153,9
     43,3157	   0,0116854	-154,7	   0,0116127	-156,5
     43,3177	   0,0117141	-151,4	   0,0116454	-154,4
     43,3196	   0,0116895	-156,0	   0,0115846	-153,4
     43,3216	   0,0116988	-155,0	    0,011548	-151,3
     43,3236	   0,0116544	-153,6	   0,0114548	-154,3
     43,3255	    0,011471	-153,7	   0,0114398	-154,9
     43,3275	    0,011417	-152,2	   0,0113796	-153,5
     43,3294	   0,0114428	-154,3	   0,0112971	-150,6
     43,3314	    0,011354	-156,2	   0,0112698	-152,5
     43,3333	   0,0113615	-151,2	   0,0112672	-153,0
     43,3353	    0,011307	-153,3	   0,0112205	-151,0
     43,3372	   0,0112582	-153,6	   0,0111692	-147,8
     43,3392	   0,0112598	-154,5	   0,0111241	-150,3
     43,3412	   0,0112435	-151,4	   0,0111221	-152,1
     43,3431	   0,0111341	-149,9	   0,0111552	-151,5
     43,3451	   0,0111554	-150,6	   0,0110721	-151,5
      43,347	   0,0111449	-150,6	   0,0109851	-148,8
      43,349	   0,0110752	-148,4	   0,0109566	-150,6
     43,3509	    0,011047	-147,3	   0,0108809	-154,7
     43,3529	   0,0110508	-149,1	   0,0108738	-150,8
     43,3548	   0,0110678	-152,0	   0,0107991	-148,2
     43,3568	   0,0110233	-150,9	   0,0108409	-155,6
     43,3587	   0,0109434	-148,7	   0,0107933	-154,0
     43,3607	   0,0108843	-147,9	   0,0107983	-151,6
     43,3627	   0,0108286	-147,7	   0,0107564	-153,7
     43,3646	   0,0108464	-150,8	   0,0107911	-153,3
     43,3666	   0,0108123	-148,7	   0,0107017	-155,1
     43,3685	    0,010737	-146,9	   0,0106842	-153,0
     43,3705	   0,0107177	-149,0	   0,0106004	-151,8
     43,3724	   0,0107743	-149,2	   0,0105554	-150,6
     43,3744	   0,0107524	-150,7	   0,0105349	-151,1
     43,3763	   0,0107375	-148,8	   0,0104888	-153,0
     43,3783	   0,0107524	-148,4	   0,0104571	-152,4
     43,3803	   0,0106626	-148,9	   0,0104601	-150,3
     43,3822	   0,0106383	-149,8	   0,0104467	-151,7
     43,3842	   0,0105655	-148,8	   0,0104024	-151,1
     43,3861	   0,0104688	-148,1	   0,0103958	-152,5
     43,3881	    0,010444	-152,6	   0,0102532	-151,7
       43,39	   0,0103973	-155,0	   0,0102807	-148,3
      43,392	    0,010331	-151,4	   0,0102378	-151,9
     43,3939	   0,0103026	-147,6	   0,0102593	-150,9
     43,3959	   0,0102344	-151,6	   0,0102004	-149,5
     43,3979	   0,0101788	-154,2	   0,0101942	-148,7
     43,3998	   0,0101863	-149,0	   0,0102434	-146,8
     43,4018	   0,0102325	-150,0	   0,0101606	-149,4
     43,4037	   0,0103429	-148,1	   0,0101078	-144,9
     43,4057	   0,0102863	-150,1	   0,0100514	-148,3
     43,4076	   0,0102334	-148,5	   0,0100791	-148,6
     43,4096	   0,0101449	-146,9	   0,0100518	-149,5
     43,4115	   0,0100911	-149,1	   0,0100426	-147,0
     43,4135	   0,0100475	-150,6	  0,00997987	-145,5
     43,4154	   0,0100276	-148,2	  0,00987444	-147,1
     43,4174	  0,00992892	-147,4	  0,00983255	-147,0
     43,4194	  0,00984385	-144,9	  0,00981079	-147,3
     43,4213	  0,00979973	-146,4	  0,00977227	-147,8
     43,4233	  0,00975449	-147,6	  0,00976563	-148,3
     43,4252	  0,00980241	-146,1	  0,00977217	-148,6
     43,4272	  0,00982544	-146,3	  0,00980777	-149,3
     43,4291	  0,00983426	-146,9	  0,00977233	-148,5
     43,4311	  0,00978883	-146,3	   0,0097362	-149,8
      43,433	  0,00970344	-146,8	  0,00969748	-151,7
      43,435	  0,00969043	-143,8	  0,00973169	-150,8
      43,437	  0,00965915	-146,8	   0,0096226	-147,2
     43,4389	   0,0096754	-149,5	  0,00959851	-148,9
     43,4409	  0,00968691	-147,8	  0,00951612	-148,5
     43,4428	   0,0096236	-147,8	  0,00945515	-150,4
     43,4448	  0,00961158	-146,1	  0,00941989	-150,8
     43,4467	   0,0096919	-150,3	  0,00947427	-148,3
     43,4487	  0,00968912	-148,7	  0,00953337	-149,8
     43,4506	  0,00955686	-148,6	  0,00952835	-151,7
     43,4526	  0,00954718	-148,6	   0,0094975	-151,0
     43,4545	  0,00952001	-149,6	  0,00944559	-147,2
     43,4565	  0,00947523	-144,9	   0,0093589	-147,6
     43,4585	  0,00938197	-145,9	  0,00929132	-148,8
     43,4604	  0,00936527	-150,0	  0,00922414	-146,4
     43,4624	  0,00935644	-148,8	  0,00925697	-144,6
     43,4643	  0,00936473	-147,6	  0,00923595	-142,4
     43,4663	  0,00935603	-143,9	  0,00923197	-144,9
     43,4682	   0,0092677	-145,7	  0,00920411	-146,4
     43,4702	  0,00931778	-146,3	  0,00920465	-143,7
     43,4721	  0,00922704	-144,6	  0,00918096	-147,1
     43,4741	  0,00918982	-140,8	  0,00910428	-148,3
     43,4761	   0,0091833	-141,7	  0,00910459	-147,8
      43,478	  0,00914047	-144,5	  0,00911895	-145,9
       43,48	  0,00907057	-144,7	  0,00912023	-144,4
     43,4819	  0,00899838	-145,7	  0,00910869	-145,0
     43,4839	  0,00909607	-145,6	  0,00907305	-145,6
     43,4858	  0,00898013	-149,2	  0,00908199	-145,8
     43,4878	  0,00906778	-144,8	   0,0090222	-146,8
     43,4897	   0,0090069	-143,1	   0,0089756	-148,0
     43,4917	  0,00892526	-142,3	  0,00898195	-149,6
     43,4936	  0,00888589	-145,5	  0,00885308	-148,7
     43,4956	   0,0088967	-148,8	  0,00875846	-146,9
     43,4976	  0,00895565	-147,7	  0,00888382	-147,8
     43,4995	  0,00891678	-145,9	  0,00881501	-149,1
     43,5015	   0,0089031	-149,8	  0,00875543	-147,8
     43,5034	  0,00892603	-147,0	  0,00863621	-145,5
     43,5054	  0,00885188	-142,4	  0,00868314	-144,6
     43,5073	  0,00878786	-141,9	  0,00874314	-143,2
     43,5093	  0,00878312	-143,5	  0,00870285	-141,7
     43,5112	  0,00870347	-145,7	  0,00874496	-141,3
     43,5132	  0,00864541	-140,8	  0,00866971	-145,5
     43,5152	  0,00868698	-142,7	  0,00858225	-144,0
     43,5171	  0,00872959	-142,7	    0,008516	-143,6
     43,5191	  0,00871824	-145,9	  0,00847609	-144,2
      43,521	  0,00867528	-142,9	  0,00850375	-145,4
      43,523	  0,00864208	-139,3	  0,00848784	-145,2
     43,5249	  0,00848239	-141,3	  0,00849093	-147,1
     43,5269	  0,00844335	-144,8	  0,00844269	-141,7
     43,5288	  0,00842575	-143,7	   0,0084335	-144,3
     43,5308	  0,00838784	-143,9	  0,00840714	-146,4
     43,5327	  0,00842216	-146,1	  0,00841074	-143,6
     43,5347	  0,00842179	-143,8	  0,00838971	-144,5
     43,5367	  0,00841108	-145,3	  0,00845179	-147,9
     43,5386	  0,00835289	-146,3	  0,00831546	-148,1
     43,5406	  0,00838336	-146,0	  0,00825576	-143,2
     43,5425	  0,00840322	-146,4	  0,00827586	-144,1
     43,5445	  0,00842282	-142,9	  0,00825077	-143,5
     43,5464	  0,00840906	-143,3	  0,00823007	-144,2
     43,5484	  0,00835388	-143,9	  0,00818773	-141,2
     43,5503	  0,00829143	-142,8	  0,00816697	-141,4
     43,5523	  0,00826743	-144,0	  0,00820992	-143,6
     43,5543	  0,00818849	-140,3	  0,00817789	-141,6
     43,5562	  0,00822882	-143,2	  0,00814901	-141,4
     43,5582	  0,00821889	-142,2	  0,00814375	-143,8
     43,5601	  0,00814947	-142,6	  0,00820253	-140,2
     43,5621	  0,00817672	-139,7	   0,0081934	-143,0
      43,564	   0,0082392	-141,7	   0,0081082	-140,3
      43,566	  0,00811919	-143,1	  0,00802706	-144,2
     43,5679	  0,00811266	-140,1	  0,00797978	-146,6
     43,5699	  0,00808276	-142,1	  0,00796001	-145,6
     43,5718	  0,00801977	-146,5	  0,00792483	-144,8
     43,5738	  0,00799685	-144,7	  0,00792549	-143,6
     43,5758	  0,00792219	-143,3	  0,00794585	-144,6
     43,5777	  0,00792754	-143,1	  0,00791626	-141,6
     43,5797	  0,00797248	-144,0	  0,00790056	-140,0
     43,5816	  0,00790135	-144,0	  0,00791358	-143,0
     43,5836	  0,00783448	-140,3	  0,00780251	-143,1
     43,5855	  0,00783168	-140,4	  0,00782979	-138,9
     43,5875	  0,00790047	-140,7	  0,00787096	-137,1
     43,5894	  0,00793585	-142,2	  0,00788158	-142,1
     43,5914	  0,00790611	-140,5	  0,00774848	-145,9
     43,5934	  0,00783639	-142,3	  0,00773363	-140,7
     43,5953	  0,00781697	-142,0	  0,00773152	-141,5
     43,5973	  0,00773979	-139,2	  0,00772664	-145,2
     43,5992	  0,00769149	-137,4	   0,0076835	-144,3
     43,6012	   0,0076593	-142,2	  0,00766894	-141,3
     43,6031	  0,00768652	-143,9	  0,00773266	-146,1
     43,6051	  0,00770125	-141,3	  0,00762476	-144,5
      43,607	  0,00768081	-143,0	  0,00754716	-145,3
      43,609	   0,0076281	-143,6	  0,00753542	-141,8
     43,6109	   0,0075719	-144,5	   0,0075723	-141,9
     43,6129	  0,00761172	-142,7	  0,00765495	-144,4
     43,6149	  0,00766772	-143,8	  0,00758997	-142,0
     43,6168	  0,00758447	-142,1	  0,00753854	-139,3
     43,6188	  0,00751039	-140,3	  0,00755075	-139,3
     43,6207	  0,00744869	-138,0	  0,00755187	-141,1
     43,6227	  0,00750223	-141,9	  0,00753503	-140,8
     43,6246	  0,00747632	-142,3	  0,00756689	-137,8
     43,6266	  0,00748727	-141,1	  0,00746478	-143,1
     43,6285	  0,00740913	-138,2	  0,00737695	-143,4
     43,6305	   0,0074304	-137,6	  0,00736276	-141,2
     43,6325	  0,00742495	-142,4	  0,00743349	-142,1
     43,6344	  0,00739333	-139,6	  0,00746065	-144,7
     43,6364	   0,0073547	-138,5	  0,00742294	-144,4
     43,6383	  0,00732278	-141,8	  0,00735743	-140,3
     43,6403	  0,00723205	-142,2	  0,00738853	-142,5
     43,6422	  0,00713308	-139,6	  0,00729914	-142,9
     43,6442	  0,00720978	-143,6	  0,00721721	-137,4
     43,6461	  0,00725292	-143,7	  0,00722129	-138,7
     43,6481	  0,00727645	-140,4	   0,0072404	-142,8
       43,65	   0,0072641	-138,2	  0,00713099	-145,3
      43,652	  0,00726563	-138,8	  0,00717395	-136,7
      43,654	  0,00727147	-140,6	  0,00726128	-132,1
     43,6559	  0,00717632	-137,0	  0,00726414	-142,7
     43,6579	  0,00713795	-137,2	  0,00709849	-139,3
     43,6598	  0,00714467	-142,6	  0,00715658	-139,3
     43,6618	  0,00712941	-139,3	  0,00714489	-146,5
     43,6637	  0,00708146	-140,9	  0,00709883	-141,0
     43,6657	   0,0070706	-141,6	  0,00708928	-145,9
     43,6676	   0,0070273	-142,1	  0,00709308	-139,5
     43,6696	  0,00703844	-140,1	  0,00704943	-143,2
     43,6716	  0,00700131	-139,1	  0,00699464	-142,1
     43,6735	  0,00705449	-141,9	  0,00704075	-137,0
     43,6755	  0,00707662	-139,8	  0,00704121	-136,5
     43,6774	  0,00704367	-136,2	   0,0070857	-139,1
     43,6794	  0,00702928	-137,1	  0,00695315	-138,5
     43,6813	  0,00698358	-138,9	  0,00696635	-138,2
     43,6833	  0,00689061	-138,1	  0,00700384	-136,2
     43,6852	  0,00691879	-136,7	  0,00701702	-139,5
     43,6872	  0,00695968	-134,8	  0,00701451	-138,5
     43,6891	   0,0069098	-138,7	  0,00689243	-140,9
     43,6911	  0,00692161	-139,9	   0,0068812	-141,4
     43,6931	  0,00685144	-138,0	  0,00682168	-143,9
      43,695	  0,00685311	-140,5	   0,0068104	-142,1
      43,697	  0,00678924	-143,1	  0,00683856	-141,9
     43,6989	  0,00675294	-140,7	  0,00688055	-142,2
     43,7009	   0,0067503	-139,8	  0,00683909	-140,7
     43,7028	  0,00690814	-143,5	  0,00674958	-136,8
     43,7048	  0,00692032	-138,5	  0,00681104	-137,5
     43,7067	  0,00682608	-135,4	  0,00674885	-141,0
     43,7087	  0,00683696	-137,9	  0,00668265	-136,2
     43,7107	  0,00674782	-138,8	    0,006657	-136,9
     43,7126	  0,00667364	-136,0	   0,0067446	-142,0
     43,7146	   0,0065915	-139,6	  0,00664923	-140,0
     43,7165	  0,00654259	-142,8	  0,00659708	-141,7
     43,7185	  0,00651877	-138,9	  0,00662484	-142,2
     43,7204	  0,00663976	-140,4	  0,00661101	-141,5
     43,7224	  0,00669324	-143,5	  0,00661621	-138,9
     43,7243	  0,00669521	-137,7	  0,00655002	-138,4
     43,7263	  0,00658139	-135,9	  0,00659859	-137,8
     43,7282	  0,00652373	-138,2	  0,00659154	-137,1
     43,7302	  0,00650981	-137,6	  0,00652521	-137,8
     43,7322	  0,00655547	-139,2	  0,00646819	-134,9
     43,7341	  0,00655707	-136,5	  0,00646875	-138,2
     43,7361	     0,00651	-137,5	  0,00648503	-138,2
      43,738	   0,0065566	-140,5	  0,00656339	-137,9
       43,74	  0,00653292	-137,4	  0,00660541	-142,8
     43,7419	  0,00649006	-138,9	  0,00652877	-141,1
     43,7439	  0,00648204	-139,8	  0,00654063	-137,1
     43,7458	  0,00641969	-139,8	  0,00647109	-141,7
     43,7478	  0,00637006	-139,0	  0,00641728	-142,4
     43,7498	  0,00637137	-140,7	  0,00632472	-139,1
     43,7517	  0,00638256	-139,3	  0,00630957	-136,9
     43,7537	  0,00639253	-136,6	  0,00637949	-135,2
     43,7556	  0,00637995	-136,5	  0,00637902	-135,7
     43,7576	  0,00632839	-137,1	  0,00643049	-136,2
     43,7595	    0,006324	-138,1	  0,00639339	-141,3
     43,7615	  0,00631184	-136,9	  0,00642956	-139,1
     43,7634	  0,00627309	-134,9	  0,00633266	-137,6
     43,7654	  0,00629706	-137,7	  0,00628767	-137,7
     43,7673	  0,00627186	-139,4	  0,00633433	-140,8
     43,7693	  0,00625608	-137,5	  0,00633575	-140,9
     43,7713	  0,00630418	-142,1	  0,00630857	-139,8
     43,7732	   0,0063014	-138,7	  0,00626616	-138,6
     43,7752	  0,00626019	-136,5	   0,0063322	-140,6
     43,7771	  0,00630511	-136,8	  0,00624267	-137,2
     43,7791	  0,00624712	-137,2	  0,00621238	-135,4
      43,781	   0,0061691	-136,4	  0,00621857	-136,8
      43,783	   0,0062171	-133,4	  0,00612197	-137,9
     43,7849	  0,00617427	-137,1	  0,00615517	-136,9
     43,7869	  0,00610421	-135,7	  0,00615993	-140,4
     43,7889	  0,00605919	-138,2	  0,00615107	-139,9
     43,7908	  0,00612397	-141,5	  0,00614631	-136,3
     43,7928	  0,00611326	-139,8	  0,00611275	-138,5
     43,7947	  0,00610699	-139,5	  0,00607823	-139,1
     43,7967	  0,00603735	-138,7	  0,00611681	-138,1
     43,7986	  0,00606318	-141,1	  0,00602356	-136,2
     43,8006	  0,00607316	-138,8	  0,00600779	-136,8
     43,8025	  0,00607859	-136,4	  0,00608057	-137,3
     43,8045	  0,00606142	-135,2	  0,00609595	-133,8
     43,8064	  0,00606598	-135,7	   0,0060792	-137,4
     43,8084	  0,00605483	-135,0	  0,00595195	-143,3
     43,8104	    0,005991	-136,0	  0,00583376	-140,2
     43,8123	  0,00601743	-138,7	  0,00583014	-138,7
     43,8143	  0,00591233	-138,6	  0,00595501	-140,2
     43,8162	  0,00588764	-137,8	  0,00602316	-136,5
     43,8182	  0,00594269	-139,6	   0,0060256	-135,5
     43,8201	  0,00598168	-138,4	  0,00595786	-136,0
     43,8221	  0,00589629	-133,9	  0,00592023	-135,5
      43,824	  0,00589711	-136,1	  0,00596075	-132,9
      43,826	  0,00594445	-135,3	  0,00589596	-138,1
      43,828	  0,00581096	-135,9	  0,00585162	-138,7
     43,8299	  0,00586473	-134,5	  0,00585296	-137,8
     43,8319	  0,00586973	-136,5	  0,00589003	-138,3
     43,8338	  0,00588955	-135,9	   0,0058595	-138,0
     43,8358	  0,00583418	-136,0	  0,00569534	-136,1
     43,8377	  0,00579025	-139,5	  0,00570511	-133,6
     43,8397	  0,00574415	-138,8	  0,00580179	-136,7
     43,8416	  0,00565932	-138,8	  0,00574057	-137,0
     43,8436	  0,00573698	-136,8	     0,00574	-136,2
     43,8456	  0,00585885	-137,0	  0,00576447	-134,0
     43,8475	  0,00580399	-131,8	   0,0058153	-138,7
     43,8495	  0,00571465	-135,1	   0,0057864	-136,8
     43,8514	  0,00572445	-137,8	  0,00571204	-136,9
     43,8534	  0,00559878	-135,5	  0,00566607	-138,7
     43,8553	  0,00566488	-139,0	  0,00566754	-137,3
     43,8573	  0,00565708	-138,8	   0,0056511	-134,5
     43,8592	  0,00568101	-135,7	  0,00565442	-135,8
     43,8612	  0,00565002	-132,8	  0,00569619	-134,0
     43,8631	  0,00558177	-135,4	  0,00557649	-134,9
     43,8651	  0,00557784	-135,5	   0,0055876	-132,8
     43,8671	  0,00562336	-136,0	  0,00570179	-136,7
      43,869	  0,00575231	-132,0	  0,00560593	-135,7
      43,871	  0,00578666	-135,6	  0,00565384	-139,1
     43,8729	  0,00556439	-135,2	  0,00557999	-138,5
     43,8749	    0,005416	-135,1	  0,00562607	-136,3
     43,8768	  0,00544629	-139,8	  0,00553029	-134,0
     43,8788	  0,00551705	-138,1	  0,00549705	-136,2
     43,8807	  0,00562267	-133,6	  0,00553156	-132,7
     43,8827	  0,00563891	-134,2	  0,00555419	-132,8
     43,8847	  0,00559131	-131,5	  0,00554046	-131,7
     43,8866	  0,00550146	-134,2	   0,0055822	-135,7
     43,8886	  0,00553695	-137,6	  0,00556246	-136,6
     43,8905	  0,00547908	-138,5	  0,00549554	-137,0
     43,8925	  0,00545362	-136,0	  0,00547919	-141,2
     43,8944	  0,00549635	-137,5	  0,00541106	-136,6
     43,8964	  0,00554028	-139,5	   0,0054393	-135,0
     43,8983	  0,00545184	-135,4	  0,00547877	-136,6
     43,9003	  0,00545939	-135,4	  0,00543994	-133,5
     43,9022	  0,00538532	-137,6	  0,00540066	-135,6
     43,9042	   0,0053855	-132,6	  0,00536332	-134,9
     43,9062	  0,00535545	-133,6	  0,00531181	-135,7
     43,9081	  0,00533953	-134,7	  0,00531392	-135,6
     43,9101	  0,00536036	-138,0	  0,00543705	-137,3
      43,912	   0,0054213	-134,8	  0,00539109	-138,1
      43,914	  0,00536532	-137,7	  0,00533795	-134,6
     43,9159	  0,00529303	-138,1	  0,00537251	-134,0
     43,9179	  0,00525826	-135,7	  0,00531999	-133,1
     43,9198	  0,00529579	-132,1	  0,00526912	-133,7
     43,9218	  0,00533872	-135,2	  0,00532495	-134,4
     43,9238	  0,00526555	-130,6	  0,00522615	-139,8
     43,9257	  0,00530432	-136,6	    0,005153	-136,3
     43,9277	  0,00540843	-138,6	  0,00528253	-136,0
     43,9296	  0,00531415	-136,6	  0,00536369	-134,9
     43,9316	  0,00523176	-135,4	  0,00531264	-138,6
     43,9335	  0,00529776	-138,5	  0,00530723	-134,9
     43,9355	  0,00527275	-138,8	   0,0052935	-133,7
     43,9374	    0,005234	-133,8	  0,00525168	-134,5
     43,9394	  0,00519492	-134,2	  0,00515211	-131,0
     43,9413	  0,00521263	-135,3	  0,00519965	-132,2
     43,9433	  0,00520755	-131,4	  0,00521825	-137,7
     43,9453	  0,00522186	-133,3	  0,00522112	-136,4
     43,9472	  0,00525295	-135,4	    0,005187	-137,6
     43,9492	  0,00517001	-134,8	   0,0051203	-139,4
     43,9511	  0,00516241	-135,2	  0,00509243	-134,0
     43,9531	  0,00510302	-136,5	   0,0051163	-134,5
      43,955	  0,00508485	-133,5	  0,00500029	-134,2
      43,957	  0,00512331	-135,9	  0,00503565	-132,2
     43,9589	  0,00522589	-135,1	  0,00515127	-136,5
     43,9609	  0,00518839	-131,8	  0,00506366	-137,7
     43,9629	  0,00518076	-134,0	  0,00511481	-135,3
     43,9648	  0,00512453	-136,0	   0,0051248	-135,3
     43,9668	  0,00505691	-134,7	  0,00498622	-135,4
     43,9687	  0,00500006	-135,6	  0,00494128	-130,9
     43,9707	  0,00501152	-136,4	  0,00498364	-129,4
     43,9726	  0,00507688	-131,5	   0,0050398	-134,8
     43,9746	  0,00504412	-130,7	  0,00512017	-134,1
     43,9765	  0,00503395	-133,4	  0,00509445	-133,0
     43,9785	  0,00499306	-132,2	  0,00510395	-137,4
     43,9804	  0,00498282	-130,9	  0,00496666	-137,9
     43,9824	  0,00492373	-137,6	  0,00495683	-134,5
     43,9844	  0,00492888	-136,4	  0,00492492	-137,2
     43,9863	  0,00499271	-133,2	  0,00495098	-134,6
     43,9883	  0,00509134	-134,6	  0,00494093	-134,2
     43,9902	  0,00504469	-131,0	  0,00489578	-132,6
     43,9922	  0,00484254	-129,8	  0,00488994	-135,5
     43,9941	  0,00483517	-136,3	  0,00487914	-132,8
     43,9961	  0,00492824	-136,4	  0,00493528	-133,2
      43,998	  0,00493431	-135,3	   0,0049117	-138,3
          44	  0,00494847	-135,1	  0,00490675	-132,0

