X-Data [Hz]	Laser (M - Filtered) [m/s]	Phase [Deg]	Laser (M - Filtered) [m/s]	Phase [Deg]	
	002: [07-10-24 09:15]		003: [07-10-24 09:18]	
        40,5	   0,0626375	72,9	   0,0713695	72,9
     40,5024	    0,066647	72,7	   0,0714721	73,0
     40,5049	   0,0665122	72,4	   0,0715125	72,7
     40,5073	   0,0692168	73,1	   0,0713336	72,7
     40,5098	   0,0701087	72,9	   0,0717214	73,1
     40,5122	    0,068563	71,2	   0,0716224	72,8
     40,5147	   0,0691003	71,6	   0,0718375	72,8
     40,5171	    0,068599	72,3	   0,0717793	73,1
     40,5196	   0,0703384	72,7	   0,0712982	72,8
      40,522	   0,0710072	72,9	   0,0721167	72,8
     40,5244	   0,0684143	71,9	   0,0715607	73,1
     40,5269	   0,0691242	70,6	   0,0715603	72,9
     40,5293	   0,0708376	72,5	   0,0718865	72,5
     40,5318	   0,0704195	73,6	   0,0721885	72,9
     40,5342	   0,0695077	71,3	   0,0722877	72,8
     40,5367	   0,0706777	73,4	    0,071977	72,8
     40,5391	   0,0706671	73,7	   0,0726577	73,0
     40,5415	   0,0693465	71,7	   0,0726112	72,8
      40,544	   0,0684316	73,8	   0,0724034	72,9
     40,5464	   0,0693514	72,2	    0,072551	73,1
     40,5489	   0,0701283	73,8	   0,0722395	72,6
     40,5513	   0,0717805	73,1	   0,0724879	73,0
     40,5538	   0,0720076	73,0	   0,0730104	73,0
     40,5562	   0,0693477	74,6	   0,0731107	73,2
     40,5587	   0,0713356	74,1	   0,0732757	72,8
     40,5611	   0,0723647	72,9	   0,0725563	72,9
     40,5635	   0,0729683	73,3	   0,0733322	73,2
      40,566	   0,0720906	72,6	    0,073579	73,0
     40,5684	   0,0728262	73,3	   0,0733029	72,8
     40,5709	   0,0729928	73,1	   0,0736208	73,0
     40,5733	   0,0725095	72,6	   0,0726368	72,9
     40,5758	   0,0723788	74,0	   0,0739124	73,0
     40,5782	   0,0725396	73,3	   0,0733552	73,1
     40,5806	   0,0726283	72,4	   0,0731798	72,7
     40,5831	   0,0723813	73,1	   0,0735898	72,9
     40,5855	   0,0733688	73,6	   0,0736476	72,8
      40,588	   0,0727668	73,4	   0,0738242	72,8
     40,5904	   0,0724645	73,7	   0,0734248	72,6
     40,5929	    0,073776	73,2	   0,0738115	73,1
     40,5953	   0,0728254	72,4	   0,0744243	73,3
     40,5978	    0,073873	73,4	   0,0745896	73,2
     40,6002	   0,0725437	72,0	   0,0738934	72,9
     40,6026	   0,0739744	72,5	   0,0738726	72,9
     40,6051	   0,0739565	73,5	   0,0744162	73,1
     40,6075	   0,0747858	73,2	   0,0749236	73,1
       40,61	   0,0740434	72,4	   0,0750617	73,4
     40,6124	   0,0740227	74,3	   0,0750576	73,2
     40,6149	    0,074672	73,1	   0,0747811	73,2
     40,6173	   0,0746021	72,8	   0,0750516	73,3
     40,6197	    0,073331	74,0	   0,0751779	73,2
     40,6222	   0,0750074	73,7	   0,0750066	73,1
     40,6246	   0,0751115	73,2	   0,0755768	73,4
     40,6271	   0,0752819	73,6	   0,0750731	73,0
     40,6295	   0,0751848	73,4	   0,0757041	73,5
      40,632	   0,0746301	73,9	    0,075701	73,5
     40,6344	   0,0746159	72,4	   0,0758541	72,9
     40,6369	   0,0750018	73,2	   0,0757038	73,4
     40,6393	   0,0744561	73,7	   0,0760852	73,5
     40,6417	   0,0746026	73,0	   0,0762704	73,2
     40,6442	   0,0751354	74,1	   0,0762363	73,4
     40,6466	    0,075898	73,5	    0,076198	73,4
     40,6491	   0,0762683	73,3	   0,0760882	73,5
     40,6515	   0,0761298	73,3	   0,0765418	73,2
      40,654	   0,0754687	73,3	   0,0767314	73,5
     40,6564	   0,0763154	73,4	    0,076372	73,4
     40,6588	   0,0764233	73,4	   0,0767514	73,3
     40,6613	   0,0761349	73,7	   0,0770366	73,6
     40,6637	   0,0760048	73,4	   0,0767561	73,0
     40,6662	   0,0766543	73,3	   0,0771387	73,6
     40,6686	   0,0762654	74,4	   0,0771685	73,5
     40,6711	   0,0764937	73,5	   0,0764095	73,3
     40,6735	   0,0768682	73,5	   0,0772705	73,4
      40,676	   0,0762401	73,8	    0,077233	73,4
     40,6784	   0,0772146	73,5	   0,0771607	73,6
     40,6808	   0,0767859	73,0	   0,0776717	73,8
     40,6833	   0,0758588	72,7	   0,0776981	73,8
     40,6857	   0,0768315	73,4	   0,0777359	73,6
     40,6882	   0,0751649	74,7	   0,0779887	73,6
     40,6906	   0,0776846	73,6	   0,0778096	73,9
     40,6931	   0,0769723	74,1	   0,0780309	73,6
     40,6955	    0,077472	73,5	   0,0777086	73,7
     40,6979	   0,0775355	73,4	   0,0779473	73,4
     40,7004	   0,0773004	73,6	   0,0778148	73,2
     40,7028	   0,0769689	72,8	   0,0786602	73,5
     40,7053	   0,0775588	73,8	   0,0784149	73,6
     40,7077	   0,0781326	73,9	   0,0786074	73,6
     40,7102	    0,077951	73,1	   0,0784602	73,4
     40,7126	   0,0779395	73,5	   0,0788125	73,5
     40,7151	   0,0780696	73,6	   0,0789985	74,0
     40,7175	   0,0779991	73,5	   0,0791998	73,8
     40,7199	   0,0786428	73,7	    0,079264	73,8
     40,7224	   0,0779017	73,7	   0,0794532	73,8
     40,7248	    0,078209	73,2	   0,0792921	74,0
     40,7273	   0,0787123	73,6	   0,0797213	74,1
     40,7297	   0,0785527	73,9	   0,0794772	73,7
     40,7322	   0,0783385	73,5	   0,0798251	74,0
     40,7346	   0,0790396	73,9	   0,0798017	73,7
      40,737	   0,0788605	73,6	   0,0795839	74,1
     40,7395	   0,0790673	73,5	   0,0799421	73,6
     40,7419	   0,0787586	73,7	   0,0803563	74,0
     40,7444	   0,0792206	73,8	   0,0795419	73,9
     40,7468	   0,0790589	73,5	   0,0799637	73,5
     40,7493	   0,0789784	73,5	   0,0803079	73,6
     40,7517	   0,0789955	73,4	   0,0804063	74,1
     40,7542	   0,0800193	73,7	   0,0808459	73,9
     40,7566	    0,080005	73,5	   0,0805598	73,9
      40,759	   0,0791097	73,8	   0,0802372	73,8
     40,7615	    0,079482	74,0	   0,0808634	74,0
     40,7639	   0,0807317	74,1	   0,0811495	74,0
     40,7664	   0,0806493	73,7	   0,0808931	73,8
     40,7688	   0,0803368	73,8	   0,0814013	74,0
     40,7713	   0,0806322	74,1	   0,0814733	74,1
     40,7737	   0,0807331	73,7	   0,0817205	74,3
     40,7761	   0,0806103	74,2	    0,081294	74,0
     40,7786	   0,0815984	74,2	    0,081928	74,5
      40,781	   0,0811754	74,0	   0,0816721	73,8
     40,7835	   0,0813759	74,3	   0,0821696	74,3
     40,7859	   0,0812673	73,9	   0,0818751	74,3
     40,7884	   0,0814259	73,8	   0,0820104	73,8
     40,7908	   0,0813624	74,2	   0,0820696	74,2
     40,7933	   0,0820796	74,0	   0,0826228	74,3
     40,7957	   0,0819942	74,2	   0,0825764	74,2
     40,7981	   0,0820842	74,3	   0,0830007	74,2
     40,8006	   0,0814493	74,0	   0,0824137	74,5
      40,803	   0,0820184	74,4	   0,0828846	74,6
     40,8055	   0,0819177	74,0	    0,082697	74,3
     40,8079	   0,0821726	73,9	   0,0829772	74,4
     40,8104	   0,0823044	74,7	   0,0832303	74,6
     40,8128	    0,082477	73,9	    0,083442	74,3
     40,8153	   0,0827548	74,3	   0,0836591	74,5
     40,8177	   0,0827457	74,4	   0,0837809	74,5
     40,8201	   0,0828537	74,1	   0,0839312	74,6
     40,8226	   0,0829342	74,4	   0,0834897	74,0
      40,825	   0,0831143	74,1	    0,084185	74,5
     40,8275	   0,0830212	74,5	   0,0840923	74,4
     40,8299	   0,0838242	74,4	    0,084071	74,6
     40,8324	    0,083299	74,0	   0,0843255	74,6
     40,8348	   0,0838786	74,5	   0,0847723	74,4
     40,8372	   0,0837152	74,8	   0,0845052	74,8
     40,8397	   0,0840056	74,5	   0,0849166	74,7
     40,8421	   0,0844501	74,6	   0,0847574	74,7
     40,8446	   0,0835531	74,5	    0,085154	74,9
      40,847	   0,0840949	74,6	   0,0851088	74,5
     40,8495	   0,0847705	74,8	   0,0854808	74,9
     40,8519	   0,0847503	74,6	   0,0854081	74,6
     40,8544	   0,0841496	74,4	   0,0854361	74,5
     40,8568	   0,0847184	74,6	   0,0854734	74,7
     40,8592	   0,0851782	74,3	   0,0855968	74,8
     40,8617	   0,0852284	74,9	   0,0858507	74,4
     40,8641	   0,0851628	74,7	   0,0854638	74,8
     40,8666	   0,0854531	74,8	   0,0859917	74,7
      40,869	   0,0853481	74,6	    0,086529	74,8
     40,8715	   0,0854662	74,9	   0,0867216	75,1
     40,8739	    0,086024	74,9	   0,0861591	74,5
     40,8763	   0,0860576	74,7	   0,0863661	74,8
     40,8788	   0,0861109	74,7	   0,0870613	74,9
     40,8812	   0,0863413	74,8	   0,0869259	75,0
     40,8837	   0,0859189	74,3	     0,08727	75,0
     40,8861	   0,0861126	74,3	   0,0871095	74,7
     40,8886	   0,0865096	74,9	    0,087361	74,5
      40,891	    0,086596	74,8	   0,0877345	75,1
     40,8935	   0,0869222	74,9	   0,0875926	74,8
     40,8959	   0,0870589	75,2	   0,0879964	75,2
     40,8983	   0,0873606	74,9	   0,0880644	75,0
     40,9008	   0,0874313	75,2	    0,088333	75,4
     40,9032	   0,0870273	74,6	   0,0883601	75,3
     40,9057	   0,0876779	75,1	   0,0883983	74,9
     40,9081	    0,086946	74,8	    0,088554	75,4
     40,9106	    0,087771	75,0	   0,0884466	75,1
      40,913	   0,0880478	75,1	   0,0882766	75,3
     40,9154	   0,0880158	75,1	   0,0888422	75,3
     40,9179	   0,0883689	75,0	   0,0889486	74,9
     40,9203	   0,0885611	75,3	   0,0890824	75,3
     40,9228	   0,0883118	75,2	   0,0889725	75,2
     40,9252	   0,0888137	75,4	   0,0898198	75,3
     40,9277	   0,0885526	75,3	   0,0895328	75,6
     40,9301	   0,0890169	75,2	   0,0901533	75,5
     40,9326	   0,0892438	75,3	   0,0897286	75,4
      40,935	    0,089456	75,4	   0,0904297	75,6
     40,9374	   0,0891869	75,1	   0,0904068	75,3
     40,9399	   0,0894136	75,2	   0,0903821	75,5
     40,9423	   0,0893773	74,8	     0,09063	75,4
     40,9448	   0,0895878	75,5	   0,0902818	75,2
     40,9472	   0,0895411	75,3	   0,0904252	75,5
     40,9497	   0,0902073	75,3	   0,0908291	75,9
     40,9521	   0,0903097	75,7	   0,0914093	75,8
     40,9545	   0,0905962	75,8	   0,0916309	76,2
      40,957	    0,090631	75,6	    0,091407	75,9
     40,9594	   0,0907789	75,5	    0,091953	75,6
     40,9619	   0,0910075	75,4	    0,091771	75,8
     40,9643	    0,091069	75,5	   0,0919008	75,9
     40,9668	   0,0909926	76,0	   0,0918993	75,5
     40,9692	   0,0913503	76,0	       0,092	76,2
     40,9717	   0,0914407	75,5	    0,092382	75,7
     40,9741	   0,0916653	75,6	   0,0924902	76,0
     40,9765	   0,0917708	76,3	   0,0925286	76,9
      40,979	   0,0913784	75,6	   0,0927488	76,7
     40,9814	   0,0922405	76,5	   0,0934205	76,1
     40,9839	   0,0919981	76,6	   0,0932888	76,9
     40,9863	   0,0923001	76,8	   0,0930995	76,4
     40,9888	   0,0924126	76,8	   0,0928402	76,7
     40,9912	   0,0926844	76,9	   0,0937147	77,0
     40,9936	   0,0928759	76,7	   0,0934032	76,6
     40,9961	   0,0931482	76,1	   0,0943582	77,1
     40,9985	   0,0931258	77,2	   0,0937772	77,4
      41,001	    0,093501	75,6	   0,0944057	76,5
     41,0034	   0,0934895	75,2	   0,0947458	77,0
     41,0059	   0,0936312	75,6	   0,0948844	75,7
     41,0083	   0,0940129	75,9	   0,0953994	76,4
     41,0108	   0,0939001	77,3	   0,0954199	76,1
     41,0132	   0,0941937	77,2	   0,0955137	75,7
     41,0156	   0,0938906	75,7	   0,0955961	76,2
     41,0181	   0,0934466	76,4	   0,0958177	75,7
     41,0205	   0,0943023	76,8	   0,0954913	77,0
      41,023	   0,0949084	76,2	   0,0955396	76,7
     41,0254	   0,0950342	75,2	   0,0966084	77,0
     41,0279	   0,0944406	77,1	     0,09606	75,7
     41,0303	   0,0947845	76,1	     0,09669	76,5
     41,0327	   0,0955852	75,7	   0,0971973	76,3
     41,0352	   0,0954088	77,4	   0,0974785	76,5
     41,0376	    0,096073	76,4	   0,0974644	76,6
     41,0401	   0,0959652	76,0	   0,0972741	77,0
     41,0425	   0,0964567	76,5	   0,0980476	76,8
      41,045	    0,096631	76,2	   0,0977775	76,7
     41,0474	   0,0961204	76,2	   0,0984008	76,9
     41,0499	   0,0969225	76,2	   0,0980205	76,8
     41,0523	   0,0952347	77,4	   0,0982191	77,2
     41,0547	   0,0962915	77,3	   0,0985201	77,1
     41,0572	   0,0969701	75,7	    0,099086	77,0
     41,0596	   0,0964321	76,8	   0,0994964	77,0
     41,0621	   0,0976297	76,5	   0,0992649	76,9
     41,0645	   0,0975926	78,0	   0,0988184	77,0
      41,067	   0,0971819	77,4	   0,0996191	77,2
     41,0694	   0,0983731	76,5	    0,099771	77,1
     41,0718	   0,0974864	77,3	    0,100197	77,0
     41,0743	   0,0986982	76,8	    0,100682	77,0
     41,0767	   0,0988116	77,0	    0,100147	76,4
     41,0792	   0,0995884	76,7	    0,100677	77,1
     41,0816	   0,0997401	77,1	    0,100906	77,8
     41,0841	   0,0986843	78,3	    0,101619	77,4
     41,0865	   0,0985865	76,3	    0,101693	77,4
      41,089	   0,0988187	77,0	     0,10212	77,6
     41,0914	    0,100151	77,0	    0,102256	77,2
     41,0938	   0,0998622	77,2	    0,102144	77,8
     41,0963	    0,100432	77,9	    0,102107	76,7
     41,0987	    0,101094	76,7	    0,101075	77,9
     41,1012	   0,0995105	77,8	     0,10261	78,1
     41,1036	    0,100749	76,9	    0,103796	77,2
     41,1061	      0,1013	77,9	    0,103868	78,0
     41,1085	    0,100937	78,0	    0,103118	78,1
     41,1109	     0,10199	77,2	    0,104669	77,2
     41,1134	    0,102033	77,5	    0,106849	77,2
     41,1158	    0,101785	77,1	    0,107642	78,2
     41,1183	    0,101893	78,3	    0,101799	80,2
     41,1207	    0,101235	76,8	   0,0985753	76,6
     41,1232	    0,102876	77,9	     0,12168	68,4
     41,1256	    0,103033	77,5	    0,159471	72,2
     41,1281	    0,103376	77,8	    0,195809	81,3
     41,1305	    0,103762	77,7	     0,22428	90,7
     41,1329	    0,103559	77,6	    0,245017	101,7
     41,1354	    0,103555	78,3	     0,25931	108,1
     41,1378	    0,104311	77,3	    0,268483	113,4
     41,1403	    0,103899	77,4	    0,278205	119,1
     41,1427	    0,104554	77,4	    0,281353	122,3
     41,1452	    0,104853	77,8	    0,286576	125,1
     41,1476	    0,104652	77,6	     0,28991	128,1
       41,15	    0,104892	77,4	    0,289532	130,7
     41,1525	    0,104951	77,5	    0,291154	132,5
     41,1549	      0,1048	77,1	    0,291887	134,2
     41,1574	    0,106381	78,0	    0,296732	135,7
     41,1598	    0,106075	78,5	    0,293065	137,3
     41,1623	    0,106387	78,3	    0,296247	137,8
     41,1647	    0,107149	78,1	    0,293847	139,4
     41,1672	    0,106965	78,1	    0,293833	139,9
     41,1696	    0,107352	78,1	     0,29562	141,2
      41,172	    0,107465	78,8	    0,294843	142,0
     41,1745	    0,106613	78,5	    0,295235	142,7
     41,1769	    0,107625	77,9	    0,291088	143,8
     41,1794	    0,107945	78,2	    0,293751	144,4
     41,1818	     0,10765	78,4	    0,292867	145,4
     41,1843	    0,107901	78,3	    0,296604	145,5
     41,1867	    0,109044	79,7	    0,291726	147,3
     41,1891	    0,109515	78,6	    0,293195	146,5
     41,1916	    0,109389	78,8	    0,293437	147,6
      41,194	    0,109238	79,1	    0,290896	148,4
     41,1965	    0,110707	78,6	    0,295094	148,6
     41,1989	    0,109454	78,2	    0,292935	148,5
     41,2014	    0,111269	79,0	    0,293926	149,2
     41,2038	    0,110546	78,1	    0,290734	150,1
     41,2063	    0,111342	78,9	    0,293522	150,2
     41,2087	    0,110589	79,3	    0,290827	151,2
     41,2111	    0,112371	79,2	    0,293922	150,9
     41,2136	    0,112496	78,8	    0,291899	151,0
      41,216	    0,112344	78,9	    0,291557	151,4
     41,2185	    0,112359	79,1	    0,291388	152,3
     41,2209	    0,113638	79,1	    0,291682	152,0
     41,2234	    0,112384	79,1	    0,291513	153,2
     41,2258	     0,11351	79,1	    0,292824	152,7
     41,2282	     0,11464	79,4	    0,293277	153,0
     41,2307	    0,112965	79,8	    0,289445	153,6
     41,2331	    0,114969	79,5	    0,291853	154,1
     41,2356	    0,114238	79,0	    0,287522	154,8
      41,238	    0,115612	79,3	    0,290148	154,6
     41,2405	    0,114975	79,7	    0,287863	155,5
     41,2429	    0,115372	79,2	    0,286437	155,6
     41,2454	    0,115867	80,5	    0,287549	156,3
     41,2478	    0,115964	79,3	    0,289849	155,8
     41,2502	    0,116021	80,2	    0,289129	156,6
     41,2527	    0,115561	80,7	    0,287228	156,6
     41,2551	     0,11734	80,3	    0,288429	156,6
     41,2576	    0,117015	79,6	    0,284866	156,7
       41,26	    0,118126	80,1	    0,286277	157,8
     41,2625	    0,118647	80,3	    0,283822	158,2
     41,2649	    0,119136	79,9	    0,289536	157,4
     41,2673	    0,120023	80,4	    0,282672	158,9
     41,2698	    0,119098	80,2	    0,287291	158,3
     41,2722	    0,120518	80,4	    0,279316	158,5
     41,2747	    0,120645	80,7	    0,287004	158,7
     41,2771	    0,120981	80,6	    0,285314	159,6
     41,2796	    0,121696	81,0	    0,284516	158,9
      41,282	    0,121707	80,4	    0,284663	160,1
     41,2845	    0,122612	80,8	    0,282961	158,9
     41,2869	    0,122762	80,9	     0,27867	160,5
     41,2893	    0,122882	80,2	    0,279592	160,2
     41,2918	    0,123949	81,1	    0,282971	161,0
     41,2942	    0,123605	81,5	    0,279845	161,5
     41,2967	      0,1243	81,1	    0,283244	160,8
     41,2991	    0,124487	81,3	    0,283035	161,9
     41,3016	    0,125052	80,8	    0,281677	161,3
      41,304	    0,126121	81,5	    0,281059	160,9
     41,3064	    0,125314	81,9	    0,281158	162,0
     41,3089	    0,125879	80,9	     0,27451	162,1
     41,3113	     0,12746	81,5	    0,280843	162,4
     41,3138	      0,1273	81,4	    0,272917	163,3
     41,3162	    0,128069	81,7	    0,279718	163,5
     41,3187	    0,128625	82,4	    0,274794	163,6
     41,3211	    0,128339	82,6	    0,276869	163,3
     41,3236	     0,12947	81,9	    0,275119	163,7
      41,326	    0,129517	81,3	     0,27497	163,1
     41,3284	    0,129205	82,4	    0,272973	164,6
     41,3309	    0,130937	82,5	    0,270431	163,3
     41,3333	    0,131955	82,7	    0,274923	165,6
     41,3358	    0,131781	82,1	    0,273715	164,9
     41,3382	    0,132319	82,6	     0,27274	165,5
     41,3407	    0,133635	83,0	    0,273065	164,2
     41,3431	    0,134206	82,9	    0,273724	166,2
     41,3456	    0,134038	83,6	    0,272959	165,6
      41,348	    0,134491	82,8	    0,275311	164,7
     41,3504	    0,135671	83,2	    0,269217	165,6
     41,3529	    0,134689	83,8	    0,272384	166,2
     41,3553	    0,136866	83,6	    0,268944	165,6
     41,3578	    0,138027	83,7	    0,271828	167,4
     41,3602	    0,138406	83,9	    0,261391	166,2
     41,3627	    0,138339	83,8	    0,270224	167,7
     41,3651	    0,138681	84,1	    0,266403	167,8
     41,3675	     0,14079	84,1	    0,269708	167,5
       41,37	    0,139765	84,4	    0,271179	166,4
     41,3724	    0,140659	84,6	    0,268015	168,4
     41,3749	    0,141599	84,3	    0,266202	167,2
     41,3773	    0,142164	85,1	    0,270836	168,0
     41,3798	    0,143882	85,1	    0,264891	169,2
     41,3822	    0,145107	85,2	    0,263323	168,3
     41,3847	     0,14669	85,9	    0,266876	168,6
     41,3871	    0,145828	85,5	    0,269025	167,9
     41,3895	      0,1463	86,2	     0,25889	168,2
      41,392	    0,147381	85,8	    0,264313	168,1
     41,3944	    0,148344	86,5	    0,264286	168,8
     41,3969	    0,148957	86,7	    0,266651	169,1
     41,3993	     0,15007	86,7	    0,268284	168,7
     41,4018	     0,15228	87,0	    0,262794	168,7
     41,4042	    0,153102	87,3	    0,258727	169,4
     41,4066	      0,1533	87,6	    0,260802	169,6
     41,4091	    0,153909	88,1	    0,258715	170,5
     41,4115	    0,158563	88,6	    0,263532	170,4
      41,414	    0,159659	88,9	    0,262886	171,1
     41,4164	    0,160183	88,9	    0,262897	170,4
     41,4189	    0,160263	89,3	    0,258791	169,9
     41,4213	     0,16417	90,0	    0,260768	170,1
     41,4238	    0,163954	90,0	    0,260481	171,7
     41,4262	    0,168433	90,9	    0,261332	171,5
     41,4286	    0,167736	91,3	    0,257398	172,4
     41,4311	    0,171709	91,9	    0,260493	171,1
     41,4335	    0,172713	92,5	     0,25905	171,3
      41,436	    0,173509	93,8	    0,259699	172,5
     41,4384	    0,175002	94,4	    0,259061	171,7
     41,4409	    0,179936	95,1	    0,258901	171,3
     41,4433	    0,184486	95,9	     0,25606	171,7
     41,4457	    0,184569	96,9	    0,260431	172,0
     41,4482	    0,187957	98,9	    0,256297	173,1
     41,4506	    0,195712	101,3	    0,259246	172,4
     41,4531	    0,198604	102,8	    0,257518	172,9
     41,4555	    0,195273	105,6	    0,256928	173,5
      41,458	    0,206782	107,5	    0,252966	172,0
     41,4604	    0,213432	112,6	    0,254888	172,6
     41,4629	    0,220921	119,2	    0,251243	172,8
     41,4653	    0,222481	124,1	    0,252394	173,7
     41,4677	    0,225943	130,2	    0,253157	173,8
     41,4702	    0,225783	139,0	    0,256932	174,3
     41,4726	    0,238993	151,2	    0,254265	173,2
     41,4751	    0,237974	160,2	     0,26128	174,1
     41,4775	    0,239022	170,2	    0,252661	173,3
       41,48	    0,236605	173,9	    0,255027	174,2
     41,4824	    0,247487	177,6	    0,256671	173,7
     41,4848	    0,242715	177,2	    0,259179	174,5
     41,4873	     0,24015	176,8	    0,253857	175,2
     41,4897	    0,229569	176,5	    0,259679	175,0
     41,4922	    0,239027	175,4	    0,253248	174,4
     41,4946	    0,237458	175,0	    0,254936	175,1
     41,4971	     0,24007	174,1	     0,25082	174,4
     41,4995	    0,225998	174,5	    0,251702	174,8
      41,502	    0,232548	175,9	    0,252641	174,4
     41,5044	    0,227504	176,7	    0,254816	175,7
     41,5068	    0,246337	175,4	    0,251549	174,9
     41,5093	    0,241904	176,1	    0,254036	176,6
     41,5117	    0,242276	175,8	    0,253019	175,9
     41,5142	    0,237855	175,6	    0,251348	176,4
     41,5166	    0,244171	176,4	    0,250233	176,1
     41,5191	    0,231812	177,1	    0,248572	176,2
     41,5215	    0,243291	176,4	    0,253564	175,9
     41,5239	    0,242463	177,9	    0,250701	176,2
     41,5264	    0,238465	176,9	    0,250314	176,3
     41,5288	    0,239122	176,9	     0,24715	177,3
     41,5313	    0,244841	176,4	    0,250256	177,6
     41,5337	    0,245462	177,6	    0,249334	176,8
     41,5362	    0,241953	177,0	    0,253959	176,8
     41,5386	    0,250399	177,9	    0,246934	176,8
     41,5411	    0,246665	177,1	    0,252419	176,9
     41,5435	    0,245956	177,8	    0,247112	176,9
     41,5459	    0,243246	177,0	     0,25156	178,5
     41,5484	    0,253042	178,8	    0,248279	177,0
     41,5508	    0,247811	177,9	    0,247181	178,0
     41,5533	     0,25238	177,6	    0,251492	178,0
     41,5557	    0,244929	177,6	    0,255458	178,0
     41,5582	    0,246946	177,9	    0,248554	177,7
     41,5606	    0,246407	178,4	    0,248595	178,5
      41,563	    0,246006	179,7	    0,249894	178,4
     41,5655	    0,249004	178,6	    0,252914	178,4
     41,5679	    0,246055	180,0	    0,254281	178,4
     41,5704	    0,245889	179,3	    0,251913	179,6
     41,5728	    0,250145	179,0	    0,252191	179,2
     41,5753	    0,246216	179,4	    0,245635	178,2
     41,5777	    0,253568	178,8	    0,251531	179,6
     41,5802	    0,253126	179,0	    0,241979	178,7
     41,5826	    0,250178	179,2	    0,243796	180,8
      41,585	    0,252479	179,1	    0,244943	179,5
     41,5875	    0,248989	180,4	    0,247786	179,6
     41,5899	    0,247508	180,4	    0,242691	179,0
     41,5924	    0,248852	179,0	    0,249582	180,8
     41,5948	    0,253922	179,6	    0,244439	178,7
     41,5973	    0,249519	179,6	    0,244543	180,5
     41,5997	    0,253457	180,7	    0,249231	179,3
     41,6021	    0,256351	180,0	    0,244106	180,1
     41,6046	    0,258113	180,8	     0,25036	180,5
      41,607	    0,253622	181,7	    0,253038	181,1
     41,6095	    0,257111	180,3	    0,250156	180,3
     41,6119	    0,251454	181,0	     0,24312	180,5
     41,6144	    0,253351	181,5	    0,248842	180,5
     41,6168	      0,2502	181,2	    0,246257	180,3
     41,6193	    0,253141	181,3	    0,252127	181,2
     41,6217	    0,253526	181,5	    0,248258	180,8
     41,6241	    0,253346	181,8	    0,251943	181,6
     41,6266	    0,250877	182,4	    0,247732	181,4
      41,629	    0,256812	181,3	    0,251039	181,9
     41,6315	    0,252379	181,2	    0,249328	181,7
     41,6339	    0,251512	180,9	    0,246208	182,4
     41,6364	    0,253813	181,7	    0,251168	181,9
     41,6388	    0,254592	181,1	    0,245496	181,2
     41,6413	    0,254185	182,0	    0,252342	182,0
     41,6437	    0,255966	181,5	     0,24751	181,6
     41,6461	    0,256744	181,9	    0,250468	182,6
     41,6486	    0,251489	182,6	    0,244992	181,5
      41,651	    0,255115	182,5	    0,242722	182,7
     41,6535	    0,255126	182,5	    0,246688	182,1
     41,6559	    0,255817	182,5	    0,247023	182,7
     41,6584	    0,253326	183,0	    0,246159	183,1
     41,6608	    0,254197	182,5	    0,248662	182,7
     41,6632	    0,254586	183,1	    0,249669	184,0
     41,6657	     0,25128	182,5	     0,24735	182,7
     41,6681	    0,255801	183,5	    0,250479	183,7
     41,6706	    0,253165	183,2	    0,246447	183,1
      41,673	    0,251328	183,6	    0,244447	182,9
     41,6755	    0,251776	184,1	    0,247047	182,8
     41,6779	    0,251296	183,0	    0,250921	183,3
     41,6804	    0,253201	184,2	    0,242909	183,1
     41,6828	    0,252712	183,6	    0,245272	184,2
     41,6852	    0,251361	182,8	    0,248577	183,9
     41,6877	    0,252522	183,6	    0,241437	182,7
     41,6901	    0,251436	184,4	    0,243535	185,7
     41,6926	    0,253967	183,9	     0,25068	184,0
      41,695	    0,253677	184,0	    0,247856	183,8
     41,6975	     0,25269	184,1	    0,246568	183,8
     41,6999	    0,252618	184,7	      0,2466	184,9
     41,7023	    0,251954	184,5	    0,244976	183,6
     41,7048	    0,251978	184,6	    0,241608	184,6
     41,7072	    0,250269	184,8	    0,247184	184,9
     41,7097	      0,2494	185,3	    0,246307	185,0
     41,7121	    0,249487	184,9	    0,248569	184,7
     41,7146	    0,249199	184,8	    0,246928	184,8
      41,717	    0,250119	185,3	    0,250172	185,0
     41,7195	    0,246748	185,9	    0,246711	184,9
     41,7219	    0,249312	185,8	    0,244607	184,8
     41,7243	    0,251092	185,4	    0,248033	185,3
     41,7268	    0,248021	185,7	    0,248274	185,2
     41,7292	    0,247658	185,9	     0,24982	185,7
     41,7317	     0,24586	186,1	    0,245708	185,0
     41,7341	    0,250273	186,0	      0,2482	185,8
     41,7366	    0,249429	186,1	    0,245152	185,0
      41,739	    0,249487	186,0	    0,244656	186,8
     41,7414	    0,248631	186,1	    0,244148	185,9
     41,7439	    0,247899	186,4	    0,244171	186,5
     41,7463	    0,249386	186,8	    0,247746	186,1
     41,7488	    0,248383	186,6	    0,245078	185,8
     41,7512	    0,247493	186,5	    0,246223	186,6
     41,7537	    0,246312	187,2	    0,244795	186,1
     41,7561	    0,247824	186,4	    0,245006	187,4
     41,7586	     0,24928	186,7	    0,244024	187,2
      41,761	    0,246621	186,3	    0,242685	186,8
     41,7634	    0,248345	187,5	    0,245772	187,5
     41,7659	    0,247222	186,6	    0,242837	186,7
     41,7683	    0,245573	187,0	    0,245901	186,7
     41,7708	    0,247289	187,3	    0,240552	186,7
     41,7732	    0,246019	187,6	    0,239967	187,2
     41,7757	    0,245471	187,4	    0,241848	187,0
     41,7781	     0,24522	187,7	    0,241221	187,5
     41,7805	    0,246178	187,7	    0,242339	188,1
      41,783	    0,246252	188,0	    0,240757	187,6
     41,7854	     0,24534	187,6	    0,241499	187,5
     41,7879	    0,244604	188,1	    0,242301	187,7
     41,7903	    0,244524	188,7	    0,239477	188,1
     41,7928	    0,242557	188,4	     0,24286	187,7
     41,7952	    0,245056	187,9	    0,241461	188,6
     41,7977	    0,244554	188,0	    0,240409	188,2
     41,8001	    0,243825	188,5	    0,240807	188,4
     41,8025	    0,243886	188,2	    0,241884	188,3
      41,805	    0,242661	188,7	    0,240599	188,2
     41,8074	    0,243728	189,0	    0,240822	188,6
     41,8099	    0,243092	189,2	    0,239164	189,0
     41,8123	    0,239533	189,1	    0,238761	188,1
     41,8148	    0,238594	189,5	    0,238847	189,1
     41,8172	    0,240345	189,5	    0,230914	190,1
     41,8196	    0,239465	189,5	    0,238984	188,8
     41,8221	    0,239576	189,7	    0,239016	189,2
     41,8245	    0,238116	190,0	    0,237088	189,1
      41,827	    0,238944	189,9	    0,240026	189,2
     41,8294	    0,240079	189,7	    0,239089	189,3
     41,8319	    0,238418	190,1	    0,239764	189,8
     41,8343	    0,237416	190,5	    0,237882	189,5
     41,8368	    0,238877	189,9	    0,238671	190,1
     41,8392	    0,239751	190,0	    0,235738	189,8
     41,8416	    0,237826	190,5	    0,236044	190,3
     41,8441	      0,2387	190,6	     0,23552	190,5
     41,8465	    0,238942	190,3	    0,237189	190,1
      41,849	    0,236487	190,7	    0,236342	190,0
     41,8514	    0,234429	190,8	    0,237782	190,6
     41,8539	    0,237621	190,3	    0,234606	190,8
     41,8563	    0,236782	190,8	    0,236985	190,6
     41,8587	     0,23646	190,9	    0,236713	190,5
     41,8612	    0,236008	191,0	    0,233632	191,3
     41,8636	    0,235615	190,8	    0,233765	190,2
     41,8661	    0,234137	190,7	    0,235905	191,0
     41,8685	    0,236168	191,2	    0,234867	191,2
      41,871	    0,234256	191,2	    0,234815	190,9
     41,8734	    0,233254	191,6	     0,23533	191,1
     41,8759	    0,234442	191,4	    0,232398	191,1
     41,8783	    0,233674	191,1	    0,233851	191,7
     41,8807	    0,232239	191,5	    0,230956	191,4
     41,8832	     0,23218	192,1	    0,232333	191,3
     41,8856	    0,233195	192,3	    0,233245	191,6
     41,8881	     0,23076	192,1	    0,232941	191,6
     41,8905	    0,230554	192,5	    0,234101	191,8
      41,893	    0,231158	192,3	    0,232731	191,9
     41,8954	    0,230679	192,4	    0,232971	191,5
     41,8979	    0,232716	192,1	    0,232336	191,9
     41,9003	    0,228926	193,0	    0,232669	192,0
     41,9027	    0,228705	192,4	    0,232374	191,8
     41,9052	     0,23047	192,0	    0,230797	192,2
     41,9076	    0,229825	192,4	    0,230444	192,5
     41,9101	    0,228819	192,4	    0,231274	192,6
     41,9125	    0,229242	192,6	    0,229853	193,1
      41,915	    0,227944	193,4	    0,230446	192,5
     41,9174	    0,229886	192,6	    0,230505	192,9
     41,9198	    0,227875	192,9	    0,230098	193,1
     41,9223	    0,227838	193,0	    0,228339	192,5
     41,9247	    0,227111	193,3	    0,229366	192,9
     41,9272	    0,225908	194,2	    0,229417	193,3
     41,9296	    0,225355	193,0	    0,228533	193,4
     41,9321	    0,227128	193,1	    0,227382	193,0
     41,9345	    0,225749	192,9	    0,228245	193,4
      41,937	    0,226688	192,8	    0,227496	193,3
     41,9394	    0,227377	193,5	    0,227521	193,5
     41,9418	    0,226202	193,9	    0,227803	194,0
     41,9443	    0,225882	193,0	    0,227495	193,5
     41,9467	    0,226214	194,1	    0,227044	193,5
     41,9492	    0,226064	194,1	    0,227209	193,9
     41,9516	    0,224613	193,9	    0,226527	193,6
     41,9541	    0,225651	194,3	    0,226078	193,7
     41,9565	     0,22169	194,3	    0,225889	193,9
     41,9589	    0,223068	194,4	    0,225599	194,1
     41,9614	    0,222191	194,5	    0,225568	194,3
     41,9638	    0,221702	195,3	    0,225132	194,4
     41,9663	    0,222494	194,8	    0,224708	194,6
     41,9687	    0,221343	194,2	    0,224387	194,4
     41,9712	    0,222913	195,0	    0,224091	194,9
     41,9736	    0,221288	194,8	    0,224047	194,8
     41,9761	     0,22113	194,7	    0,223235	194,5
     41,9785	    0,221747	195,1	    0,223497	195,2
     41,9809	    0,221231	195,1	    0,223297	195,0
     41,9834	    0,219936	194,9	    0,222867	195,0
     41,9858	    0,219821	195,0	    0,222475	195,1
     41,9883	    0,220649	195,3	     0,22218	195,4
     41,9907	    0,219401	195,5	    0,221958	195,2
     41,9932	    0,219783	195,6	    0,221911	195,4
     41,9956	    0,220376	195,6	    0,220987	195,8
      41,998	    0,220072	195,8	    0,220919	195,8
     42,0005	    0,219558	195,9	    0,221152	195,5
     42,0029	    0,216068	196,3	    0,220287	195,9
     42,0054	    0,219202	196,2	    0,220048	195,7
     42,0078	    0,216989	195,3	     0,22021	195,9
     42,0103	    0,218107	196,1	    0,219143	196,3
     42,0127	    0,217847	196,2	     0,21925	195,9
     42,0152	    0,215051	197,6	    0,219111	196,1
     42,0176	    0,217563	196,5	    0,218805	196,3
       42,02	    0,215629	196,7	    0,218498	196,2
     42,0225	    0,216121	196,6	    0,218364	196,4
     42,0249	    0,216861	196,8	    0,217853	196,6
     42,0274	    0,213897	197,4	    0,217593	196,8
     42,0298	     0,21273	197,7	    0,217464	196,7
     42,0323	    0,215783	196,9	    0,217286	196,8
     42,0347	    0,212986	197,2	    0,216583	197,0
     42,0371	    0,212588	197,0	     0,21661	196,9
     42,0396	    0,214922	197,3	    0,216211	196,9
      42,042	    0,212756	197,8	    0,216086	197,2
     42,0445	    0,214067	197,3	    0,215147	197,0
     42,0469	    0,213255	197,5	    0,215445	197,2
     42,0494	    0,212292	197,7	    0,215227	197,8
     42,0518	    0,212863	197,4	     0,21503	197,2
     42,0543	    0,212187	197,7	    0,214677	197,6
     42,0567	    0,210981	197,0	    0,214167	197,8
     42,0591	    0,212309	197,6	      0,2137	197,6
     42,0616	    0,212448	198,2	    0,213788	197,8
      42,064	    0,211266	198,1	    0,213391	198,1
     42,0665	    0,211186	198,7	      0,2132	197,7
     42,0689	    0,211083	198,4	    0,212396	197,8
     42,0714	    0,211298	198,1	    0,212463	198,0
     42,0738	    0,208664	198,5	    0,212235	198,3
     42,0762	    0,209828	198,8	    0,211941	198,3
     42,0787	    0,207356	198,0	    0,211712	198,3
     42,0811	    0,207087	199,4	    0,211474	198,4
     42,0836	    0,206053	198,3	    0,211123	198,6
      42,086	     0,20783	199,3	    0,210874	198,8
     42,0885	    0,207669	198,6	    0,210569	198,7
     42,0909	    0,207991	198,7	    0,210398	198,9
     42,0934	    0,207391	198,4	    0,209779	198,9
     42,0958	    0,206812	198,7	    0,209512	199,0
     42,0982	    0,205519	199,1	    0,209351	199,2
     42,1007	    0,207685	198,8	    0,209106	199,2
     42,1031	    0,205368	199,7	    0,208736	199,3
     42,1056	    0,205564	199,7	    0,208475	199,3
      42,108	    0,205515	199,6	    0,208187	199,4
     42,1105	    0,205523	199,6	    0,207936	199,4
     42,1129	    0,205356	199,5	    0,207636	199,6
     42,1153	    0,204094	200,0	    0,207222	199,5
     42,1178	     0,20422	199,9	    0,207012	199,7
     42,1202	    0,203356	200,0	    0,206828	199,8
     42,1227	    0,201824	200,0	    0,206326	199,7
     42,1251	    0,203229	-159,3	    0,206142	199,9
     42,1276	    0,203705	-160,1	    0,205976	-159,9
       42,13	    0,203786	-160,0	     0,20525	-160,0
     42,1325	    0,203214	-160,3	    0,205316	-160,0
     42,1349	    0,200399	-160,5	    0,204857	-159,5
     42,1373	    0,199039	-160,0	    0,204157	-159,9
     42,1398	    0,201892	-160,0	    0,204418	-159,8
     42,1422	    0,200937	-159,4	    0,204074	-159,2
     42,1447	    0,201262	-159,2	    0,203677	-159,8
     42,1471	     0,20219	-159,1	    0,203432	-159,5
     42,1496	    0,201099	-159,7	    0,202545	-159,1
      42,152	    0,200279	-158,8	    0,202272	-159,0
     42,1544	    0,197767	-158,1	    0,202749	-159,1
     42,1569	    0,198481	-158,4	    0,202336	-158,9
     42,1593	    0,199467	-158,7	    0,200931	-158,8
     42,1618	    0,200208	-158,6	    0,200336	-158,8
     42,1642	    0,199038	-158,3	    0,201215	-158,7
     42,1667	    0,198238	-158,2	    0,201064	-158,9
     42,1691	    0,196739	-158,6	    0,200442	-158,5
     42,1716	    0,197031	-159,1	    0,199336	-158,7
      42,174	    0,196579	-159,2	    0,197449	-157,6
     42,1764	    0,197524	-158,6	    0,200021	-158,5
     42,1789	    0,197062	-158,8	    0,199688	-158,4
     42,1813	    0,197175	-157,6	    0,198562	-158,1
     42,1838	    0,197378	-158,7	    0,199178	-157,8
     42,1862	    0,195618	-158,4	    0,198917	-158,3
     42,1887	    0,195506	-158,6	    0,198628	-158,0
     42,1911	    0,195744	-157,1	    0,198121	-157,9
     42,1936	    0,193772	-157,2	    0,198053	-158,1
      42,196	    0,194708	-157,7	    0,197731	-157,9
     42,1984	    0,195593	-158,0	    0,197331	-157,7
     42,2009	    0,195511	-157,8	    0,197214	-157,8
     42,2033	    0,194952	-157,9	    0,196663	-157,6
     42,2058	    0,193899	-157,8	    0,196197	-157,5
     42,2082	    0,192661	-157,1	    0,196388	-157,5
     42,2107	     0,19445	-157,2	    0,196117	-157,2
     42,2131	     0,19392	-157,5	    0,195569	-157,2
     42,2155	    0,193763	-157,2	    0,195428	-157,0
      42,218	    0,193512	-156,8	    0,195192	-156,8
     42,2204	    0,191215	-155,8	     0,19493	-156,9
     42,2229	    0,190724	-156,5	    0,194592	-157,1
     42,2253	     0,19245	-156,8	    0,194258	-156,7
     42,2278	     0,19134	-156,8	    0,193926	-156,9
     42,2302	    0,189965	-156,4	    0,193815	-156,9
     42,2327	    0,190476	-156,1	    0,193461	-156,7
     42,2351	    0,189083	-157,3	    0,193133	-156,5
     42,2375	    0,187619	-156,5	    0,192866	-156,5
       42,24	    0,190462	-156,1	     0,19255	-156,4
     42,2424	    0,190689	-156,5	    0,192344	-156,3
     42,2449	    0,188393	-155,6	     0,19213	-156,5
     42,2473	    0,190143	-156,1	    0,191625	-156,3
     42,2498	     0,18677	-155,5	    0,190888	-155,9
     42,2522	    0,187875	-155,9	    0,190542	-155,7
     42,2546	    0,186598	-155,8	    0,190917	-156,1
     42,2571	    0,187875	-156,8	    0,190612	-155,9
     42,2595	    0,187172	-156,3	    0,190208	-156,0
      42,262	     0,18735	-156,1	     0,18998	-155,6
     42,2644	     0,18769	-155,9	    0,189655	-155,6
     42,2669	    0,187731	-155,7	     0,18944	-155,8
     42,2693	    0,187062	-155,6	    0,189207	-155,5
     42,2718	    0,186224	-155,5	    0,188868	-155,4
     42,2742	    0,185329	-155,7	     0,18842	-155,6
     42,2766	    0,185108	-155,5	    0,188352	-155,3
     42,2791	    0,186278	-155,5	    0,188043	-155,4
     42,2815	    0,185468	-154,9	    0,187794	-155,2
      42,284	    0,185397	-155,3	    0,187428	-154,8
     42,2864	    0,185491	-155,4	    0,187239	-155,1
     42,2889	    0,185147	-155,3	    0,187004	-155,0
     42,2913	    0,183424	-155,4	    0,186652	-155,2
     42,2937	    0,184086	-154,7	    0,186294	-154,9
     42,2962	    0,184117	-154,7	    0,186036	-154,8
     42,2986	    0,182503	-154,6	      0,1857	-154,6
     42,3011	    0,183813	-155,0	    0,185403	-154,4
     42,3035	    0,182127	-153,2	    0,185253	-154,7
      42,306	    0,182006	-154,4	    0,184931	-154,5
     42,3084	    0,181986	-154,4	    0,184629	-154,1
     42,3109	    0,180765	-154,4	    0,184368	-154,4
     42,3133	    0,181902	-153,7	    0,184032	-154,3
     42,3157	    0,181576	-154,3	     0,18376	-154,0
     42,3182	    0,181198	-154,6	    0,183388	-154,4
     42,3206	    0,179248	-153,6	    0,183236	-153,9
     42,3231	    0,181183	-153,9	    0,182912	-154,0
     42,3255	    0,180677	-154,4	     0,18266	-154,1
      42,328	    0,179748	-152,9	    0,182437	-153,8
     42,3304	    0,178623	-153,8	    0,181919	-153,5
     42,3328	    0,180013	-153,6	    0,181836	-153,6
     42,3353	    0,178677	-153,9	    0,181548	-153,9
     42,3377	    0,177889	-153,6	    0,181233	-153,5
     42,3402	     0,17917	-153,4	    0,180937	-153,5
     42,3426	    0,176544	-153,0	    0,180678	-153,7
     42,3451	    0,177693	-153,5	     0,18039	-153,2
     42,3475	    0,176309	-152,5	    0,180024	-153,2
       42,35	    0,177632	-153,7	    0,179886	-153,3
     42,3524	    0,176551	-152,7	    0,179608	-153,1
     42,3548	    0,176582	-153,3	    0,179266	-153,1
     42,3573	    0,176731	-152,6	    0,179031	-152,9
     42,3597	    0,175526	-152,9	    0,178743	-153,0
     42,3622	    0,175301	-153,2	     0,17836	-152,8
     42,3646	      0,1764	-153,0	     0,17815	-152,5
     42,3671	    0,174766	-152,8	    0,177932	-152,5
     42,3695	    0,174403	-152,6	    0,177633	-152,6
     42,3719	     0,17502	-152,9	    0,177344	-152,5
     42,3744	    0,173264	-152,0	    0,177055	-152,7
     42,3768	    0,174302	-152,3	    0,176708	-152,3
     42,3793	    0,173757	-152,8	    0,176408	-152,4
     42,3817	    0,173019	-151,2	    0,176144	-152,1
     42,3842	    0,173374	-151,8	    0,175949	-152,0
     42,3866	    0,173891	-152,4	    0,175611	-152,1
     42,3891	    0,173319	-152,4	    0,175261	-152,2
     42,3915	    0,172744	-151,8	    0,175012	-151,9
     42,3939	    0,172783	-152,0	    0,174846	-151,6
     42,3964	    0,171661	-152,1	    0,174647	-152,0
     42,3988	    0,170317	-152,7	      0,1743	-152,0
     42,4013	     0,17064	-151,4	    0,173984	-151,6
     42,4037	     0,17113	-152,0	    0,173645	-151,9
     42,4062	     0,16992	-151,6	    0,173366	-151,8
     42,4086	    0,170832	-151,6	    0,173068	-151,3
      42,411	    0,170023	-152,1	    0,172856	-151,4
     42,4135	    0,169295	-151,8	    0,172722	-151,3
     42,4159	    0,170401	-151,4	      0,1723	-151,2
     42,4184	    0,168582	-151,2	    0,172029	-151,2
     42,4208	    0,166913	-151,3	     0,17176	-151,1
     42,4233	    0,168249	-151,5	    0,171493	-151,2
     42,4257	    0,169122	-151,3	    0,171187	-150,8
     42,4282	    0,167783	-151,2	    0,170828	-151,1
     42,4306	    0,167154	-151,3	    0,170202	-150,8
      42,433	    0,168572	-151,1	    0,170178	-150,6
     42,4355	    0,167899	-151,5	     0,16763	-150,3
     42,4379	    0,166306	-150,6	    0,168412	-151,1
     42,4404	    0,167314	-150,8	     0,16873	-150,6
     42,4428	    0,165796	-151,0	    0,169295	-150,4
     42,4453	     0,16624	-150,2	    0,169058	-150,7
     42,4477	    0,165866	-149,9	    0,168657	-150,4
     42,4501	    0,164024	-149,7	    0,168343	-150,0
     42,4526	    0,164931	-149,9	    0,167276	-150,0
      42,455	    0,165767	-150,1	    0,166843	-150,6
     42,4575	     0,16406	-150,3	    0,167369	-149,9
     42,4599	    0,163303	-149,7	    0,167361	-150,2
     42,4624	    0,164119	-149,9	    0,166975	-150,4
     42,4648	    0,163203	-149,5	    0,165934	-149,7
     42,4673	     0,16426	-149,8	    0,166416	-149,4
     42,4697	     0,16455	-150,1	    0,164255	-150,5
     42,4721	     0,16236	-150,2	    0,165826	-149,6
     42,4746	    0,161757	-149,9	    0,162914	-148,9
      42,477	    0,162376	-149,5	    0,163699	-149,8
     42,4795	    0,162199	-150,0	    0,162719	-149,1
     42,4819	    0,161435	-149,3	    0,163048	-150,5
     42,4844	    0,160608	-148,7	    0,162615	-149,5
     42,4868	    0,162358	-149,2	    0,162348	-148,6
     42,4892	     0,16043	-149,2	     0,16393	-149,5
     42,4917	    0,159016	-148,6	    0,162289	-148,9
     42,4941	    0,161716	-149,3	    0,163439	-149,1
     42,4966	    0,161197	-149,4	    0,163283	-149,1
      42,499	    0,158168	-149,1	    0,163031	-149,3
     42,5015	    0,159567	-149,1	     0,16224	-149,0
     42,5039	    0,160061	-148,9	     0,16238	-149,2
     42,5064	    0,159092	-149,1	    0,162082	-148,9
     42,5088	    0,157818	-148,8	    0,160598	-148,8
     42,5112	    0,158344	-149,1	    0,161334	-148,6
     42,5137	    0,158233	-149,4	    0,159014	-149,4
     42,5161	    0,158015	-149,7	    0,159731	-149,3
     42,5186	    0,157289	-148,7	    0,160077	-148,5
      42,521	    0,157858	-148,9	    0,159585	-147,5
     42,5235	    0,156526	-149,2	    0,160481	-148,2
     42,5259	    0,157747	-148,3	    0,159116	-148,1
     42,5283	    0,153568	-148,2	     0,15871	-148,7
     42,5308	    0,157023	-148,9	    0,159399	-148,5
     42,5332	    0,157075	-148,8	    0,158922	-148,3
     42,5357	    0,155847	-148,7	    0,157302	-147,7
     42,5381	    0,155177	-148,2	    0,158498	-148,2
     42,5406	    0,155912	-147,7	    0,157707	-147,7
      42,543	    0,154236	-149,3	    0,155822	-146,5
     42,5455	    0,154591	-148,2	    0,157699	-147,9
     42,5479	    0,153471	-146,7	    0,156677	-147,7
     42,5503	    0,152046	-149,1	    0,156886	-148,4
     42,5528	    0,150877	-146,4	    0,156637	-147,5
     42,5552	    0,154466	-148,1	    0,156775	-147,9
     42,5577	    0,152576	-149,0	    0,156559	-147,5
     42,5601	     0,15069	-145,7	    0,156224	-147,8
     42,5626	    0,153489	-147,5	    0,156053	-147,5
      42,565	    0,153334	-148,0	    0,155338	-147,4
     42,5674	    0,149252	-149,7	    0,153328	-148,3
     42,5699	    0,150031	-148,0	     0,15408	-147,3
     42,5723	    0,149493	-147,5	    0,153493	-146,5
     42,5748	    0,149981	-148,3	    0,153992	-147,1
     42,5772	    0,149534	-147,3	    0,151597	-146,8
     42,5797	     0,14989	-147,4	    0,152071	-147,1
     42,5821	    0,147833	-146,0	     0,15301	-146,5
     42,5846	    0,149483	-147,2	    0,153545	-147,4
      42,587	    0,148591	-146,7	    0,152994	-146,4
     42,5894	    0,148068	-147,4	    0,153275	-147,1
     42,5919	    0,147672	-146,8	    0,152834	-146,5
     42,5943	    0,148005	-145,5	    0,152604	-146,9
     42,5968	    0,144633	-148,1	    0,151924	-146,3
     42,5992	    0,147833	-147,1	    0,151686	-146,6
     42,6017	    0,147369	-146,1	    0,151627	-146,5
     42,6041	    0,145143	-146,0	    0,150623	-147,0
     42,6065	    0,144842	-147,0	    0,151369	-146,7
      42,609	    0,146958	-146,9	    0,151097	-146,3
     42,6114	    0,146172	-144,6	    0,150812	-146,3
     42,6139	    0,145713	-146,7	    0,148791	-145,9
     42,6163	    0,144998	-145,6	    0,149282	-146,0
     42,6188	    0,144667	-145,4	    0,149026	-146,3
     42,6212	    0,144549	-145,6	    0,149252	-145,6
     42,6237	    0,144114	-146,4	    0,149603	-145,9
     42,6261	    0,142908	-146,7	    0,149401	-146,2
     42,6285	    0,144527	-145,5	    0,148836	-145,9
      42,631	    0,144833	-145,5	    0,148627	-145,7
     42,6334	    0,144147	-145,2	    0,148401	-146,1
     42,6359	    0,142058	-146,4	    0,148209	-145,5
     42,6383	    0,142689	-145,8	    0,147918	-145,8
     42,6408	    0,142637	-145,4	    0,147236	-145,6
     42,6432	    0,140054	-146,7	    0,147361	-145,9
     42,6456	     0,13946	-146,2	     0,14727	-145,5
     42,6481	    0,141736	-145,1	    0,146904	-145,4
     42,6505	    0,141129	-144,7	    0,146662	-145,2
      42,653	    0,140446	-144,9	    0,146375	-145,4
     42,6554	    0,138307	-146,3	    0,146133	-145,4
     42,6579	    0,139927	-146,3	    0,145945	-145,4
     42,6603	    0,138635	-144,9	    0,145592	-145,2
     42,6628	    0,138699	-145,2	    0,145373	-145,1
     42,6652	    0,138424	-146,1	    0,145149	-145,2
     42,6676	    0,140082	-145,1	    0,144839	-144,8
     42,6701	    0,138909	-144,2	     0,14459	-145,1
     42,6725	    0,137124	-143,5	    0,144277	-145,0
      42,675	    0,134747	-146,0	    0,144049	-145,1
     42,6774	    0,136325	-144,9	    0,143724	-144,6
     42,6799	    0,136324	-143,4	    0,143517	-144,7
     42,6823	    0,128873	-145,5	    0,143392	-144,7
     42,6847	    0,129561	-144,8	    0,143133	-145,0
     42,6872	    0,130682	-143,7	    0,142766	-144,7
     42,6896	    0,131054	-143,8	    0,142336	-144,5
     42,6921	    0,134522	-143,9	    0,141869	-143,9
     42,6945	    0,134541	-144,2	    0,141769	-144,6
      42,697	    0,131442	-145,0	    0,141848	-144,5
     42,6994	    0,130587	-143,3	    0,141619	-144,1
     42,7019	    0,133191	-143,9	    0,141281	-144,5
     42,7043	    0,130736	-144,6	    0,141009	-144,2
     42,7067	    0,130918	-146,2	    0,140685	-144,4
     42,7092	    0,131385	-142,6	    0,140505	-144,0
     42,7116	    0,127669	-143,9	    0,140309	-144,1
     42,7141	    0,124452	-145,2	    0,140061	-143,9
     42,7165	    0,125606	-145,5	    0,139779	-144,1
      42,719	    0,131318	-142,6	    0,139565	-143,6
     42,7214	    0,128761	-144,1	     0,13927	-143,8
     42,7239	    0,128038	-143,0	    0,139095	-143,6
     42,7263	    0,127141	-145,2	    0,138722	-143,7
     42,7287	    0,129412	-144,4	    0,138511	-143,6
     42,7312	    0,129701	-143,5	    0,138284	-143,3
     42,7336	    0,127919	-142,3	    0,138024	-143,5
     42,7361	    0,126541	-143,5	    0,137859	-143,8
     42,7385	    0,126732	-145,0	    0,137398	-143,4
      42,741	    0,128847	-143,2	    0,137114	-143,4
     42,7434	     0,13053	-143,0	    0,136945	-143,0
     42,7458	    0,126914	-145,2	    0,136663	-143,4
     42,7483	     0,12815	-145,2	    0,136493	-143,5
     42,7507	    0,131238	-143,2	    0,136273	-143,3
     42,7532	     0,12682	-142,2	    0,135968	-143,4
     42,7556	    0,129444	-140,5	    0,135701	-143,0
     42,7581	    0,125216	-145,5	     0,13545	-143,2
     42,7605	    0,125868	-144,7	    0,135241	-143,0
      42,763	    0,130552	-142,2	     0,13507	-142,9
     42,7654	    0,126655	-143,4	    0,134868	-142,6
     42,7678	    0,126299	-142,8	    0,134479	-143,3
     42,7703	    0,129932	-143,1	     0,13429	-142,7
     42,7727	    0,131392	-141,7	     0,13405	-142,8
     42,7752	    0,130303	-141,8	    0,133866	-142,6
     42,7776	    0,130813	-142,7	    0,133543	-143,1
     42,7801	    0,129075	-142,9	    0,132522	-142,3
     42,7825	    0,126941	-144,9	    0,133186	-142,4
     42,7849	    0,130308	-141,7	    0,131774	-143,6
     42,7874	    0,130491	-142,4	    0,132519	-142,6
     42,7898	    0,128043	-142,0	    0,132221	-142,5
     42,7923	    0,128289	-142,7	    0,132041	-142,5
     42,7947	     0,12879	-142,3	    0,131798	-142,2
     42,7972	    0,129286	-141,4	     0,13136	-142,3
     42,7996	    0,129411	-142,1	    0,129829	-142,8
     42,8021	    0,129421	-141,9	    0,130951	-143,3
     42,8045	    0,125614	-142,5	    0,130422	-141,7
     42,8069	    0,127927	-142,6	    0,130623	-142,1
     42,8094	    0,128453	-141,4	    0,130336	-142,4
     42,8118	    0,126157	-142,3	     0,13011	-142,1
     42,8143	    0,122675	-142,7	    0,129927	-141,9
     42,8167	    0,125275	-141,8	    0,129651	-141,6
     42,8192	    0,123195	-140,6	    0,129395	-142,0
     42,8216	    0,126102	-141,3	    0,129068	-141,9
      42,824	    0,127999	-141,7	    0,128838	-141,8
     42,8265	    0,127773	-141,5	    0,128542	-141,9
     42,8289	    0,126974	-141,7	    0,128493	-141,2
     42,8314	    0,127216	-141,8	     0,12827	-141,4
     42,8338	    0,126978	-141,7	    0,127771	-141,5
     42,8363	    0,126351	-141,4	    0,126805	-141,3
     42,8387	    0,126367	-140,9	    0,127096	-141,3
     42,8412	    0,126543	-141,3	    0,127322	-141,5
     42,8436	    0,121193	-141,0	     0,12706	-141,5
      42,846	    0,125581	-141,3	    0,126424	-140,8
     42,8485	    0,125638	-141,3	    0,126457	-141,1
     42,8509	    0,125629	-141,1	    0,126332	-140,7
     42,8534	    0,125353	-141,0	    0,125516	-141,0
     42,8558	    0,125186	-140,8	     0,12587	-141,2
     42,8583	    0,124231	-140,2	    0,125594	-141,2
     42,8607	    0,124687	-140,9	    0,125422	-141,1
     42,8631	    0,124464	-140,9	    0,125262	-140,9
     42,8656	     0,12416	-140,7	    0,124774	-140,9
      42,868	    0,123891	-141,1	     0,12453	-141,0
     42,8705	    0,123688	-140,8	    0,124365	-141,0
     42,8729	     0,12297	-140,5	    0,124215	-141,1
     42,8754	    0,123262	-140,5	    0,123933	-140,7
     42,8778	    0,123073	-140,4	     0,12368	-140,7
     42,8803	    0,122743	-140,6	    0,123312	-140,4
     42,8827	    0,122493	-140,9	    0,123263	-140,7
     42,8851	     0,12236	-140,6	    0,122992	-140,4
     42,8876	    0,122197	-140,4	    0,122899	-140,7
       42,89	    0,119874	-138,6	    0,121971	-140,1
     42,8925	    0,121058	-139,9	    0,121909	-140,1
     42,8949	    0,121395	-140,3	    0,122014	-140,8
     42,8974	    0,121265	-140,6	    0,121946	-140,5
     42,8998	    0,121189	-140,5	    0,121644	-140,2
     42,9022	    0,120898	-140,2	    0,121396	-140,0
     42,9047	    0,120595	-140,1	    0,121084	-140,0
     42,9071	    0,120372	-140,1	     0,12083	-140,2
     42,9096	    0,120172	-140,1	     0,12068	-140,4
      42,912	     0,11992	-139,8	    0,120356	-140,1
     42,9145	    0,119631	-139,8	    0,120152	-140,0
     42,9169	    0,119566	-140,1	    0,119959	-139,8
     42,9194	    0,119361	-140,2	    0,119717	-140,1
     42,9218	    0,118674	-140,1	    0,119416	-140,0
     42,9242	    0,118771	-139,8	    0,119251	-140,1
     42,9267	    0,118676	-139,6	    0,119085	-139,9
     42,9291	    0,118516	-139,6	    0,118876	-139,7
     42,9316	    0,118137	-139,9	    0,118487	-139,7
      42,934	    0,118029	-139,9	    0,118406	-140,0
     42,9365	    0,117705	-139,5	    0,118066	-139,4
     42,9389	    0,117535	-139,5	    0,117934	-139,7
     42,9413	    0,117368	-139,3	      0,1177	-139,3
     42,9438	    0,117046	-139,5	    0,117467	-139,5
     42,9462	    0,116886	-139,6	    0,116988	-139,6
     42,9487	    0,116738	-139,6	    0,117075	-139,7
     42,9511	    0,116536	-139,2	    0,116797	-139,6
     42,9536	    0,116232	-139,3	    0,116563	-139,5
      42,956	    0,116102	-138,9	    0,116407	-139,2
     42,9585	    0,115815	-139,2	    0,116125	-139,4
     42,9609	    0,115499	-139,0	    0,115833	-139,4
     42,9633	    0,115403	-139,3	    0,115627	-139,3
     42,9658	    0,115256	-139,1	    0,115412	-139,3
     42,9682	    0,115024	-139,1	    0,115159	-139,2
     42,9707	    0,114806	-139,0	     0,11493	-139,2
     42,9731	    0,114418	-139,2	     0,11473	-139,1
     42,9756	     0,11421	-138,9	    0,114424	-139,3
      42,978	    0,114148	-138,8	    0,114306	-138,9
     42,9804	    0,113914	-138,5	    0,114145	-139,0
     42,9829	    0,113633	-138,8	    0,113848	-138,7
     42,9853	     0,11351	-138,9	    0,113592	-139,0
     42,9878	    0,113255	-138,8	    0,113214	-139,0
     42,9902	    0,113033	-138,6	    0,113066	-139,0
     42,9927	    0,112871	-138,2	    0,112982	-138,7
     42,9951	    0,112652	-138,5	    0,112594	-138,7
     42,9976	    0,112459	-138,4	     0,11238	-138,7
          43	    0,112223	-138,7	    0,112241	-138,7

