X-Data [Hz]	Laser (M - Filtered) [m/s]	Phase [Deg]	Laser (M - Filtered) [m/s]	Phase [Deg]	
	003: [06-03-24 10:36]		004: [06-03-24 10:46]	
         130	  0,00525186	55,7	  0,00542184	53,7
      130,02	  0,00544101	62,0	  0,00488251	55,4
     130,039	  0,00530182	64,1	  0,00516845	56,9
     130,059	  0,00558275	58,7	  0,00484865	63,8
     130,078	  0,00525019	59,5	    0,005142	56,5
     130,098	  0,00519392	67,1	  0,00514611	60,2
     130,117	  0,00524833	59,3	  0,00479545	65,9
     130,137	  0,00571959	56,6	  0,00494118	65,1
     130,156	   0,0055921	60,8	  0,00484861	58,9
     130,176	  0,00533345	59,0	  0,00504576	67,7
     130,196	  0,00553793	59,7	  0,00532981	64,6
     130,215	  0,00548614	64,4	  0,00532846	61,5
     130,235	   0,0056291	53,4	  0,00514936	64,1
     130,254	  0,00555595	65,8	  0,00512748	67,0
     130,274	  0,00514895	56,3	   0,0053406	49,4
     130,293	  0,00535004	59,9	  0,00490292	67,3
     130,313	  0,00562255	58,8	  0,00507261	57,7
     130,332	    0,005004	59,8	  0,00484522	68,4
     130,352	  0,00543182	65,4	  0,00519437	60,9
     130,371	  0,00582119	62,9	  0,00545767	50,7
     130,391	  0,00575599	61,2	  0,00537894	64,0
     130,411	   0,0057296	68,8	  0,00511522	55,8
      130,43	  0,00617445	57,4	  0,00505314	62,6
      130,45	  0,00568414	62,1	  0,00526908	57,9
     130,469	  0,00557885	56,3	  0,00467514	61,6
     130,489	  0,00597174	59,8	  0,00559604	52,9
     130,508	  0,00570321	58,9	  0,00507975	68,4
     130,528	  0,00567733	66,5	  0,00519091	55,9
     130,547	  0,00568739	63,3	  0,00528135	64,1
     130,567	  0,00546185	70,6	  0,00486582	61,0
     130,587	  0,00565819	54,5	  0,00529597	63,7
     130,606	  0,00614892	58,8	  0,00519339	61,8
     130,626	  0,00590328	63,4	  0,00560724	51,5
     130,645	  0,00572478	61,4	  0,00526118	67,6
     130,665	  0,00607157	55,9	  0,00528017	67,0
     130,684	  0,00594541	66,4	  0,00521751	67,2
     130,704	  0,00570065	54,1	  0,00516966	58,4
     130,723	  0,00580515	62,9	  0,00561205	59,3
     130,743	  0,00569958	54,7	  0,00530998	58,4
     130,762	  0,00595916	61,5	  0,00556785	62,5
     130,782	  0,00579704	66,0	    0,005346	57,9
     130,802	  0,00598275	66,2	  0,00532463	67,5
     130,821	  0,00589144	64,0	   0,0053039	59,8
     130,841	  0,00584042	56,8	  0,00573896	60,4
      130,86	  0,00583101	67,3	  0,00576242	52,6
      130,88	  0,00579355	61,7	  0,00556576	58,1
     130,899	  0,00584851	68,3	  0,00528751	64,1
     130,919	  0,00587078	56,2	  0,00548282	69,2
     130,938	  0,00587079	62,5	  0,00500845	64,5
     130,958	  0,00601432	64,7	  0,00540236	64,5
     130,978	  0,00563726	60,4	  0,00535669	58,7
     130,997	  0,00646828	53,5	  0,00589101	60,6
     131,017	  0,00590118	66,2	  0,00553988	65,5
     131,036	  0,00595056	57,1	  0,00579693	65,3
     131,056	  0,00602348	58,8	  0,00567961	57,1
     131,075	  0,00577813	62,7	    0,005729	58,8
     131,095	  0,00622457	65,0	  0,00565733	56,8
     131,114	  0,00586347	61,2	  0,00561664	56,9
     131,134	  0,00623133	59,0	  0,00572977	54,4
     131,153	  0,00617692	59,3	  0,00569037	66,6
     131,173	  0,00608323	66,1	   0,0059993	63,7
     131,193	  0,00590129	65,1	  0,00565424	64,0
     131,212	  0,00622441	56,4	  0,00560918	57,8
     131,232	  0,00636809	62,0	   0,0056083	67,0
     131,251	  0,00600445	60,8	  0,00548367	63,5
     131,271	  0,00612051	56,2	  0,00567023	63,3
      131,29	  0,00601118	56,3	  0,00544406	62,1
      131,31	  0,00619287	57,9	  0,00590666	62,9
     131,329	  0,00569161	70,9	  0,00553653	60,7
     131,349	  0,00676555	62,8	  0,00608347	63,0
     131,369	  0,00614395	61,2	  0,00604386	59,7
     131,388	  0,00663692	54,7	  0,00573529	57,0
     131,408	  0,00582744	68,0	  0,00601652	53,1
     131,427	   0,0061297	67,2	  0,00615286	52,8
     131,447	  0,00629781	59,4	  0,00609054	56,3
     131,466	  0,00610614	64,8	  0,00594336	53,9
     131,486	  0,00613374	61,5	  0,00590091	59,2
     131,505	  0,00652338	53,2	  0,00586754	56,9
     131,525	  0,00644938	63,7	  0,00599599	59,7
     131,544	   0,0064485	61,4	  0,00573514	63,7
     131,564	  0,00648851	64,4	   0,0060659	61,4
     131,584	  0,00637156	68,3	  0,00594011	59,1
     131,603	  0,00666839	59,0	   0,0061513	56,6
     131,623	  0,00662288	53,7	  0,00597276	58,8
     131,642	  0,00625386	55,6	  0,00565669	67,7
     131,662	  0,00659251	64,4	  0,00614467	57,8
     131,681	  0,00648977	55,0	  0,00613267	55,3
     131,701	  0,00659328	58,5	  0,00595299	56,6
      131,72	  0,00650988	58,5	  0,00604016	65,8
      131,74	  0,00649895	60,4	  0,00613742	70,0
      131,76	  0,00662462	56,2	   0,0062099	60,1
     131,779	  0,00652946	59,6	  0,00611494	61,6
     131,799	  0,00665547	63,8	  0,00609356	63,9
     131,818	  0,00691764	66,0	  0,00602871	57,1
     131,838	  0,00657582	52,1	  0,00596764	62,8
     131,857	  0,00673234	64,8	    0,006272	59,6
     131,877	  0,00663736	57,1	    0,005913	58,5
     131,896	  0,00659604	58,9	  0,00626059	63,5
     131,916	  0,00701244	62,1	  0,00621412	60,6
     131,935	  0,00681354	56,3	  0,00611641	56,0
     131,955	  0,00674268	64,0	  0,00621421	66,8
     131,975	  0,00668381	60,4	  0,00621877	56,7
     131,994	  0,00629172	57,2	  0,00618659	62,8
     132,014	  0,00666903	66,1	  0,00641019	59,7
     132,033	  0,00654421	63,2	   0,0061348	64,5
     132,053	  0,00640591	66,8	  0,00606699	66,0
     132,072	  0,00701455	57,9	  0,00613232	61,7
     132,092	  0,00697619	56,8	  0,00629389	61,8
     132,111	   0,0068409	52,4	  0,00633706	57,2
     132,131	  0,00643717	67,4	  0,00639019	54,0
     132,151	  0,00677817	60,4	  0,00618154	54,2
      132,17	  0,00716908	59,0	  0,00625256	54,6
      132,19	  0,00722769	60,6	  0,00632814	65,0
     132,209	   0,0066615	70,5	  0,00586281	62,0
     132,229	  0,00708712	58,1	   0,0064463	64,5
     132,248	  0,00696749	64,9	   0,0063873	57,2
     132,268	  0,00712038	60,6	  0,00642564	63,2
     132,287	  0,00681362	60,8	  0,00651404	67,5
     132,307	  0,00707696	59,5	   0,0065646	52,3
     132,326	  0,00719863	61,8	  0,00672774	59,7
     132,346	   0,0071571	61,1	  0,00648749	58,8
     132,366	  0,00717473	59,9	    0,006617	54,7
     132,385	  0,00711109	55,5	  0,00685507	62,3
     132,405	  0,00683863	63,5	   0,0067861	56,2
     132,424	  0,00713321	52,4	  0,00644173	64,0
     132,444	  0,00753852	59,4	  0,00638888	65,0
     132,463	  0,00671826	65,1	  0,00686763	58,4
     132,483	  0,00669576	60,8	  0,00700836	55,0
     132,502	  0,00682157	64,3	  0,00641378	59,1
     132,522	  0,00728231	61,2	  0,00680332	65,1
     132,542	  0,00702664	61,2	  0,00669608	60,0
     132,561	    0,007327	58,6	  0,00627108	62,7
     132,581	  0,00730671	55,1	  0,00667387	65,6
       132,6	  0,00782099	60,0	   0,0067878	67,6
      132,62	  0,00755478	57,6	  0,00691923	54,8
     132,639	  0,00760411	57,2	  0,00687873	62,5
     132,659	  0,00766613	61,9	  0,00676313	61,9
     132,678	  0,00730096	62,4	  0,00666148	62,2
     132,698	  0,00724399	61,3	  0,00653228	65,4
     132,717	  0,00786202	60,5	  0,00680137	69,0
     132,737	   0,0073726	58,9	  0,00656432	62,9
     132,757	  0,00727516	54,9	  0,00651104	64,8
     132,776	  0,00764086	63,9	  0,00657154	61,4
     132,796	   0,0074085	61,8	  0,00754661	58,1
     132,815	  0,00774205	63,1	   0,0068217	56,1
     132,835	  0,00758074	64,6	  0,00667983	58,1
     132,854	  0,00766541	53,7	    0,007132	55,8
     132,874	  0,00732502	62,4	   0,0074361	55,4
     132,893	  0,00771799	57,4	  0,00686084	56,0
     132,913	  0,00774502	54,4	  0,00724838	64,8
     132,933	  0,00768045	60,8	  0,00708211	60,9
     132,952	  0,00766658	53,7	  0,00760701	63,5
     132,972	  0,00777578	58,5	  0,00697058	67,1
     132,991	  0,00802055	63,2	  0,00698723	54,8
     133,011	   0,0076703	59,3	  0,00719844	62,3
      133,03	   0,0075583	60,7	  0,00714808	58,2
      133,05	  0,00790482	60,3	  0,00741356	55,5
     133,069	  0,00799669	56,1	  0,00731464	55,2
     133,089	  0,00753776	58,8	  0,00749201	52,6
     133,109	  0,00798019	63,1	  0,00684048	58,5
     133,128	  0,00803377	63,5	  0,00703289	55,6
     133,148	  0,00781408	65,2	  0,00744382	53,8
     133,167	  0,00785329	67,7	  0,00724671	62,0
     133,187	  0,00791312	60,7	  0,00753158	56,6
     133,206	   0,0079999	52,8	  0,00727957	64,3
     133,226	  0,00806875	58,7	  0,00751644	55,9
     133,245	   0,0081076	53,5	  0,00731559	55,9
     133,265	  0,00771203	67,2	  0,00763298	55,2
     133,284	  0,00810913	61,9	  0,00736477	58,5
     133,304	  0,00773248	59,9	  0,00746767	68,0
     133,324	  0,00784787	60,8	   0,0073698	60,4
     133,343	  0,00865051	56,2	  0,00744513	59,2
     133,363	  0,00831616	57,5	  0,00769922	58,7
     133,382	  0,00778684	64,7	  0,00769914	67,3
     133,402	   0,0081798	54,0	  0,00765821	64,4
     133,421	  0,00812351	60,0	  0,00756338	59,9
     133,441	  0,00830958	64,7	  0,00777588	57,3
      133,46	  0,00831071	66,8	  0,00767228	64,8
      133,48	  0,00807842	60,1	  0,00773823	64,3
       133,5	  0,00851949	57,1	  0,00770786	61,3
     133,519	  0,00819855	66,1	  0,00773041	59,4
     133,539	  0,00847976	62,7	  0,00825098	57,8
     133,558	  0,00845721	62,4	  0,00772515	62,4
     133,578	  0,00847845	59,4	  0,00738276	63,2
     133,597	  0,00864934	59,5	  0,00767459	61,6
     133,617	  0,00897402	59,0	   0,0076714	60,0
     133,636	  0,00885796	66,5	  0,00747566	67,0
     133,656	   0,0085675	58,3	  0,00799065	57,6
     133,675	  0,00867971	61,0	  0,00771742	66,1
     133,695	  0,00864368	65,0	  0,00814003	61,7
     133,715	  0,00924387	60,6	  0,00764301	59,7
     133,734	  0,00890463	61,9	  0,00804828	61,0
     133,754	  0,00871923	55,2	  0,00832218	58,6
     133,773	  0,00846808	60,8	  0,00769135	67,6
     133,793	  0,00861541	56,7	  0,00797472	58,9
     133,812	   0,0086489	64,2	  0,00829132	63,0
     133,832	  0,00880879	53,3	  0,00812581	56,2
     133,851	  0,00879684	62,0	  0,00793835	68,6
     133,871	  0,00886499	54,7	  0,00844115	57,0
     133,891	  0,00890703	66,1	   0,0083527	64,9
      133,91	  0,00884757	60,4	  0,00777991	64,0
      133,93	  0,00847641	63,0	  0,00843285	66,7
     133,949	  0,00902876	60,1	  0,00817723	66,2
     133,969	  0,00920234	64,8	  0,00792937	56,6
     133,988	  0,00897758	71,5	   0,0084588	61,4
     134,008	  0,00910682	55,5	  0,00845129	59,1
     134,027	  0,00918205	59,6	  0,00805314	66,0
     134,047	  0,00896156	67,9	  0,00847991	52,9
     134,066	  0,00927552	61,3	   0,0082153	61,0
     134,086	  0,00862747	66,2	  0,00839353	65,3
     134,106	  0,00922785	56,6	  0,00847433	67,5
     134,125	  0,00979148	56,9	   0,0087611	65,0
     134,145	  0,00982655	64,3	  0,00801406	65,5
     134,164	  0,00908512	58,2	  0,00821252	62,1
     134,184	  0,00910255	58,7	   0,0085117	57,8
     134,203	  0,00899664	62,8	  0,00829531	67,7
     134,223	  0,00994633	61,5	  0,00839365	64,9
     134,242	  0,00930134	63,5	  0,00889358	61,0
     134,262	  0,00868487	60,4	  0,00884473	62,5
     134,282	  0,00919858	66,5	   0,0085944	64,8
     134,301	  0,00975126	60,7	  0,00888284	64,4
     134,321	  0,00943462	61,2	  0,00888862	61,4
      134,34	   0,0100347	58,1	  0,00895836	55,0
      134,36	  0,00919653	64,7	  0,00879353	60,4
     134,379	   0,0099909	61,7	  0,00904233	57,1
     134,399	  0,00962063	57,2	  0,00837857	61,9
     134,418	   0,0105073	57,4	  0,00918416	66,8
     134,438	  0,00980051	59,4	  0,00895759	66,2
     134,457	  0,00976117	57,5	  0,00931425	53,9
     134,477	   0,0105533	60,3	  0,00915012	58,7
     134,497	  0,00909802	66,6	  0,00892353	59,1
     134,516	   0,0101022	63,0	  0,00912429	51,7
     134,536	  0,00991405	62,0	  0,00899182	59,7
     134,555	   0,0102454	66,6	   0,0091337	62,2
     134,575	  0,00978639	66,1	  0,00945568	62,4
     134,594	   0,0101607	60,8	  0,00924966	63,8
     134,614	   0,0100661	64,4	  0,00935161	62,4
     134,633	   0,0103602	60,1	  0,00896378	66,8
     134,653	   0,0107246	59,2	  0,00961672	62,2
     134,673	   0,0101822	58,3	  0,00958969	68,0
     134,692	   0,0105378	61,7	  0,00921172	63,2
     134,712	   0,0106257	58,2	  0,00926063	67,0
     134,731	    0,010347	60,2	  0,00980705	64,4
     134,751	   0,0103977	57,5	  0,00961023	63,1
      134,77	  0,00998782	63,1	  0,00914928	56,7
      134,79	   0,0104502	62,7	  0,00912723	65,8
     134,809	   0,0107783	62,4	  0,00963304	59,4
     134,829	   0,0104722	55,4	  0,00986957	52,1
     134,848	   0,0107716	60,6	  0,00952624	57,1
     134,868	   0,0102732	63,0	  0,00944248	60,5
     134,888	    0,010836	58,4	  0,00986634	55,3
     134,907	   0,0106531	58,4	  0,00977518	63,5
     134,927	   0,0110577	57,5	   0,0102353	59,6
     134,946	   0,0109089	58,9	  0,00949654	62,9
     134,966	   0,0107628	64,9	  0,00994416	61,8
     134,985	    0,010769	70,2	   0,0100051	56,3
     135,005	   0,0110826	60,1	  0,00983986	59,3
     135,024	   0,0107126	59,4	   0,0101724	56,7
     135,044	    0,011398	57,3	   0,0097953	64,4
     135,064	   0,0113899	62,3	   0,0103274	58,9
     135,083	   0,0110471	63,7	  0,00975563	57,6
     135,103	   0,0107335	58,1	   0,0098189	62,4
     135,122	   0,0112138	62,2	   0,0103367	59,1
     135,142	   0,0112321	64,2	   0,0104738	56,0
     135,161	   0,0110387	57,0	  0,00992527	55,6
     135,181	    0,011133	56,6	  0,00997275	60,4
       135,2	   0,0109777	63,7	   0,0106235	59,1
      135,22	   0,0116009	59,7	   0,0100609	58,3
     135,239	   0,0116812	63,6	   0,0100327	59,7
     135,259	   0,0116101	64,3	   0,0106342	60,3
     135,279	   0,0120055	57,3	   0,0101946	56,3
     135,298	   0,0117648	58,1	   0,0105098	54,9
     135,318	   0,0109437	66,9	   0,0106218	65,6
     135,337	   0,0117874	60,2	   0,0104983	61,3
     135,357	   0,0120828	64,6	   0,0102121	64,9
     135,376	   0,0117641	65,6	   0,0104964	61,7
     135,396	   0,0117579	60,1	     0,01118	51,6
     135,415	   0,0117674	60,1	   0,0104294	69,8
     135,435	   0,0120585	61,9	    0,011054	57,1
     135,455	   0,0120636	64,0	   0,0112448	63,4
     135,474	   0,0124441	63,0	   0,0102101	58,5
     135,494	   0,0122491	64,5	   0,0106999	67,7
     135,513	   0,0121436	65,6	   0,0108516	52,7
     135,533	    0,011782	65,7	   0,0107009	67,3
     135,552	   0,0119079	57,3	   0,0105696	59,5
     135,572	   0,0121583	69,5	   0,0111725	64,0
     135,591	   0,0128102	65,9	   0,0114422	57,9
     135,611	    0,013044	57,3	   0,0105174	69,4
      135,63	    0,012438	62,4	   0,0104469	63,3
      135,65	   0,0125104	60,2	   0,0114265	60,8
      135,67	    0,013745	62,0	   0,0115883	54,2
     135,689	   0,0122935	64,8	   0,0109851	58,5
     135,709	   0,0122746	63,3	   0,0110182	61,3
     135,728	   0,0131789	62,4	   0,0114843	59,1
     135,748	   0,0126815	59,7	    0,011182	62,1
     135,767	   0,0128078	65,7	   0,0117539	64,6
     135,787	   0,0133348	60,2	   0,0115722	59,0
     135,806	   0,0135369	62,3	    0,011199	67,2
     135,826	   0,0133729	63,1	   0,0119008	59,2
     135,846	   0,0139594	59,0	   0,0118587	58,4
     135,865	   0,0137369	61,5	   0,0115001	62,1
     135,885	   0,0137447	67,7	   0,0119422	63,2
     135,904	   0,0133141	62,5	   0,0114868	61,9
     135,924	   0,0135925	58,8	    0,012102	62,9
     135,943	   0,0134857	59,1	   0,0118163	65,1
     135,963	   0,0141696	64,5	   0,0119961	63,8
     135,982	   0,0134496	67,8	    0,011982	57,6
     136,002	   0,0143378	56,2	   0,0121807	63,2
     136,021	   0,0141185	62,0	   0,0119461	62,3
     136,041	   0,0139982	62,9	   0,0128056	62,5
     136,061	    0,014174	64,7	    0,012103	57,6
      136,08	   0,0145738	59,9	   0,0125347	58,9
       136,1	   0,0143132	54,7	   0,0123967	57,8
     136,119	   0,0142622	56,8	   0,0125588	58,3
     136,139	   0,0145573	62,1	   0,0128039	63,3
     136,158	   0,0140328	65,2	    0,012699	63,0
     136,178	     0,01442	66,7	   0,0129797	62,0
     136,197	   0,0147774	65,3	   0,0129455	61,0
     136,217	   0,0144614	60,9	   0,0126938	59,5
     136,237	   0,0153947	59,3	   0,0131549	61,2
     136,256	   0,0143482	62,5	   0,0131709	55,4
     136,276	   0,0155978	59,7	   0,0128003	60,6
     136,295	   0,0151388	63,5	   0,0128184	61,1
     136,315	   0,0153718	59,8	   0,0136186	57,3
     136,334	   0,0149579	60,8	   0,0134601	55,5
     136,354	    0,015674	62,5	   0,0133267	61,0
     136,373	   0,0154788	61,7	   0,0136886	60,9
     136,393	   0,0148352	59,0	   0,0136996	56,9
     136,413	   0,0158598	66,6	   0,0133117	61,8
     136,432	   0,0158357	65,4	   0,0138593	55,8
     136,452	   0,0150167	65,4	   0,0142265	57,4
     136,471	   0,0159339	63,6	   0,0139206	59,0
     136,491	    0,016214	57,6	   0,0137456	58,4
      136,51	   0,0153562	61,3	   0,0139187	54,9
      136,53	   0,0157058	61,0	   0,0136515	62,9
     136,549	   0,0156162	61,2	   0,0138505	64,5
     136,569	   0,0155924	61,5	   0,0138411	61,5
     136,588	   0,0166311	60,3	   0,0144246	59,6
     136,608	   0,0168903	58,5	   0,0138109	59,8
     136,628	   0,0167288	62,4	   0,0142004	63,9
     136,647	   0,0162302	67,4	   0,0149836	56,5
     136,667	   0,0164709	60,1	   0,0143434	57,1
     136,686	    0,016969	60,8	   0,0141499	64,3
     136,706	   0,0169554	63,7	   0,0136376	63,3
     136,725	   0,0165049	62,4	   0,0148222	64,6
     136,745	   0,0164133	69,8	   0,0144685	65,2
     136,764	   0,0165185	57,6	   0,0147047	54,5
     136,784	    0,016267	66,5	   0,0151889	63,8
     136,804	   0,0174107	60,8	   0,0148514	64,0
     136,823	   0,0177277	62,5	   0,0150318	62,3
     136,843	   0,0179025	64,3	   0,0147017	65,9
     136,862	   0,0181278	62,6	   0,0150524	65,0
     136,882	   0,0181812	59,7	   0,0150841	67,9
     136,901	   0,0174916	69,2	   0,0154118	58,1
     136,921	   0,0175153	64,6	   0,0155505	55,6
      136,94	   0,0188505	59,7	   0,0153355	61,7
      136,96	   0,0186441	66,4	   0,0158688	64,7
     136,979	   0,0181245	63,9	   0,0158635	57,7
     136,999	   0,0184823	60,9	   0,0158142	60,8
     137,019	   0,0189955	64,9	   0,0162199	60,9
     137,038	    0,018982	59,9	   0,0163899	57,8
     137,058	   0,0185315	61,8	    0,016521	64,9
     137,077	   0,0185103	64,7	   0,0172665	54,2
     137,097	   0,0183748	54,9	    0,017188	59,2
     137,116	   0,0187443	65,8	    0,016398	64,3
     137,136	   0,0193124	63,7	   0,0165428	59,3
     137,155	   0,0199334	62,9	   0,0170205	67,4
     137,175	   0,0184832	66,5	   0,0171453	54,9
     137,195	   0,0197702	64,1	   0,0169973	62,7
     137,214	   0,0202794	65,9	   0,0175313	57,9
     137,234	   0,0211082	62,4	   0,0177498	63,2
     137,253	   0,0207827	60,6	   0,0181989	61,3
     137,273	   0,0207954	65,8	   0,0174691	65,1
     137,292	   0,0210816	62,6	   0,0173531	62,6
     137,312	   0,0203417	61,1	   0,0179656	65,3
     137,331	   0,0206207	66,8	   0,0177514	67,7
     137,351	   0,0203068	70,9	   0,0172764	58,8
      137,37	   0,0212646	61,8	   0,0176589	66,7
      137,39	   0,0216566	57,4	   0,0181911	57,2
      137,41	   0,0215277	67,8	   0,0181325	66,4
     137,429	   0,0222152	61,9	   0,0187124	67,7
     137,449	   0,0221492	61,4	   0,0187925	61,1
     137,468	   0,0227063	58,7	   0,0196174	66,6
     137,488	   0,0218977	62,7	   0,0198077	64,5
     137,507	   0,0230411	61,4	    0,019479	59,0
     137,527	   0,0224519	64,6	   0,0194438	67,1
     137,546	   0,0220955	62,8	   0,0191057	70,4
     137,566	   0,0230329	70,2	   0,0190732	63,2
     137,586	   0,0232172	62,6	   0,0204011	60,4
     137,605	   0,0221965	61,0	   0,0195044	66,0
     137,625	   0,0232167	66,2	   0,0200413	61,7
     137,644	   0,0249334	61,2	   0,0194731	62,9
     137,664	   0,0234899	60,5	   0,0198313	58,5
     137,683	   0,0239861	65,1	   0,0203575	65,0
     137,703	   0,0239383	68,1	   0,0210938	61,3
     137,722	   0,0247806	59,5	   0,0215328	58,3
     137,742	   0,0241602	59,2	   0,0217847	60,4
     137,761	   0,0243905	66,0	    0,021459	60,4
     137,781	   0,0257288	68,1	   0,0221237	62,6
     137,801	   0,0250194	62,5	    0,022042	61,0
      137,82	   0,0257811	62,8	    0,021969	59,9
      137,84	   0,0254319	59,2	   0,0216342	63,3
     137,859	   0,0263186	67,3	   0,0215875	59,2
     137,879	   0,0263569	66,3	   0,0219717	61,2
     137,898	   0,0266049	64,4	   0,0227589	59,8
     137,918	   0,0262206	64,9	   0,0232896	62,4
     137,937	   0,0271974	62,2	     0,02368	58,1
     137,957	    0,027505	66,3	   0,0240866	54,2
     137,977	    0,028359	64,8	   0,0235687	61,0
     137,996	   0,0286815	61,0	   0,0235139	63,7
     138,016	   0,0286622	68,4	   0,0253802	59,4
     138,035	   0,0286804	64,5	   0,0239043	64,6
     138,055	   0,0289031	71,5	   0,0243599	65,6
     138,074	   0,0297768	67,3	   0,0249696	58,0
     138,094	   0,0288671	69,7	   0,0238553	61,9
     138,113	   0,0301063	67,6	   0,0253772	60,6
     138,133	   0,0315761	65,4	   0,0266778	59,6
     138,152	   0,0302457	69,5	   0,0268425	56,1
     138,172	    0,031431	66,6	   0,0254957	60,8
     138,192	   0,0318606	69,6	   0,0258169	67,8
     138,211	   0,0312607	66,6	   0,0271689	63,9
     138,231	   0,0318954	61,4	   0,0256954	65,3
      138,25	   0,0325967	62,3	   0,0271372	65,9
      138,27	   0,0339253	64,4	   0,0273052	69,1
     138,289	    0,035345	57,6	   0,0272094	66,9
     138,309	   0,0347844	66,6	   0,0282913	57,3
     138,328	   0,0345204	66,1	   0,0292113	59,0
     138,348	   0,0362221	67,2	   0,0290971	66,3
     138,368	   0,0366461	69,7	   0,0290282	66,3
     138,387	   0,0354501	72,8	    0,030232	66,0
     138,407	   0,0368975	68,1	   0,0308854	59,9
     138,426	   0,0382943	66,1	   0,0289222	68,1
     138,446	   0,0385863	61,4	   0,0302725	70,2
     138,465	   0,0385457	69,5	   0,0312084	65,1
     138,485	   0,0384242	69,3	   0,0324239	59,7
     138,504	   0,0401937	67,7	   0,0317009	65,2
     138,524	   0,0410241	64,3	   0,0321074	72,4
     138,544	   0,0417507	73,4	   0,0330327	62,9
     138,563	   0,0410181	69,8	   0,0329253	68,5
     138,583	    0,044671	61,7	   0,0330431	69,9
     138,602	   0,0445896	68,4	   0,0344955	69,2
     138,622	    0,046028	72,8	   0,0339925	70,5
     138,641	   0,0446319	73,7	   0,0347867	67,4
     138,661	   0,0465734	73,1	   0,0365276	65,3
      138,68	    0,047559	75,0	    0,037655	70,3
       138,7	   0,0469916	68,2	   0,0375425	59,6
     138,719	    0,048874	76,6	   0,0385317	67,0
     138,739	    0,049321	74,7	   0,0399254	63,8
     138,759	   0,0529282	65,4	   0,0401873	64,8
     138,778	   0,0537179	74,4	     0,04094	64,2
     138,798	   0,0543589	69,4	   0,0411546	68,8
     138,817	   0,0549882	72,4	   0,0418185	64,2
     138,837	    0,057091	68,8	   0,0434729	67,6
     138,856	   0,0576982	74,8	   0,0430539	70,3
     138,876	   0,0581582	78,2	   0,0449639	64,3
     138,895	   0,0578833	76,8	   0,0441631	71,3
     138,915	   0,0596891	76,4	   0,0452898	65,5
     138,935	    0,062749	68,2	     0,04771	65,8
     138,954	   0,0646909	74,4	    0,046933	68,1
     138,974	    0,063937	77,3	    0,047784	71,3
     138,993	   0,0655379	79,1	   0,0509544	70,1
     139,013	   0,0679262	75,0	   0,0505075	73,4
     139,032	   0,0675571	76,5	   0,0531404	73,6
     139,052	   0,0686525	75,1	   0,0538397	73,1
     139,071	   0,0713471	81,7	   0,0545747	67,4
     139,091	   0,0722094	82,8	   0,0546402	75,2
      139,11	   0,0740656	79,3	   0,0564862	68,6
      139,13	   0,0738244	83,9	    0,058886	71,0
      139,15	   0,0755434	81,7	     0,05696	78,1
     139,169	   0,0767492	78,4	   0,0582292	73,2
     139,189	   0,0787045	82,1	   0,0615799	75,1
     139,208	   0,0806772	82,3	   0,0636598	76,0
     139,228	   0,0822084	78,1	   0,0632502	73,9
     139,247	   0,0835043	82,3	   0,0638171	79,4
     139,267	   0,0827803	82,1	   0,0682094	74,4
     139,286	    0,084573	84,4	   0,0661502	79,3
     139,306	   0,0879851	81,5	   0,0685612	75,3
     139,326	   0,0900487	86,1	   0,0715086	73,9
     139,345	   0,0895084	80,8	   0,0718302	82,8
     139,365	   0,0901651	82,6	   0,0728289	81,4
     139,384	   0,0916616	91,9	   0,0758466	76,0
     139,404	    0,093763	88,4	   0,0770108	77,3
     139,423	   0,0964107	84,3	   0,0774494	79,5
     139,443	   0,0964227	88,4	   0,0799249	81,7
     139,462	   0,0986087	85,4	   0,0819141	80,8
     139,482	   0,0994588	87,6	   0,0800866	81,6
     139,501	    0,101111	87,5	   0,0853288	79,2
     139,521	    0,101167	96,5	   0,0828587	81,9
     139,541	    0,104462	88,6	   0,0841887	84,3
      139,56	    0,105432	90,6	   0,0862473	78,2
      139,58	    0,106847	89,9	   0,0873609	85,3
     139,599	     0,10889	90,8	   0,0912316	84,5
     139,619	    0,107831	97,5	   0,0893551	90,4
     139,638	    0,109315	97,5	   0,0931673	84,5
     139,658	    0,113785	94,4	   0,0913868	88,3
     139,677	    0,113234	95,7	    0,096112	86,0
     139,697	    0,113411	99,4	   0,0948864	89,5
     139,717	    0,115547	93,6	   0,0985309	90,3
     139,736	    0,116422	99,1	   0,0980353	93,9
     139,756	    0,119187	88,5	   0,0991698	88,4
     139,775	    0,118477	97,8	    0,101667	89,7
     139,795	    0,120369	97,0	    0,102168	93,0
     139,814	    0,121476	100,1	    0,105392	88,0
     139,834	    0,123608	102,0	    0,106731	87,7
     139,853	    0,124044	98,6	    0,106139	91,6
     139,873	    0,124885	103,7	    0,108238	87,2
     139,892	    0,128619	96,1	    0,109567	83,9
     139,912	    0,127693	104,4	     0,10906	95,7
     139,932	    0,130544	100,9	    0,110792	96,0
     139,951	    0,131615	97,1	     0,11027	96,1
     139,971	    0,130698	100,5	    0,112595	92,1
      139,99	    0,133043	101,2	    0,113284	88,1
      140,01	    0,134082	93,5	     0,11614	89,3
     140,029	    0,134393	98,3	    0,116377	93,8
     140,049	     0,13538	103,6	    0,116885	97,8
     140,068	    0,138138	106,5	    0,119895	93,6
     140,088	    0,138853	104,0	    0,120895	95,8
     140,108	    0,138023	106,4	     0,12099	98,7
     140,127	    0,140088	102,9	    0,121394	94,0
     140,147	    0,140701	100,3	    0,122293	99,7
     140,166	    0,143392	104,1	    0,123173	102,5
     140,186	    0,143042	105,1	    0,124287	96,1
     140,205	    0,145471	106,3	    0,126379	99,2
     140,225	    0,146513	104,2	    0,126963	97,8
     140,244	    0,148696	104,0	    0,128844	98,6
     140,264	    0,149156	107,2	    0,131016	100,5
     140,283	    0,149833	108,2	    0,130464	98,7
     140,303	    0,151704	102,0	    0,131706	98,4
     140,323	    0,152414	104,4	     0,13354	103,6
     140,342	    0,153105	109,7	    0,134861	101,3
     140,362	    0,154604	109,3	    0,136001	97,3
     140,381	    0,153909	110,9	    0,136652	104,1
     140,401	    0,154245	111,6	    0,137188	97,5
      140,42	    0,156152	109,2	    0,138218	93,6
      140,44	    0,157014	112,5	    0,140691	101,5
     140,459	    0,158627	109,4	    0,141499	98,8
     140,479	    0,159027	113,0	     0,14173	106,0
     140,499	    0,161556	110,9	    0,141519	100,8
     140,518	    0,162967	107,2	     0,14225	106,5
     140,538	    0,163224	112,3	    0,142695	108,5
     140,557	    0,162731	114,6	    0,143267	108,9
     140,577	    0,164351	119,1	    0,143503	105,9
     140,596	    0,164606	111,7	    0,145808	111,1
     140,616	     0,16752	115,0	     0,14632	104,7
     140,635	    0,167666	115,7	    0,147429	112,0
     140,655	    0,167841	114,6	    0,146459	103,1
     140,674	    0,168312	118,1	    0,148053	108,0
     140,694	    0,169506	120,8	    0,148868	108,3
     140,714	     0,17009	118,6	    0,150366	105,8
     140,733	    0,173314	115,3	    0,151398	108,9
     140,753	    0,173806	115,2	    0,150781	110,5
     140,772	    0,174233	125,9	    0,149379	127,0
     140,792	    0,174509	118,9	    0,126025	168,5
     140,811	    0,175035	118,8	    0,110273	193,3
     140,831	    0,177231	119,3	    0,103684	-158,0
      140,85	    0,178508	114,9	   0,0945325	-156,3
      140,87	    0,178204	124,7	   0,0915283	-156,1
      140,89	     0,17952	120,4	   0,0899749	-150,1
     140,909	    0,179021	126,8	   0,0856569	-151,2
     140,929	    0,182059	123,6	   0,0805398	-152,9
     140,948	    0,183424	120,7	   0,0765556	-149,4
     140,968	    0,183194	124,6	   0,0763223	-144,8
     140,987	    0,184307	127,0	   0,0723561	-147,1
     141,007	    0,185698	124,3	   0,0689807	-147,8
     141,026	    0,184848	123,8	   0,0674341	-145,6
     141,046	    0,185805	125,8	   0,0706543	-139,6
     141,065	    0,188974	132,1	   0,0693604	-142,5
     141,085	     0,18806	125,3	   0,0632426	-146,0
     141,105	    0,189454	125,0	   0,0629621	-142,6
     141,124	    0,190467	128,3	   0,0623979	-139,6
     141,144	    0,190422	134,6	     0,06093	-141,8
     141,163	    0,193364	132,6	   0,0605381	-141,7
     141,183	    0,193337	126,9	   0,0594702	-138,4
     141,202	    0,193144	132,6	   0,0579875	-139,9
     141,222	    0,194629	131,8	   0,0580034	-141,4
     141,241	    0,195729	131,0	   0,0563122	-141,4
     141,261	    0,195244	142,0	   0,0552792	-145,2
     141,281	    0,197789	136,3	   0,0561517	-143,1
       141,3	    0,198651	131,3	   0,0514091	-143,8
      141,32	    0,200506	132,1	   0,0514803	-140,8
     141,339	    0,199705	138,0	   0,0534878	-137,8
     141,359	    0,200619	136,4	   0,0516733	-145,3
     141,378	    0,201541	135,5	   0,0493148	-139,1
     141,398	    0,202998	135,4	    0,051432	-137,5
     141,417	    0,202127	136,5	   0,0479285	-139,6
     141,437	    0,204103	132,3	   0,0482526	-137,1
     141,456	    0,205801	133,5	   0,0477481	-131,8
     141,476	    0,203938	136,6	   0,0475526	-137,8
     141,496	    0,205225	140,2	   0,0467697	-137,9
     141,515	    0,207284	136,9	   0,0454877	-139,7
     141,535	    0,205217	145,7	   0,0450152	-137,6
     141,554	    0,206152	145,3	   0,0443567	-135,1
     141,574	    0,207639	143,2	   0,0434925	-135,4
     141,593	    0,207713	150,8	   0,0445359	-134,0
     141,613	    0,208525	150,7	   0,0418097	-140,8
     141,632	    0,209529	151,0	   0,0424185	-135,6
     141,652	    0,208536	159,4	    0,040998	-142,0
     141,672	    0,203946	178,5	   0,0417279	-134,0
     141,691	    0,182091	-147,2	   0,0402214	-131,6
     141,711	    0,047806	-72,9	   0,0403691	-130,6
      141,73	   0,0282141	-130,2	   0,0382907	-136,7
      141,75	   0,0285582	-131,8	   0,0418049	-135,8
     141,769	   0,0285732	-130,9	   0,0378684	-136,1
     141,789	   0,0276035	-122,9	   0,0386416	-132,4
     141,808	   0,0266759	-130,5	    0,038487	-135,4
     141,828	   0,0267139	-127,5	   0,0371344	-133,4
     141,848	   0,0258418	-135,9	   0,0373634	-134,2
     141,867	   0,0266714	-132,6	   0,0370991	-131,4
     141,887	   0,0260486	-134,4	   0,0357379	-135,4
     141,906	   0,0263585	-129,2	   0,0366279	-136,2
     141,926	   0,0267823	-129,3	   0,0345914	-136,1
     141,945	   0,0262554	-131,3	   0,0345965	-136,2
     141,965	   0,0259131	-129,0	   0,0359727	-132,7
     141,984	   0,0255016	-127,0	   0,0343473	-135,9
     142,004	   0,0258893	-132,6	   0,0342658	-133,4
     142,023	   0,0243892	-126,9	   0,0344279	-137,7
     142,043	   0,0249642	-125,4	   0,0338114	-133,4
     142,063	   0,0247051	-127,8	   0,0330648	-131,3
     142,082	    0,023228	-128,6	     0,03266	-133,3
     142,102	   0,0246429	-128,7	   0,0326567	-135,0
     142,121	   0,0246428	-128,4	   0,0320749	-131,5
     142,141	   0,0246428	-127,1	    0,032985	-135,6
      142,16	   0,0245573	-131,6	   0,0329265	-130,8
      142,18	   0,0240578	-129,0	   0,0309627	-136,7
     142,199	   0,0238159	-126,8	   0,0305662	-127,5
     142,219	   0,0229631	-130,2	   0,0297757	-130,8
     142,239	   0,0229605	-126,8	   0,0304076	-131,3
     142,258	   0,0221036	-134,4	   0,0298099	-129,8
     142,278	   0,0225329	-132,7	   0,0299168	-132,1
     142,297	   0,0230633	-133,5	   0,0295633	-131,0
     142,317	   0,0231204	-134,3	   0,0304687	-134,0
     142,336	   0,0231035	-130,4	   0,0286108	-129,2
     142,356	   0,0217931	-129,6	   0,0295327	-127,0
     142,375	   0,0222087	-130,1	   0,0281422	-130,3
     142,395	   0,0222216	-128,4	   0,0282233	-133,6
     142,414	   0,0230419	-129,2	   0,0285398	-131,9
     142,434	   0,0232257	-127,6	     0,02813	-130,2
     142,454	   0,0224672	-126,6	   0,0292773	-131,9
     142,473	   0,0227044	-126,6	   0,0276075	-132,1
     142,493	   0,0222609	-123,7	   0,0266949	-128,4
     142,512	   0,0223105	-126,7	   0,0269613	-136,2
     142,532	   0,0216619	-128,2	   0,0259719	-131,1
     142,551	    0,021917	-129,2	   0,0257489	-129,8
     142,571	   0,0212917	-127,7	   0,0262717	-131,4
      142,59	   0,0218286	-131,2	   0,0266618	-133,1
      142,61	   0,0208094	-129,7	   0,0258738	-131,5
      142,63	   0,0212516	-133,1	   0,0260575	-125,7
     142,649	   0,0219987	-128,2	   0,0254519	-132,3
     142,669	   0,0209659	-130,8	   0,0251186	-133,3
     142,688	   0,0198978	-134,0	    0,025871	-129,1
     142,708	   0,0198518	-129,8	   0,0244585	-127,8
     142,727	   0,0208669	-128,6	   0,0249737	-133,3
     142,747	   0,0190628	-130,4	   0,0237451	-133,7
     142,766	   0,0206085	-127,2	   0,0246785	-128,8
     142,786	   0,0202867	-125,3	   0,0240889	-129,6
     142,805	   0,0197513	-131,6	   0,0241377	-127,5
     142,825	   0,0198755	-129,4	   0,0252581	-128,9
     142,845	    0,019832	-129,4	   0,0233609	-131,1
     142,864	   0,0187673	-131,9	   0,0231482	-133,6
     142,884	   0,0205885	-127,6	   0,0232823	-129,4
     142,903	   0,0193512	-124,6	   0,0227617	-126,4
     142,923	   0,0191294	-131,1	   0,0226079	-129,3
     142,942	   0,0187694	-127,1	    0,023212	-126,6
     142,962	   0,0188165	-130,9	    0,023296	-126,6
     142,981	   0,0189703	-131,8	   0,0221405	-127,9
     143,001	    0,018208	-133,4	   0,0232299	-129,7
     143,021	   0,0188824	-129,6	   0,0226136	-128,1
      143,04	   0,0180367	-128,4	   0,0232538	-126,4
      143,06	   0,0192003	-128,9	   0,0210744	-124,4
     143,079	   0,0182325	-132,7	   0,0225737	-132,1
     143,099	   0,0182725	-121,9	   0,0218711	-127,8
     143,118	   0,0186113	-130,6	   0,0220927	-125,6
     143,138	   0,0186294	-127,5	   0,0218168	-124,8
     143,157	   0,0183882	-129,0	   0,0214918	-135,2
     143,177	   0,0182872	-126,7	   0,0213862	-131,6
     143,196	    0,016535	-128,2	   0,0212872	-128,6
     143,216	   0,0190013	-119,1	   0,0215028	-127,5
     143,236	    0,017343	-126,5	   0,0209061	-129,1
     143,255	   0,0181173	-126,8	   0,0199693	-124,5
     143,275	   0,0172344	-128,4	   0,0204442	-129,3
     143,294	   0,0170388	-128,9	   0,0204031	-130,9
     143,314	   0,0163976	-128,2	   0,0202174	-135,0
     143,333	   0,0174903	-126,5	   0,0199777	-131,7
     143,353	   0,0169223	-130,2	   0,0213411	-133,3
     143,372	   0,0166514	-130,7	   0,0198316	-127,9
     143,392	   0,0165068	-131,3	   0,0198189	-128,1
     143,412	   0,0167971	-129,0	   0,0196981	-128,1
     143,431	   0,0167224	-132,5	   0,0202846	-128,0
     143,451	   0,0164494	-128,8	     0,01915	-133,6
      143,47	   0,0160976	-128,5	   0,0195275	-129,8
      143,49	   0,0165318	-126,1	   0,0204665	-124,1
     143,509	   0,0171433	-125,5	   0,0181152	-125,7
     143,529	   0,0170677	-127,7	   0,0191483	-129,8
     143,548	   0,0162721	-130,2	   0,0199569	-132,3
     143,568	   0,0159555	-131,3	   0,0183171	-125,9
     143,587	   0,0154792	-123,5	   0,0191238	-134,4
     143,607	   0,0160053	-127,2	   0,0187192	-132,2
     143,627	   0,0161697	-129,2	   0,0190246	-120,9
     143,646	   0,0167295	-128,3	   0,0187608	-126,2
     143,666	   0,0157228	-128,7	   0,0182297	-123,4
     143,685	   0,0161416	-126,0	   0,0183731	-130,3
     143,705	   0,0155768	-123,6	   0,0184436	-124,2
     143,724	   0,0160109	-125,7	   0,0180652	-133,7
     143,744	   0,0164673	-130,5	   0,0184153	-129,3
     143,763	   0,0151887	-129,3	   0,0184748	-130,5
     143,783	   0,0148046	-127,4	   0,0175505	-133,6
     143,803	    0,014662	-122,4	   0,0176532	-125,1
     143,822	   0,0153095	-125,8	   0,0185288	-130,2
     143,842	   0,0147346	-128,1	   0,0174043	-132,5
     143,861	    0,015238	-127,5	   0,0175278	-127,0
     143,881	   0,0145503	-123,9	   0,0172163	-127,3
       143,9	   0,0144527	-125,4	   0,0171612	-130,3
      143,92	   0,0144411	-124,1	   0,0174203	-124,1
     143,939	   0,0142287	-129,6	   0,0171366	-127,2
     143,959	    0,014846	-130,9	   0,0160867	-125,9
     143,979	   0,0155611	-128,4	   0,0171151	-128,9
     143,998	   0,0147044	-129,3	   0,0168436	-122,5
     144,018	   0,0145854	-126,0	   0,0166894	-125,3
     144,037	   0,0146148	-129,1	   0,0170024	-127,8
     144,057	   0,0144642	-125,7	   0,0163176	-131,4
     144,076	   0,0149729	-122,4	   0,0156811	-127,3
     144,096	   0,0146311	-128,4	   0,0166828	-126,1
     144,115	   0,0146106	-128,8	   0,0158354	-127,0
     144,135	   0,0146912	-122,8	   0,0164109	-129,9
     144,154	   0,0135422	-130,0	   0,0156943	-127,6
     144,174	   0,0145913	-120,7	   0,0163855	-127,9
     144,194	   0,0142433	-121,0	   0,0164715	-129,6
     144,213	   0,0141008	-126,4	   0,0159511	-128,8
     144,233	   0,0138774	-127,0	   0,0153716	-128,3
     144,252	   0,0135648	-124,9	    0,015822	-130,3
     144,272	   0,0129439	-127,5	   0,0158805	-126,3
     144,291	   0,0135962	-129,2	   0,0158928	-126,2
     144,311	   0,0141639	-128,9	   0,0158476	-126,6
      144,33	   0,0137599	-128,9	   0,0148771	-130,9
      144,35	   0,0127204	-125,8	   0,0153328	-123,3
      144,37	   0,0140149	-128,1	   0,0153891	-132,2
     144,389	   0,0135769	-126,6	   0,0146333	-129,0
     144,409	   0,0139475	-128,1	   0,0140531	-125,1
     144,428	   0,0134556	-122,2	   0,0153014	-127,8
     144,448	   0,0130512	-130,9	   0,0151181	-128,7
     144,467	   0,0132486	-129,7	   0,0148252	-127,6
     144,487	   0,0135808	-124,7	   0,0143542	-122,8
     144,506	   0,0131474	-120,9	   0,0142654	-128,7
     144,526	   0,0130623	-124,8	   0,0146465	-122,2
     144,545	   0,0128983	-124,9	   0,0141104	-129,7
     144,565	   0,0132968	-132,0	   0,0142836	-127,1
     144,585	   0,0124944	-123,4	   0,0146535	-131,9
     144,604	    0,013066	-129,5	   0,0134486	-129,4
     144,624	   0,0128171	-127,7	   0,0138232	-128,1
     144,643	   0,0126231	-128,3	   0,0140401	-125,2
     144,663	     0,01333	-129,8	   0,0146945	-129,8
     144,682	   0,0129301	-123,4	   0,0138808	-126,4
     144,702	   0,0128729	-125,3	   0,0138229	-125,6
     144,721	   0,0126038	-130,4	   0,0148141	-131,5
     144,741	   0,0132679	-124,4	   0,0133343	-124,6
     144,761	   0,0126669	-126,5	   0,0134288	-131,0
      144,78	   0,0135126	-128,4	   0,0136637	-129,9
       144,8	   0,0124224	-129,5	   0,0136806	-129,8
     144,819	   0,0123809	-127,0	   0,0132361	-126,1
     144,839	   0,0128318	-123,6	   0,0134809	-128,0
     144,858	   0,0132695	-124,4	   0,0128792	-131,6
     144,878	   0,0125906	-127,1	   0,0137229	-129,4
     144,897	   0,0132699	-125,3	     0,01399	-125,8
     144,917	   0,0120562	-127,9	   0,0131386	-130,0
     144,936	   0,0127008	-131,9	   0,0133319	-122,6
     144,956	   0,0124654	-126,4	    0,013663	-125,3
     144,976	   0,0117159	-132,6	   0,0135086	-127,6
     144,995	   0,0116165	-127,5	   0,0129164	-123,8
     145,015	    0,012857	-128,9	   0,0130578	-128,9
     145,034	   0,0125591	-128,7	   0,0129292	-125,0
     145,054	   0,0119052	-122,8	    0,013097	-130,0
     145,073	   0,0118067	-129,5	   0,0120931	-124,9
     145,093	    0,011632	-125,1	   0,0124967	-119,8
     145,112	   0,0119447	-126,6	   0,0119238	-129,1
     145,132	   0,0117746	-124,1	   0,0123313	-127,4
     145,152	    0,012104	-126,5	   0,0127741	-130,7
     145,171	   0,0113851	-128,4	   0,0123371	-122,9
     145,191	   0,0110918	-124,2	      0,0121	-127,1
      145,21	   0,0126838	-128,9	   0,0122118	-133,7
      145,23	   0,0117591	-128,2	    0,012809	-127,6
     145,249	   0,0103457	-128,4	   0,0121177	-124,2
     145,269	   0,0115485	-127,6	   0,0117409	-125,9
     145,288	   0,0129541	-123,7	   0,0122522	-125,7
     145,308	    0,011343	-127,7	   0,0122342	-128,1
     145,327	    0,010537	-130,5	   0,0127341	-120,1
     145,347	   0,0117459	-122,8	   0,0113573	-121,0
     145,367	   0,0114747	-133,0	   0,0120292	-124,8
     145,386	   0,0108731	-128,8	   0,0131395	-121,0
     145,406	   0,0118851	-124,9	   0,0111714	-125,6
     145,425	   0,0111981	-128,2	   0,0123684	-133,0
     145,445	   0,0113497	-126,2	   0,0129263	-123,5
     145,464	   0,0114598	-125,8	   0,0101413	-127,2
     145,484	   0,0105068	-128,2	   0,0124966	-127,5
     145,503	   0,0110922	-129,7	    0,011143	-121,2
     145,523	   0,0104051	-124,6	   0,0122779	-126,5
     145,543	   0,0111722	-122,7	   0,0116827	-126,3
     145,562	   0,0107313	-125,3	   0,0115925	-130,2
     145,582	   0,0108673	-122,8	   0,0118819	-122,7
     145,601	   0,0107825	-127,8	   0,0111227	-129,5
     145,621	   0,0116267	-123,4	   0,0125259	-125,5
      145,64	   0,0106575	-128,0	   0,0108857	-128,6
      145,66	   0,0107921	-126,3	   0,0121638	-122,3
     145,679	  0,00969667	-126,8	   0,0110626	-128,0
     145,699	   0,0109624	-127,7	   0,0115323	-125,1
     145,718	   0,0100999	-128,2	   0,0105484	-133,7
     145,738	   0,0108354	-128,5	   0,0113268	-124,7
     145,758	   0,0107809	-125,1	   0,0109453	-127,5
     145,777	   0,0100905	-126,9	   0,0112948	-121,0
     145,797	   0,0110935	-125,9	   0,0110078	-129,6
     145,816	   0,0101885	-128,7	   0,0103738	-125,9
     145,836	   0,0106079	-132,7	   0,0115585	-124,9
     145,855	   0,0109647	-122,7	   0,0106409	-121,8
     145,875	   0,0099753	-127,5	   0,0105324	-121,8
     145,894	   0,0101881	-129,9	   0,0113654	-127,4
     145,914	   0,0107732	-124,1	   0,0110833	-126,8
     145,934	   0,0101186	-126,0	   0,0111514	-124,9
     145,953	  0,00944607	-126,8	   0,0114547	-126,3
     145,973	   0,0103102	-127,3	   0,0104819	-128,9
     145,992	  0,00995235	-126,3	     0,01077	-121,7
     146,012	  0,00989677	-131,8	   0,0112795	-126,8
     146,031	   0,0103758	-127,5	   0,0107405	-127,7
     146,051	  0,00991063	-123,4	   0,0100733	-123,7
      146,07	    0,010541	-121,2	   0,0106542	-125,6
      146,09	  0,00995966	-130,3	   0,0108238	-128,2
     146,109	  0,00945662	-126,0	   0,0105959	-127,3
     146,129	  0,00977132	-129,7	   0,0102145	-126,1
     146,149	  0,00968663	-126,1	    0,010149	-130,4
     146,168	   0,0103573	-128,4	    0,010347	-121,5
     146,188	  0,00943522	-124,4	   0,0106332	-127,4
     146,207	  0,00907585	-128,5	   0,0104822	-129,2
     146,227	   0,0102546	-121,2	   0,0100043	-124,8
     146,246	   0,0102027	-128,9	  0,00966477	-132,1
     146,266	  0,00949467	-125,7	  0,00941008	-122,2
     146,285	   0,0103458	-126,2	  0,00981542	-123,6
     146,305	  0,00993477	-128,0	    0,010591	-113,6
     146,325	  0,00985751	-119,9	   0,0107452	-129,4
     146,344	  0,00984983	-127,3	   0,0105464	-128,2
     146,364	  0,00954059	-127,5	   0,0102233	-129,7
     146,383	  0,00953473	-121,7	   0,0103969	-128,9
     146,403	  0,00928692	-129,4	  0,00958697	-125,7
     146,422	  0,00906834	-125,0	  0,00960116	-121,6
     146,442	  0,00908219	-126,4	  0,00926717	-123,4
     146,461	    0,008523	-126,4	  0,00976458	-133,7
     146,481	  0,00900051	-126,9	  0,00954909	-125,4
       146,5	  0,00939516	-132,0	  0,00954631	-126,9
      146,52	  0,00919339	-123,7	  0,00969754	-129,7
      146,54	  0,00933344	-120,5	  0,00933244	-122,4
     146,559	  0,00850995	-129,3	  0,00974054	-132,0
     146,579	  0,00939743	-122,3	  0,00917377	-123,0
     146,598	  0,00934422	-132,9	  0,00954375	-132,6
     146,618	  0,00905365	-126,2	  0,00979893	-128,3
     146,637	  0,00980468	-124,8	  0,00997275	-132,5
     146,657	  0,00922512	-126,4	   0,0104275	-132,7
     146,676	  0,00916437	-129,0	  0,00977232	-125,4
     146,696	   0,0088256	-123,1	   0,0100518	-129,5
     146,716	  0,00838706	-122,1	  0,00949807	-125,7
     146,735	   0,0092644	-121,6	  0,00990824	-126,6
     146,755	  0,00917599	-126,6	  0,00918895	-122,1
     146,774	  0,00942408	-124,9	  0,00951831	-127,5
     146,794	  0,00865027	-125,8	  0,00925984	-125,0
     146,813	  0,00902435	-123,0	  0,00978222	-130,7
     146,833	  0,00912214	-131,0	  0,00993657	-134,9
     146,852	  0,00859493	-130,6	  0,00907454	-125,0
     146,872	  0,00968002	-126,3	  0,00930347	-123,6
     146,891	  0,00880336	-131,7	  0,00899305	-127,7
     146,911	  0,00904112	-125,4	  0,00944171	-127,4
     146,931	  0,00887725	-124,5	  0,00941722	-125,1
      146,95	  0,00897103	-125,7	  0,00928299	-124,8
      146,97	  0,00811994	-124,7	  0,00887805	-132,4
     146,989	  0,00859358	-123,9	  0,00983897	-125,3
     147,009	  0,00904615	-127,6	  0,00888075	-126,0
     147,028	  0,00902061	-129,3	  0,00920664	-127,1
     147,048	   0,0087602	-123,1	  0,00954322	-125,9
     147,067	  0,00921521	-123,4	  0,00914724	-127,7
     147,087	  0,00882514	-124,1	  0,00891772	-130,7
     147,107	  0,00836266	-118,8	  0,00969638	-127,6
     147,126	  0,00934762	-126,4	  0,00897191	-126,8
     147,146	  0,00798936	-128,3	  0,00860305	-133,8
     147,165	  0,00911025	-122,8	  0,00909868	-127,5
     147,185	  0,00813665	-132,5	  0,00872207	-125,5
     147,204	  0,00798988	-127,1	  0,00962027	-126,0
     147,224	    0,008432	-122,8	  0,00925666	-128,4
     147,243	  0,00828155	-128,2	  0,00882774	-126,3
     147,263	  0,00861724	-124,2	  0,00903673	-126,2
     147,283	  0,00823805	-127,1	  0,00878869	-125,4
     147,302	  0,00908082	-131,1	  0,00908896	-125,5
     147,322	    0,008632	-126,9	  0,00889961	-122,0
     147,341	  0,00869616	-123,4	  0,00915531	-128,9
     147,361	  0,00800521	-130,2	      0,0086	-128,5
      147,38	  0,00860187	-128,2	  0,00939497	-125,2
       147,4	  0,00836056	-123,1	  0,00845405	-128,5
     147,419	  0,00835436	-124,2	  0,00863347	-122,3
     147,439	  0,00785975	-125,1	  0,00867444	-118,3
     147,458	   0,0083798	-127,8	  0,00816054	-126,9
     147,478	   0,0081466	-128,6	  0,00898785	-124,2
     147,498	  0,00832853	-126,5	  0,00828116	-129,2
     147,517	  0,00855162	-127,2	  0,00911618	-124,7
     147,537	  0,00818283	-126,0	  0,00863575	-128,4
     147,556	  0,00816421	-121,2	  0,00851439	-126,8
     147,576	  0,00835274	-122,6	   0,0087324	-122,6
     147,595	  0,00775797	-127,7	  0,00868904	-124,3
     147,615	  0,00873454	-127,5	  0,00816564	-128,6
     147,634	  0,00831685	-120,2	  0,00894172	-128,0
     147,654	  0,00789428	-126,7	  0,00851762	-120,2
     147,674	  0,00818729	-133,8	  0,00815008	-120,6
     147,693	  0,00899016	-124,8	  0,00882282	-122,7
     147,713	  0,00849167	-122,2	  0,00874822	-127,2
     147,732	  0,00798573	-126,4	  0,00820829	-131,4
     147,752	  0,00807297	-123,3	  0,00806624	-124,3
     147,771	  0,00844968	-133,1	   0,0085306	-134,4
     147,791	  0,00833138	-123,9	  0,00857251	-131,5
      147,81	  0,00786648	-128,2	  0,00794674	-127,9
      147,83	  0,00793908	-129,7	  0,00780219	-122,5
     147,849	  0,00853968	-131,1	  0,00852126	-126,9
     147,869	   0,0085777	-128,6	  0,00818251	-122,6
     147,889	  0,00837976	-129,0	  0,00848337	-121,2
     147,908	  0,00806828	-124,8	  0,00827883	-128,6
     147,928	  0,00747109	-134,8	  0,00843005	-127,0
     147,947	  0,00800523	-127,9	  0,00829045	-123,2
     147,967	  0,00783163	-120,6	  0,00823218	-126,5
     147,986	  0,00817519	-125,3	   0,0079131	-127,5
     148,006	  0,00818274	-124,5	  0,00796726	-125,6
     148,025	   0,0078151	-128,7	  0,00842194	-127,3
     148,045	   0,0075648	-118,5	  0,00838507	-128,6
     148,065	  0,00755596	-126,1	  0,00829305	-125,2
     148,084	  0,00761182	-123,6	  0,00848544	-125,6
     148,104	  0,00747152	-132,5	  0,00817767	-124,6
     148,123	   0,0075603	-127,7	  0,00819049	-129,3
     148,143	   0,0073269	-131,1	  0,00831158	-125,2
     148,162	  0,00730925	-126,6	  0,00772487	-129,8
     148,182	  0,00726682	-123,9	  0,00799304	-131,1
     148,201	  0,00722424	-125,1	  0,00794117	-130,8
     148,221	   0,0075964	-125,7	  0,00806955	-122,2
      148,24	  0,00701645	-125,5	  0,00841269	-122,9
      148,26	  0,00727536	-124,6	  0,00776762	-128,5
      148,28	  0,00704795	-133,6	  0,00796382	-132,5
     148,299	  0,00695279	-124,6	  0,00725473	-125,0
     148,319	  0,00758755	-123,6	  0,00744684	-119,0
     148,338	  0,00746085	-123,9	  0,00799705	-125,5
     148,358	  0,00754003	-120,1	  0,00753947	-129,6
     148,377	  0,00750893	-125,5	   0,0079407	-127,6
     148,397	  0,00779116	-122,7	  0,00786279	-123,6
     148,416	  0,00736138	-126,9	  0,00786134	-122,1
     148,436	  0,00727025	-129,1	  0,00788827	-125,7
     148,456	  0,00753131	-129,7	  0,00712591	-133,5
     148,475	  0,00706645	-123,3	  0,00751295	-127,2
     148,495	  0,00704098	-129,7	  0,00789861	-128,2
     148,514	  0,00780171	-121,6	  0,00794871	-116,7
     148,534	  0,00739647	-129,1	  0,00775598	-120,9
     148,553	  0,00728196	-121,6	  0,00703385	-133,5
     148,573	  0,00714015	-125,1	  0,00766106	-130,6
     148,592	  0,00716256	-124,9	  0,00750974	-130,1
     148,612	  0,00780794	-129,2	  0,00697305	-125,1
     148,631	  0,00771933	-131,3	  0,00720429	-120,1
     148,651	  0,00671232	-129,9	  0,00739292	-126,8
     148,671	  0,00719071	-124,3	  0,00767067	-120,0
      148,69	  0,00680861	-133,7	  0,00731793	-121,3
      148,71	  0,00747964	-120,7	  0,00729852	-126,5
     148,729	  0,00708799	-120,1	  0,00772857	-125,5
     148,749	  0,00715648	-124,9	  0,00720817	-131,9
     148,768	   0,0079046	-122,2	  0,00779011	-125,3
     148,788	  0,00664287	-134,2	  0,00690925	-133,0
     148,807	  0,00666188	-128,7	  0,00744571	-121,7
     148,827	  0,00703992	-127,8	  0,00750262	-124,3
     148,847	  0,00686991	-138,5	  0,00693707	-123,2
     148,866	  0,00693761	-124,0	  0,00715867	-129,7
     148,886	  0,00746903	-124,5	  0,00740672	-123,5
     148,905	  0,00698993	-127,3	   0,0069002	-120,2
     148,925	  0,00716074	-130,0	  0,00713557	-127,0
     148,944	  0,00689254	-124,4	   0,0070123	-124,6
     148,964	  0,00705372	-125,7	  0,00731704	-128,3
     148,983	  0,00724661	-129,0	  0,00729089	-128,6
     149,003	  0,00702363	-125,7	  0,00707958	-128,7
     149,022	  0,00686479	-126,2	  0,00700876	-129,6
     149,042	  0,00675292	-125,0	  0,00720773	-120,2
     149,062	  0,00688626	-129,0	  0,00708012	-124,7
     149,081	  0,00664814	-127,9	  0,00737402	-125,3
     149,101	  0,00671592	-128,6	  0,00660613	-129,2
      149,12	  0,00696741	-126,2	  0,00724677	-123,0
      149,14	  0,00699116	-125,0	  0,00657944	-128,7
     149,159	   0,0064064	-128,0	  0,00724668	-128,6
     149,179	  0,00652113	-130,4	   0,0065874	-126,8
     149,198	  0,00703284	-126,5	  0,00683205	-128,7
     149,218	  0,00661297	-130,0	  0,00679881	-123,5
     149,238	  0,00682312	-122,7	   0,0065546	-125,2
     149,257	  0,00635431	-124,2	  0,00731888	-127,1
     149,277	  0,00682117	-123,3	  0,00706612	-126,0
     149,296	  0,00705004	-120,8	  0,00702382	-131,8
     149,316	  0,00667896	-122,6	  0,00738895	-127,4
     149,335	  0,00659018	-129,8	  0,00675332	-127,2
     149,355	   0,0066952	-129,0	  0,00656546	-123,3
     149,374	  0,00634785	-126,0	  0,00666726	-123,9
     149,394	  0,00675692	-133,9	  0,00692275	-121,9
     149,413	  0,00688348	-124,0	  0,00667794	-127,1
     149,433	  0,00674522	-123,3	  0,00695811	-126,7
     149,453	   0,0061777	-124,9	  0,00684206	-127,4
     149,472	  0,00653091	-133,4	  0,00673254	-122,8
     149,492	  0,00630158	-132,2	   0,0066981	-129,0
     149,511	  0,00684491	-132,5	  0,00666268	-130,8
     149,531	  0,00695172	-124,4	  0,00680631	-128,7
      149,55	  0,00675565	-127,3	  0,00636469	-125,9
      149,57	  0,00647844	-128,2	   0,0066329	-124,7
     149,589	  0,00612448	-129,7	  0,00705465	-120,8
     149,609	  0,00657116	-124,6	   0,0069741	-125,5
     149,629	  0,00667526	-123,7	  0,00689935	-129,4
     149,648	  0,00646455	-127,4	  0,00684921	-127,5
     149,668	  0,00634437	-120,9	  0,00669622	-129,1
     149,687	  0,00622902	-128,4	  0,00667593	-124,2
     149,707	  0,00646919	-129,1	   0,0066275	-121,6
     149,726	  0,00645271	-132,4	  0,00677259	-118,2
     149,746	  0,00686908	-129,2	  0,00633605	-125,0
     149,765	  0,00650041	-129,9	  0,00664649	-126,1
     149,785	  0,00685431	-122,1	  0,00650489	-126,9
     149,804	  0,00646652	-121,9	   0,0070229	-120,4
     149,824	  0,00685601	-126,3	  0,00665893	-130,0
     149,844	  0,00670415	-121,6	  0,00666551	-131,6
     149,863	  0,00630579	-127,3	  0,00628051	-132,5
     149,883	  0,00661789	-127,1	  0,00663344	-122,1
     149,902	  0,00639054	-127,0	  0,00651374	-122,3
     149,922	  0,00660931	-124,0	  0,00653487	-131,6
     149,941	  0,00644894	-123,0	  0,00589581	-132,2
     149,961	  0,00633081	-128,3	  0,00614511	-125,2
      149,98	  0,00623914	-126,8	  0,00643978	-130,0
         150	   0,0064308	-121,2	  0,00675429	-126,9

