X-Data [Hz]	Laser (M - Filtered) [m/s]	Phase [Deg]	Laser (M - Filtered) [m/s]	Phase [Deg]	
	002: [07-09-24 15:32]		003: [07-09-24 15:35]	
        41,5	   0,0123854	76,7	   0,0128727	77,6
      41,502	    0,012439	76,8	   0,0128916	77,4
     41,5039	    0,012501	75,9	    0,012856	75,4
     41,5059	   0,0125249	76,7	   0,0128068	76,3
     41,5078	   0,0128335	77,4	   0,0128681	77,5
     41,5098	   0,0129139	76,9	     0,01287	76,9
     41,5117	   0,0128564	77,5	   0,0129474	76,7
     41,5137	   0,0128153	75,9	   0,0129806	76,1
     41,5156	   0,0128462	78,0	   0,0129394	76,1
     41,5176	   0,0129031	76,5	   0,0130101	77,2
     41,5196	   0,0130413	79,3	   0,0130284	76,9
     41,5215	   0,0130832	77,0	   0,0129807	78,4
     41,5235	   0,0130912	76,2	   0,0130092	76,9
     41,5254	   0,0129879	77,2	   0,0130095	77,9
     41,5274	   0,0130292	75,8	   0,0131092	76,8
     41,5293	   0,0130341	79,0	   0,0131798	78,6
     41,5313	   0,0131108	79,5	   0,0131504	76,9
     41,5332	   0,0132158	77,7	   0,0130618	76,7
     41,5352	    0,013114	77,4	   0,0131316	76,4
     41,5371	   0,0129645	76,8	   0,0131986	76,4
     41,5391	    0,013005	78,9	    0,013265	77,0
     41,5411	   0,0132438	77,4	   0,0132592	77,6
      41,543	    0,013288	78,1	   0,0132497	77,2
      41,545	   0,0132056	75,7	   0,0133649	78,1
     41,5469	   0,0130992	76,1	   0,0132535	76,6
     41,5489	   0,0132809	77,9	   0,0132545	78,3
     41,5508	    0,013332	76,8	   0,0133378	77,8
     41,5528	   0,0133593	78,6	     0,01344	78,7
     41,5547	   0,0132754	76,8	   0,0134175	77,5
     41,5567	   0,0133813	76,6	   0,0133916	75,6
     41,5587	   0,0134052	77,4	    0,013486	78,7
     41,5606	   0,0133972	76,5	   0,0134419	78,4
     41,5626	   0,0133876	78,9	   0,0134959	78,7
     41,5645	   0,0134502	78,1	   0,0134622	79,2
     41,5665	   0,0134056	78,4	   0,0134339	77,0
     41,5684	   0,0134944	77,7	   0,0135379	78,3
     41,5704	    0,013485	77,5	   0,0134868	77,4
     41,5723	   0,0134223	79,1	   0,0135309	77,7
     41,5743	   0,0134955	79,2	   0,0135962	78,2
     41,5762	   0,0136149	78,4	   0,0135501	77,8
     41,5782	   0,0136351	78,8	   0,0135759	78,4
     41,5802	   0,0136192	77,6	   0,0136207	76,9
     41,5821	      0,0137	78,1	   0,0137473	79,1
     41,5841	    0,013664	77,7	   0,0137697	78,5
      41,586	   0,0137222	77,7	   0,0136321	78,7
      41,588	   0,0137126	76,9	   0,0136784	78,7
     41,5899	    0,013613	77,0	   0,0137369	75,9
     41,5919	   0,0137039	78,2	   0,0137407	77,5
     41,5938	   0,0137598	77,5	   0,0138039	78,3
     41,5958	   0,0137507	80,3	   0,0138412	77,2
     41,5978	   0,0137921	79,3	   0,0137906	78,9
     41,5997	   0,0137803	77,6	   0,0137279	77,6
     41,6017	   0,0138168	78,5	   0,0138029	78,2
     41,6036	   0,0138972	77,4	   0,0138967	77,4
     41,6056	   0,0139218	79,2	   0,0139527	80,0
     41,6075	   0,0139293	77,4	   0,0140769	79,3
     41,6095	   0,0139196	78,4	    0,013977	78,1
     41,6114	   0,0138742	79,4	   0,0139259	78,8
     41,6134	   0,0139607	78,6	   0,0140351	76,3
     41,6153	   0,0139519	80,2	   0,0141345	77,3
     41,6173	   0,0140165	79,3	   0,0139976	79,9
     41,6193	   0,0140918	79,5	   0,0140323	78,5
     41,6212	   0,0141512	79,2	   0,0140645	79,1
     41,6232	   0,0140771	76,9	   0,0142129	76,9
     41,6251	   0,0140719	79,0	     0,01424	76,2
     41,6271	   0,0142402	77,7	   0,0142575	79,2
      41,629	   0,0142457	78,9	   0,0142198	77,8
      41,631	   0,0142389	78,0	   0,0142148	80,0
     41,6329	    0,014226	76,7	   0,0143414	79,6
     41,6349	   0,0141724	78,6	   0,0142944	78,5
     41,6369	   0,0142351	77,8	   0,0142556	79,9
     41,6388	   0,0143839	78,5	    0,014318	77,9
     41,6408	    0,014482	79,2	   0,0143882	80,1
     41,6427	   0,0143639	78,2	   0,0144072	80,5
     41,6447	   0,0142634	79,8	   0,0143769	79,2
     41,6466	   0,0143882	77,9	   0,0143535	78,3
     41,6486	   0,0143995	80,1	   0,0144597	76,8
     41,6505	   0,0144331	80,0	   0,0145026	79,7
     41,6525	   0,0144582	79,9	   0,0145776	78,7
     41,6544	   0,0144439	80,5	   0,0145573	79,7
     41,6564	   0,0145194	77,6	   0,0145903	79,9
     41,6584	   0,0144845	79,2	   0,0146352	77,6
     41,6603	   0,0145237	78,6	   0,0147208	78,4
     41,6623	    0,014529	78,8	   0,0147429	79,4
     41,6642	   0,0146466	81,1	   0,0147058	79,3
     41,6662	   0,0146687	79,0	   0,0146588	80,4
     41,6681	   0,0146617	79,8	   0,0147201	77,8
     41,6701	    0,014687	79,6	   0,0147804	78,0
      41,672	   0,0146373	78,8	   0,0148031	78,4
      41,674	   0,0146735	79,3	   0,0147633	77,9
      41,676	   0,0147538	78,8	   0,0147998	79,8
     41,6779	   0,0148098	79,5	   0,0149264	79,5
     41,6799	   0,0148103	78,3	    0,014999	81,3
     41,6818	   0,0147357	77,7	   0,0149575	80,1
     41,6838	   0,0148695	81,2	   0,0149115	78,6
     41,6857	   0,0150051	79,9	   0,0149417	80,1
     41,6877	   0,0150042	79,8	   0,0150079	79,2
     41,6896	   0,0149268	80,6	    0,015004	80,3
     41,6916	   0,0148824	77,8	   0,0150811	80,6
     41,6936	   0,0149009	80,3	   0,0150658	78,9
     41,6955	   0,0149646	78,2	   0,0150963	79,5
     41,6975	   0,0150756	79,2	    0,015128	78,3
     41,6994	   0,0151517	79,5	   0,0151262	78,7
     41,7014	   0,0151946	78,5	   0,0151602	80,6
     41,7033	   0,0151424	78,2	   0,0152617	79,0
     41,7053	   0,0151219	79,0	   0,0153291	80,4
     41,7072	   0,0151796	77,7	   0,0152902	80,5
     41,7092	   0,0152276	81,2	   0,0152586	78,7
     41,7111	   0,0152408	79,8	   0,0152699	80,0
     41,7131	   0,0152521	80,3	   0,0153462	78,8
     41,7151	   0,0153862	77,8	   0,0154353	81,6
      41,717	   0,0153069	77,8	   0,0155391	80,7
      41,719	   0,0153802	81,0	   0,0155174	78,3
     41,7209	    0,015406	79,1	   0,0154622	81,1
     41,7229	    0,015414	81,7	    0,015442	79,0
     41,7248	   0,0154633	81,3	   0,0154467	78,9
     41,7268	   0,0155614	79,9	   0,0155841	79,6
     41,7287	   0,0155472	80,1	   0,0156659	79,9
     41,7307	   0,0154655	80,2	   0,0157178	80,2
     41,7327	   0,0154761	80,6	   0,0156998	79,8
     41,7346	   0,0155819	81,1	   0,0156994	79,4
     41,7366	   0,0156558	80,3	    0,015784	80,2
     41,7385	   0,0157041	81,0	   0,0158773	80,0
     41,7405	   0,0157237	79,8	   0,0158422	81,6
     41,7424	   0,0156337	79,5	    0,015827	79,8
     41,7444	   0,0156431	82,0	   0,0158449	79,1
     41,7463	   0,0157672	80,0	   0,0158445	80,4
     41,7483	   0,0158323	80,6	   0,0159155	79,6
     41,7502	   0,0159017	81,1	   0,0159484	81,5
     41,7522	   0,0158745	80,2	     0,01604	81,2
     41,7542	   0,0159274	80,9	   0,0160337	80,4
     41,7561	   0,0160032	79,3	   0,0160156	81,4
     41,7581	   0,0159892	79,0	   0,0161131	81,8
       41,76	   0,0160213	79,5	   0,0161255	79,6
      41,762	   0,0160353	80,4	   0,0161749	80,0
     41,7639	   0,0159935	81,8	   0,0162111	80,0
     41,7659	   0,0160441	81,6	   0,0162205	82,1
     41,7678	   0,0161411	78,8	   0,0162333	82,3
     41,7698	   0,0162385	81,5	   0,0161701	79,4
     41,7718	   0,0162309	80,0	   0,0162848	80,8
     41,7737	   0,0161583	82,7	   0,0164796	78,8
     41,7757	   0,0162843	82,1	   0,0165446	78,9
     41,7776	   0,0162907	80,1	    0,016566	81,1
     41,7796	   0,0163574	81,3	   0,0164824	80,7
     41,7815	   0,0164127	80,1	   0,0164959	80,7
     41,7835	   0,0164779	79,6	    0,016505	82,4
     41,7854	   0,0163935	81,6	    0,016543	81,4
     41,7874	   0,0164122	80,5	   0,0166324	80,3
     41,7893	   0,0164156	82,1	   0,0166318	81,4
     41,7913	   0,0164623	82,5	   0,0166998	80,6
     41,7933	   0,0165575	80,5	   0,0166607	81,6
     41,7952	    0,016607	81,5	   0,0167541	80,6
     41,7972	   0,0167419	80,5	   0,0167844	81,1
     41,7991	   0,0167489	80,9	     0,01676	81,9
     41,8011	   0,0167171	82,3	   0,0168514	80,4
      41,803	   0,0167198	82,2	   0,0168509	83,3
      41,805	   0,0167165	82,1	   0,0169563	80,8
     41,8069	    0,016724	82,1	   0,0170507	80,5
     41,8089	   0,0168233	81,7	   0,0170934	82,3
     41,8109	   0,0169659	82,1	   0,0170331	82,0
     41,8128	   0,0169747	82,2	   0,0169952	81,0
     41,8148	    0,016926	82,5	   0,0170594	81,1
     41,8167	   0,0169164	83,8	   0,0171325	80,8
     41,8187	   0,0169217	81,2	   0,0171811	81,8
     41,8206	   0,0170254	81,9	   0,0172529	82,9
     41,8226	   0,0170297	81,5	   0,0172238	83,0
     41,8245	   0,0171103	82,7	   0,0172892	82,8
     41,8265	   0,0171215	83,3	    0,017336	83,7
     41,8284	   0,0171682	82,2	   0,0172957	80,3
     41,8304	   0,0171874	81,7	   0,0173225	81,7
     41,8324	    0,017213	81,4	   0,0174438	81,1
     41,8343	   0,0172344	80,6	   0,0175162	80,2
     41,8363	   0,0173832	81,2	   0,0176299	82,9
     41,8382	   0,0175251	82,8	   0,0176095	82,7
     41,8402	   0,0174286	81,5	   0,0175608	83,1
     41,8421	   0,0174935	83,9	   0,0176581	83,7
     41,8441	   0,0175762	82,5	   0,0176886	80,9
      41,846	   0,0176275	81,7	   0,0177394	81,2
      41,848	    0,017551	82,7	   0,0177445	82,5
       41,85	   0,0177106	80,5	   0,0177274	81,3
     41,8519	   0,0176698	80,7	      0,0178	83,7
     41,8539	   0,0177423	84,2	   0,0178252	83,0
     41,8558	   0,0177955	82,2	   0,0179622	82,4
     41,8578	   0,0178149	83,7	   0,0180232	83,2
     41,8597	   0,0177029	84,2	   0,0180714	81,1
     41,8617	   0,0177105	81,5	    0,018077	81,5
     41,8636	   0,0177789	83,2	   0,0181064	83,3
     41,8656	   0,0179533	81,0	   0,0180867	82,2
     41,8675	   0,0179359	81,4	   0,0180623	84,6
     41,8695	   0,0180667	85,3	   0,0181637	84,1
     41,8715	   0,0180849	84,3	   0,0182597	81,9
     41,8734	   0,0181737	83,0	   0,0183403	84,1
     41,8754	   0,0181484	84,7	   0,0183862	82,6
     41,8773	   0,0181803	81,3	    0,018359	80,9
     41,8793	   0,0182088	82,6	    0,018415	83,8
     41,8812	   0,0182531	82,9	   0,0185151	82,8
     41,8832	   0,0182611	83,1	    0,018554	83,5
     41,8851	   0,0182634	85,2	   0,0186737	84,4
     41,8871	   0,0183554	83,2	   0,0186857	83,3
     41,8891	    0,018366	83,8	   0,0186607	83,0
      41,891	   0,0184661	84,0	   0,0186513	83,6
      41,893	   0,0184559	81,8	   0,0186006	82,3
     41,8949	   0,0185648	82,3	   0,0186484	81,5
     41,8969	   0,0186325	85,1	   0,0187779	84,5
     41,8988	    0,018588	82,4	   0,0188032	83,5
     41,9008	   0,0186442	85,6	   0,0188766	84,8
     41,9027	     0,01869	85,0	   0,0189214	85,4
     41,9047	   0,0187754	83,8	   0,0191017	82,5
     41,9066	    0,018897	85,0	   0,0191688	83,6
     41,9086	   0,0188757	84,5	   0,0191722	83,4
     41,9106	   0,0188756	82,9	   0,0192653	82,3
     41,9125	   0,0189312	83,8	   0,0193009	85,6
     41,9145	   0,0190588	84,9	   0,0193168	83,7
     41,9164	    0,019138	84,0	   0,0193148	84,8
     41,9184	   0,0192557	85,8	   0,0193496	85,7
     41,9203	   0,0192379	85,6	   0,0193938	82,5
     41,9223	    0,019187	83,9	   0,0194939	83,3
     41,9242	   0,0191587	84,3	   0,0195112	84,7
     41,9262	   0,0192473	83,8	   0,0195088	84,1
     41,9282	   0,0193861	84,6	   0,0195608	84,5
     41,9301	   0,0194653	85,6	    0,019652	85,3
     41,9321	   0,0195106	85,0	   0,0197332	84,5
      41,934	   0,0195033	86,1	   0,0197579	85,2
      41,936	   0,0195689	86,0	   0,0198451	85,0
     41,9379	   0,0196383	82,0	   0,0198675	84,0
     41,9399	    0,019716	85,4	   0,0199626	84,6
     41,9418	   0,0198769	84,7	    0,020007	84,7
     41,9438	   0,0198834	82,7	   0,0200518	83,7
     41,9457	   0,0198503	86,8	   0,0201907	85,0
     41,9477	   0,0199011	85,7	   0,0201775	85,8
     41,9497	    0,019899	85,6	   0,0201886	85,7
     41,9516	   0,0199971	86,5	   0,0202722	87,5
     41,9536	   0,0200542	84,1	   0,0203203	87,2
     41,9555	   0,0201053	84,2	   0,0204249	84,1
     41,9575	   0,0201838	85,4	   0,0205006	85,6
     41,9594	   0,0201735	85,2	   0,0204658	83,7
     41,9614	    0,020276	83,5	   0,0205729	84,6
     41,9633	   0,0202395	87,7	   0,0205998	87,8
     41,9653	   0,0203041	86,3	   0,0206549	86,2
     41,9673	   0,0203888	86,0	   0,0206664	86,6
     41,9692	   0,0204707	87,6	    0,020787	86,8
     41,9712	   0,0205494	84,9	   0,0209244	84,8
     41,9731	   0,0205653	84,5	   0,0209405	85,4
     41,9751	   0,0205897	86,5	   0,0209239	86,6
      41,977	   0,0206533	85,3	   0,0210711	84,5
      41,979	   0,0207145	87,7	   0,0212066	88,1
     41,9809	   0,0207548	87,6	   0,0212128	87,8
     41,9829	   0,0207977	86,5	    0,021188	86,6
     41,9848	   0,0207856	86,4	    0,021302	88,0
     41,9868	   0,0208829	85,7	   0,0212926	88,4
     41,9888	   0,0209888	85,4	   0,0213397	85,2
     41,9907	   0,0210682	88,6	   0,0213468	85,9
     41,9927	   0,0211392	86,3	   0,0214251	86,9
     41,9946	   0,0211787	85,8	   0,0214577	85,6
     41,9966	   0,0212238	87,1	   0,0216562	87,3
     41,9985	   0,0213776	87,1	   0,0217946	87,7
     42,0005	   0,0214557	87,4	   0,0218313	87,6
     42,0024	   0,0215069	88,4	    0,021813	88,2
     42,0044	   0,0215592	88,6	   0,0218247	87,8
     42,0064	   0,0216186	87,3	   0,0218308	87,0
     42,0083	   0,0216639	87,3	   0,0219014	87,8
     42,0103	   0,0217557	86,2	   0,0220805	87,7
     42,0122	   0,0217442	86,6	     0,02216	85,9
     42,0142	   0,0218078	90,0	   0,0222622	86,5
     42,0161	     0,02184	88,8	   0,0223852	88,5
     42,0181	    0,021937	89,0	   0,0223958	87,9
       42,02	   0,0220191	89,3	   0,0224819	88,5
      42,022	   0,0221439	86,2	   0,0224874	89,3
     42,0239	   0,0222127	86,4	    0,022531	86,3
     42,0259	   0,0222282	88,4	   0,0225917	88,1
     42,0279	   0,0222845	87,6	   0,0227201	88,0
     42,0298	   0,0223429	86,8	   0,0227699	87,6
     42,0318	    0,022446	89,5	   0,0227811	89,6
     42,0337	   0,0224686	89,2	   0,0228316	89,2
     42,0357	   0,0225905	89,6	   0,0228628	88,4
     42,0376	   0,0226368	90,8	   0,0230027	87,7
     42,0396	   0,0226803	88,2	   0,0231871	89,8
     42,0415	    0,022766	88,5	   0,0231886	89,6
     42,0435	   0,0228368	88,7	   0,0232855	90,4
     42,0455	   0,0228512	87,7	   0,0234223	90,6
     42,0474	   0,0229693	86,5	   0,0235014	89,0
     42,0494	   0,0230172	91,6	   0,0235425	88,7
     42,0513	   0,0231246	89,2	   0,0236123	90,2
     42,0533	   0,0232437	90,0	    0,023691	87,9
     42,0552	   0,0232541	90,7	   0,0236741	88,2
     42,0572	   0,0233353	89,2	   0,0237214	91,1
     42,0591	   0,0233829	89,5	   0,0237881	88,4
     42,0611	   0,0234633	90,2	   0,0239002	90,9
      42,063	   0,0235422	90,0	   0,0240343	90,3
      42,065	   0,0236839	89,2	   0,0240884	90,0
      42,067	   0,0237261	90,2	   0,0241582	90,0
     42,0689	    0,023766	89,9	   0,0242715	90,9
     42,0709	   0,0238839	89,0	   0,0243119	90,1
     42,0728	   0,0239113	91,4	   0,0243958	89,6
     42,0748	   0,0239401	91,6	   0,0245052	90,1
     42,0767	   0,0240363	91,3	   0,0246801	90,4
     42,0787	    0,024189	92,2	   0,0247694	89,7
     42,0806	   0,0242031	89,0	   0,0248708	93,0
     42,0826	   0,0242626	90,2	   0,0249221	91,3
     42,0846	   0,0243468	90,6	   0,0250376	90,6
     42,0865	   0,0244631	90,5	   0,0251349	91,6
     42,0885	   0,0245557	89,2	   0,0252027	91,5
     42,0904	   0,0246838	93,2	   0,0252955	90,5
     42,0924	   0,0247491	92,4	   0,0253563	91,1
     42,0943	   0,0247929	91,7	   0,0253904	90,3
     42,0963	   0,0248717	93,2	   0,0254767	90,0
     42,0982	   0,0249288	90,8	   0,0255982	93,2
     42,1002	   0,0250708	90,8	   0,0256936	92,9
     42,1021	   0,0251194	92,1	   0,0257717	92,0
     42,1041	   0,0252248	92,2	   0,0258068	94,9
     42,1061	   0,0253153	90,7	   0,0258521	94,5
      42,108	   0,0254016	92,7	   0,0259745	92,0
       42,11	   0,0254321	91,9	   0,0261594	92,2
     42,1119	   0,0253876	92,7	    0,026314	93,4
     42,1139	   0,0255035	92,1	   0,0263976	92,7
     42,1158	   0,0256125	93,9	   0,0265076	93,8
     42,1178	   0,0256994	94,4	   0,0266519	93,8
     42,1197	   0,0257957	93,7	   0,0268376	92,0
     42,1217	   0,0259585	94,2	   0,0269584	92,4
     42,1237	   0,0260427	92,1	   0,0269921	94,5
     42,1256	    0,026134	91,5	   0,0270425	94,8
     42,1276	   0,0262666	93,8	   0,0271051	94,3
     42,1295	    0,026375	93,6	   0,0272211	95,7
     42,1315	   0,0264803	94,5	   0,0273444	93,6
     42,1334	   0,0265933	94,3	   0,0274477	94,0
     42,1354	   0,0266359	94,4	   0,0275598	95,3
     42,1373	   0,0266795	94,1	   0,0276823	96,2
     42,1393	    0,026802	95,8	   0,0278455	93,2
     42,1413	   0,0268911	95,7	   0,0279346	93,6
     42,1432	   0,0270459	95,2	    0,028066	95,6
     42,1452	   0,0271195	94,9	    0,028116	94,6
     42,1471	   0,0271745	93,2	   0,0282495	96,7
     42,1491	   0,0271708	93,9	   0,0282448	96,9
      42,151	   0,0273608	96,7	   0,0284178	95,4
      42,153	   0,0274765	95,6	   0,0285525	95,7
     42,1549	   0,0275993	94,6	   0,0287183	95,7
     42,1569	   0,0276726	97,1	   0,0287904	96,9
     42,1588	     0,02777	96,8	   0,0288392	96,0
     42,1608	   0,0279207	96,0	   0,0289593	97,2
     42,1628	   0,0280134	96,3	   0,0290659	95,2
     42,1647	   0,0282163	96,6	   0,0291289	94,9
     42,1667	   0,0282389	97,6	   0,0293104	97,7
     42,1686	   0,0283899	96,4	   0,0295148	97,0
     42,1706	   0,0284304	97,0	   0,0296603	96,3
     42,1725	    0,028502	96,1	   0,0298038	98,9
     42,1745	   0,0286165	95,2	    0,029866	99,0
     42,1764	   0,0287638	99,1	   0,0300756	97,8
     42,1784	   0,0289245	98,1	   0,0301802	99,0
     42,1804	   0,0290349	98,6	   0,0302624	99,7
     42,1823	   0,0291501	99,8	   0,0303468	97,1
     42,1843	    0,029199	98,1	   0,0304939	97,9
     42,1862	   0,0293033	98,4	   0,0306325	99,3
     42,1882	     0,02943	99,1	   0,0307067	99,6
     42,1901	    0,029509	99,4	   0,0308492	98,0
     42,1921	   0,0295918	100,0	   0,0309739	98,9
      42,194	   0,0297047	98,2	   0,0311906	99,3
      42,196	   0,0298749	99,6	   0,0313666	98,3
     42,1979	   0,0299568	98,4	   0,0314396	99,2
     42,1999	   0,0300999	99,4	   0,0315926	101,4
     42,2019	   0,0302741	100,1	   0,0317238	100,7
     42,2038	   0,0304067	100,0	   0,0319712	100,8
     42,2058	   0,0305025	100,2	   0,0320009	102,1
     42,2077	   0,0306179	100,4	   0,0322458	101,7
     42,2097	   0,0307114	102,3	    0,032368	100,2
     42,2116	   0,0308079	101,2	   0,0325422	101,5
     42,2136	   0,0309597	101,9	   0,0326617	103,1
     42,2155	   0,0310739	102,9	   0,0328081	100,9
     42,2175	   0,0312669	100,4	   0,0329735	100,6
     42,2195	   0,0313312	101,0	   0,0332191	103,3
     42,2214	   0,0315171	102,6	   0,0333447	101,6
     42,2234	   0,0316259	101,6	   0,0334659	104,2
     42,2253	   0,0318416	101,0	   0,0335399	105,1
     42,2273	   0,0319952	102,1	    0,033689	103,5
     42,2292	   0,0322082	101,9	   0,0338357	102,5
     42,2312	   0,0323213	101,6	   0,0339642	105,9
     42,2331	   0,0325157	104,6	   0,0340816	106,1
     42,2351	   0,0326216	105,7	   0,0343184	103,4
      42,237	   0,0326944	103,3	   0,0343556	105,3
      42,239	   0,0328209	104,1	   0,0345806	103,8
      42,241	   0,0329233	104,5	   0,0347254	105,0
     42,2429	   0,0330517	105,0	   0,0349454	104,9
     42,2449	   0,0331959	103,3	   0,0351493	105,4
     42,2468	   0,0332986	104,8	   0,0353581	105,1
     42,2488	   0,0335734	106,2	   0,0355676	105,9
     42,2507	   0,0337451	103,8	   0,0358138	107,9
     42,2527	   0,0338267	104,3	   0,0359335	107,7
     42,2546	   0,0339926	106,1	   0,0359909	107,1
     42,2566	    0,034072	105,4	   0,0361492	107,5
     42,2586	   0,0342599	106,1	   0,0362233	109,8
     42,2605	   0,0343442	106,9	   0,0364099	107,8
     42,2625	   0,0346381	107,8	   0,0364541	108,2
     42,2644	   0,0347993	107,5	   0,0367424	110,1
     42,2664	   0,0349428	109,1	    0,036958	110,4
     42,2683	   0,0350546	110,1	   0,0371397	107,6
     42,2703	   0,0351653	107,7	   0,0372379	109,1
     42,2722	   0,0352687	107,8	   0,0374928	110,3
     42,2742	   0,0353629	110,0	   0,0376795	110,3
     42,2761	   0,0355417	109,2	   0,0378457	109,8
     42,2781	   0,0356784	107,1	   0,0379791	111,1
     42,2801	   0,0357811	108,9	   0,0381345	110,8
      42,282	   0,0359521	108,6	   0,0382775	109,5
      42,284	   0,0360652	108,6	   0,0384055	113,3
     42,2859	   0,0362967	110,4	   0,0386012	112,3
     42,2879	   0,0364555	111,7	   0,0388496	111,4
     42,2898	   0,0366144	110,1	   0,0390601	112,3
     42,2918	   0,0367841	109,4	   0,0392778	115,1
     42,2937	   0,0369094	110,7	   0,0394297	114,5
     42,2957	   0,0371561	112,9	   0,0396014	114,2
     42,2977	   0,0372453	112,7	   0,0397935	113,5
     42,2996	   0,0374127	112,9	   0,0399826	115,3
     42,3016	    0,037569	113,2	   0,0401279	115,5
     42,3035	   0,0376926	113,4	   0,0403066	115,3
     42,3055	   0,0379373	112,8	   0,0404561	116,7
     42,3074	   0,0381127	114,3	   0,0406697	114,7
     42,3094	   0,0382313	115,0	   0,0407955	114,4
     42,3113	   0,0384652	113,4	   0,0410128	117,5
     42,3133	   0,0386115	113,5	   0,0411486	117,5
     42,3153	   0,0388008	115,5	   0,0413849	116,2
     42,3172	   0,0388781	115,6	   0,0415387	116,3
     42,3192	   0,0390116	114,2	   0,0417708	119,5
     42,3211	   0,0392051	115,6	   0,0418458	119,6
     42,3231	   0,0394481	117,0	   0,0420183	118,8
      42,325	    0,039603	115,6	   0,0421462	120,3
      42,327	    0,039765	118,9	    0,042335	121,2
     42,3289	   0,0400175	120,0	   0,0424217	121,1
     42,3309	    0,040202	118,4	   0,0426969	122,2
     42,3328	   0,0403783	118,4	   0,0428352	122,8
     42,3348	   0,0406866	120,8	   0,0430583	121,3
     42,3368	   0,0407833	120,8	   0,0431815	121,1
     42,3387	   0,0408904	118,7	   0,0433212	123,9
     42,3407	   0,0410724	120,0	   0,0433527	124,2
     42,3426	   0,0412732	121,5	   0,0435033	124,3
     42,3446	    0,041444	121,3	    0,043718	123,0
     42,3465	   0,0415487	120,0	   0,0437999	124,3
     42,3485	   0,0416425	121,6	   0,0440453	123,5
     42,3504	    0,041844	121,8	   0,0441743	124,3
     42,3524	    0,041989	121,6	   0,0442102	126,5
     42,3544	   0,0422401	123,2	   0,0443644	125,8
     42,3563	   0,0424379	124,1	   0,0444738	126,0
     42,3583	   0,0424932	124,3	   0,0446815	124,5
     42,3602	   0,0426519	123,2	   0,0448126	125,7
     42,3622	   0,0428457	126,3	   0,0449338	128,0
     42,3641	   0,0430121	126,1	   0,0449336	128,7
     42,3661	   0,0431718	125,1	   0,0451634	128,6
      42,368	   0,0432437	125,7	   0,0453268	129,0
       42,37	    0,043383	125,6	   0,0455189	130,4
     42,3719	   0,0436129	128,4	   0,0456051	129,7
     42,3739	   0,0437959	128,0	    0,045784	131,6
     42,3759	   0,0439124	129,0	   0,0457894	132,3
     42,3778	   0,0439835	130,3	   0,0460067	129,8
     42,3798	   0,0441411	129,5	   0,0460933	131,5
     42,3817	   0,0443062	129,4	   0,0462765	133,0
     42,3837	   0,0443919	130,4	   0,0462896	133,9
     42,3856	   0,0445288	131,9	   0,0464467	131,0
     42,3876	   0,0447086	128,7	   0,0465663	131,8
     42,3895	   0,0448014	129,8	   0,0466058	134,0
     42,3915	   0,0449797	132,5	   0,0467393	134,7
     42,3935	   0,0450675	132,2	   0,0469022	133,0
     42,3954	     0,04521	130,6	   0,0469403	135,0
     42,3974	   0,0452536	131,8	    0,046973	135,6
     42,3993	   0,0454031	133,5	    0,047093	135,1
     42,4013	   0,0455628	133,9	    0,047183	134,2
     42,4032	   0,0456972	133,3	   0,0472614	138,6
     42,4052	   0,0457655	133,8	   0,0472548	137,6
     42,4071	    0,045872	136,3	   0,0473256	137,2
     42,4091	   0,0459806	134,1	   0,0473342	136,2
      42,411	   0,0461076	136,6	   0,0473256	140,0
      42,413	     0,04618	136,6	   0,0473727	139,8
      42,415	   0,0463655	138,5	   0,0474602	139,7
     42,4169	   0,0464898	136,4	   0,0475946	138,6
     42,4189	    0,046542	138,7	   0,0476676	142,4
     42,4208	   0,0466902	139,8	    0,047677	141,8
     42,4228	   0,0467491	140,6	   0,0477293	141,3
     42,4247	   0,0468042	139,3	    0,047773	141,6
     42,4267	   0,0468319	139,1	   0,0478913	143,3
     42,4286	    0,046937	141,7	   0,0479672	143,1
     42,4306	   0,0470737	139,8	   0,0479503	142,8
     42,4326	   0,0470556	141,0	   0,0479216	143,8
     42,4345	   0,0471401	143,2	   0,0479968	145,0
     42,4365	   0,0471889	142,9	   0,0480428	144,8
     42,4384	   0,0473349	143,4	   0,0481613	144,0
     42,4404	   0,0472993	141,7	   0,0481382	145,6
     42,4423	   0,0473263	143,5	   0,0481048	145,9
     42,4443	   0,0474345	143,8	   0,0481132	145,8
     42,4462	   0,0474697	143,2	   0,0481227	145,4
     42,4482	   0,0475464	143,4	   0,0481484	146,5
     42,4501	    0,047514	144,5	   0,0481642	146,1
     42,4521	   0,0476446	145,3	   0,0481521	146,0
     42,4541	   0,0476452	144,8	   0,0481029	147,5
      42,456	   0,0477576	145,4	   0,0480842	149,3
      42,458	   0,0477902	146,6	   0,0481133	148,3
     42,4599	    0,047902	145,8	   0,0481084	146,9
     42,4619	   0,0478587	146,1	   0,0480477	148,0
     42,4638	   0,0478302	149,4	   0,0480873	151,3
     42,4658	   0,0478634	149,4	   0,0481127	150,4
     42,4677	   0,0478938	149,5	   0,0481303	150,1
     42,4697	   0,0480286	148,8	    0,048152	151,3
     42,4717	   0,0480904	151,4	    0,048157	152,4
     42,4736	    0,048051	151,8	   0,0481334	151,3
     42,4756	   0,0480958	150,0	   0,0480155	153,2
     42,4775	   0,0481548	150,7	   0,0480245	153,0
     42,4795	    0,048062	153,4	   0,0480862	154,4
     42,4814	   0,0479717	153,7	   0,0480197	153,1
     42,4834	   0,0479234	152,3	   0,0480538	155,3
     42,4853	   0,0479834	152,4	   0,0480337	156,1
     42,4873	   0,0480045	155,8	   0,0479198	155,7
     42,4892	   0,0480589	155,8	   0,0478499	155,6
     42,4912	   0,0480744	153,5	   0,0477506	154,2
     42,4932	   0,0480499	154,9	    0,047696	158,3
     42,4951	   0,0480522	156,6	   0,0476838	157,1
     42,4971	   0,0479815	158,6	   0,0476453	156,4
      42,499	   0,0478487	155,5	   0,0476307	158,0
      42,501	   0,0478309	156,8	   0,0476587	158,8
     42,5029	   0,0477776	158,0	   0,0475733	158,1
     42,5049	   0,0477974	158,9	   0,0475171	158,3
     42,5068	   0,0478124	155,5	   0,0474772	159,3
     42,5088	   0,0478354	156,6	   0,0474488	159,9
     42,5108	   0,0478283	158,8	   0,0473906	158,5
     42,5127	   0,0477065	160,1	   0,0473091	160,3
     42,5147	   0,0476512	157,1	   0,0473127	160,2
     42,5166	   0,0476396	159,1	   0,0472776	162,1
     42,5186	   0,0476099	160,0	   0,0472394	161,5
     42,5205	    0,047594	159,5	    0,047244	160,4
     42,5225	   0,0475531	158,9	   0,0473048	160,8
     42,5244	   0,0475135	159,7	   0,0471644	162,5
     42,5264	   0,0475099	162,0	   0,0470619	161,4
     42,5283	   0,0473952	162,6	   0,0470083	162,2
     42,5303	   0,0473281	160,9	   0,0469231	162,2
     42,5323	   0,0472356	160,9	   0,0468771	163,4
     42,5342	    0,047152	164,3	   0,0467358	164,9
     42,5362	   0,0471075	163,8	   0,0466306	161,7
     42,5381	   0,0470879	162,3	   0,0466266	162,9
     42,5401	   0,0469495	162,3	   0,0464957	165,8
      42,542	   0,0469278	165,5	   0,0464711	165,8
      42,544	   0,0469525	164,7	   0,0463228	163,8
     42,5459	   0,0468292	164,4	   0,0462604	163,8
     42,5479	   0,0468528	163,6	   0,0461845	167,1
     42,5499	     0,04675	166,9	   0,0460506	167,5
     42,5518	   0,0467062	167,2	   0,0460496	165,8
     42,5538	   0,0465879	166,3	   0,0459497	166,5
     42,5557	    0,046529	166,1	   0,0458752	166,4
     42,5577	    0,046406	168,9	   0,0458072	168,4
     42,5596	   0,0463013	168,9	   0,0457474	168,4
     42,5616	   0,0462534	168,5	   0,0456608	167,6
     42,5635	    0,046258	167,8	   0,0457109	167,0
     42,5655	   0,0461412	168,0	   0,0455267	170,1
     42,5674	   0,0460359	171,1	   0,0454383	168,1
     42,5694	   0,0459912	169,0	   0,0452961	169,1
     42,5714	   0,0457709	170,4	   0,0452458	168,8
     42,5733	   0,0457914	170,4	   0,0451388	171,5
     42,5753	   0,0457538	172,8	   0,0450524	169,5
     42,5772	   0,0457106	171,4	   0,0449239	170,3
     42,5792	   0,0455401	171,4	   0,0447496	169,6
     42,5811	    0,045479	172,2	   0,0446903	172,5
     42,5831	   0,0453473	173,0	   0,0446477	171,9
      42,585	   0,0452364	173,0	   0,0445508	172,0
      42,587	   0,0451534	171,9	   0,0445145	171,8
      42,589	   0,0451088	172,6	   0,0443948	172,3
     42,5909	   0,0449598	174,1	    0,044289	173,0
     42,5929	   0,0448826	174,9	   0,0441825	171,6
     42,5948	   0,0448108	174,3	   0,0439934	172,8
     42,5968	   0,0446882	174,9	   0,0439077	172,2
     42,5987	   0,0446375	174,8	   0,0438871	174,2
     42,6007	   0,0445781	176,3	   0,0437303	174,8
     42,6026	   0,0445025	174,4	   0,0436218	173,7
     42,6046	   0,0443475	175,6	   0,0435146	176,5
     42,6065	   0,0442953	176,4	   0,0434668	175,7
     42,6085	   0,0441527	176,2	   0,0433503	175,9
     42,6105	   0,0440176	176,2	   0,0432169	174,5
     42,6124	   0,0439473	176,3	   0,0431908	175,0
     42,6144	   0,0438338	177,9	    0,043074	178,5
     42,6163	   0,0437745	178,2	   0,0430139	177,1
     42,6183	   0,0436709	178,2	    0,042982	176,5
     42,6202	   0,0435531	177,6	   0,0429628	175,8
     42,6222	   0,0434529	178,5	   0,0428512	178,5
     42,6241	   0,0433274	179,3	   0,0427782	179,0
     42,6261	   0,0431745	179,7	   0,0425888	178,0
     42,6281	   0,0430184	178,7	   0,0424097	178,4
       42,63	   0,0428658	179,4	   0,0423108	178,1
      42,632	   0,0428543	179,2	   0,0421376	179,6
     42,6339	   0,0428023	181,2	    0,042119	178,7
     42,6359	   0,0426621	180,2	   0,0420043	177,9
     42,6378	    0,042544	179,6	   0,0418555	180,3
     42,6398	   0,0424559	181,9	   0,0418041	181,0
     42,6417	   0,0423765	181,6	   0,0417527	179,9
     42,6437	   0,0423382	180,2	   0,0416264	179,9
     42,6456	   0,0422278	180,6	   0,0415596	180,8
     42,6476	   0,0420586	182,6	   0,0415012	180,5
     42,6496	    0,041907	183,5	   0,0413575	181,5
     42,6515	   0,0418344	181,9	   0,0412775	181,8
     42,6535	    0,041757	182,4	   0,0411289	180,4
     42,6554	   0,0416207	183,0	   0,0410327	179,5
     42,6574	   0,0415078	184,1	   0,0408545	183,6
     42,6593	   0,0414281	182,4	   0,0408497	183,0
     42,6613	   0,0413124	182,6	   0,0407954	181,9
     42,6632	   0,0411381	184,1	   0,0407124	181,3
     42,6652	    0,041056	185,3	   0,0405944	184,6
     42,6672	   0,0409496	184,7	    0,040488	183,4
     42,6691	   0,0408862	184,0	   0,0403816	181,2
     42,6711	   0,0406932	183,8	   0,0402774	181,6
      42,673	   0,0405718	185,3	   0,0401211	184,9
      42,675	   0,0405224	185,9	   0,0400415	184,9
     42,6769	   0,0403936	186,3	    0,039931	183,9
     42,6789	    0,040318	184,7	   0,0398567	182,1
     42,6808	    0,040143	186,5	   0,0396853	183,9
     42,6828	   0,0399422	186,9	    0,039553	185,0
     42,6847	   0,0398109	187,8	   0,0394397	185,3
     42,6867	   0,0396687	186,8	   0,0393462	184,5
     42,6887	   0,0395661	185,9	   0,0391619	184,9
     42,6906	    0,039489	187,8	   0,0390496	184,7
     42,6926	   0,0393846	187,9	   0,0389489	186,3
     42,6945	   0,0393263	185,7	   0,0389145	186,1
     42,6965	   0,0392731	187,1	   0,0387965	185,6
     42,6984	   0,0392194	188,5	   0,0387858	185,1
     42,7004	   0,0391209	189,3	   0,0386918	187,0
     42,7023	    0,038968	190,2	   0,0386356	186,9
     42,7043	   0,0387946	187,8	   0,0384182	186,0
     42,7063	   0,0387205	187,7	   0,0383469	185,9
     42,7082	    0,038553	190,3	    0,038319	186,8
     42,7102	   0,0385107	191,5	   0,0381566	189,0
     42,7121	   0,0383419	189,4	   0,0380987	188,8
     42,7141	   0,0382577	189,1	   0,0378515	187,4
      42,716	   0,0380845	190,9	   0,0377538	187,6
      42,718	   0,0379855	192,5	   0,0376098	189,1
     42,7199	   0,0378968	191,9	   0,0376343	190,3
     42,7219	   0,0378324	189,5	    0,037517	188,7
     42,7239	   0,0377122	191,0	   0,0373827	188,3
     42,7258	   0,0375177	193,0	   0,0372044	187,8
     42,7278	    0,037476	192,5	   0,0370897	191,4
     42,7297	   0,0373902	190,0	   0,0369896	189,5
     42,7317	   0,0372805	190,9	   0,0368602	190,6
     42,7336	   0,0371388	193,2	   0,0367698	190,6
     42,7356	   0,0370281	193,3	   0,0366545	191,3
     42,7375	   0,0368868	193,0	   0,0365787	191,2
     42,7395	   0,0367547	192,4	   0,0364869	192,4
     42,7414	   0,0366587	194,6	   0,0363559	190,9
     42,7434	   0,0365513	193,4	   0,0362709	191,5
     42,7454	   0,0364393	194,3	   0,0361191	193,4
     42,7473	   0,0364175	193,8	   0,0360381	193,5
     42,7493	   0,0362826	193,8	   0,0358671	194,3
     42,7512	   0,0361207	193,4	   0,0357411	192,7
     42,7532	    0,036045	192,8	   0,0356702	192,6
     42,7551	   0,0358592	195,6	   0,0355891	194,6
     42,7571	   0,0357972	194,3	   0,0355222	195,2
      42,759	   0,0357016	193,8	   0,0353963	193,7
      42,761	   0,0356516	192,1	    0,035296	193,7
      42,763	   0,0356001	196,1	    0,035208	194,8
     42,7649	   0,0354192	194,2	   0,0350897	194,8
     42,7669	    0,035292	193,4	    0,034898	195,4
     42,7688	   0,0352543	194,0	    0,034937	194,9
     42,7708	   0,0351154	196,0	   0,0347848	195,5
     42,7727	    0,035046	195,3	   0,0346888	194,0
     42,7747	   0,0348762	195,2	   0,0345501	196,4
     42,7766	   0,0347552	194,3	   0,0344376	196,4
     42,7786	   0,0346315	195,3	   0,0343649	194,4
     42,7805	   0,0345229	196,3	   0,0342937	194,0
     42,7825	   0,0344423	196,0	   0,0341085	196,8
     42,7845	   0,0343706	197,1	   0,0339826	196,1
     42,7864	   0,0342329	195,4	   0,0338145	194,8
     42,7884	   0,0340867	195,9	   0,0337596	193,6
     42,7903	   0,0339533	197,3	   0,0337358	194,6
     42,7923	   0,0339133	198,2	   0,0336417	196,6
     42,7942	    0,033835	195,3	   0,0335781	196,5
     42,7962	   0,0336985	196,8	   0,0335526	195,8
     42,7981	   0,0335985	197,8	   0,0334578	196,2
     42,8001	   0,0335451	199,1	   0,0332501	195,2
     42,8021	   0,0334378	197,6	   0,0331244	196,1
      42,804	   0,0333592	198,6	   0,0329745	197,6
      42,806	   0,0332326	197,3	   0,0328514	198,4
     42,8079	   0,0330431	199,6	   0,0327688	195,9
     42,8099	    0,032993	-159,6	     0,03269	197,4
     42,8118	   0,0328506	-159,3	   0,0326056	198,9
     42,8138	   0,0327739	-160,2	   0,0324486	199,4
     42,8157	   0,0325749	-160,6	   0,0323717	199,3
     42,8177	   0,0324144	-161,1	   0,0322818	199,0
     42,8196	   0,0324001	-158,6	   0,0321751	199,1
     42,8216	   0,0323042	-158,8	   0,0320705	199,2
     42,8236	   0,0321283	-160,8	   0,0319734	-159,0
     42,8255	   0,0321078	-160,6	   0,0318902	-159,5
     42,8275	   0,0321074	-158,5	   0,0318443	-160,8
     42,8294	   0,0320474	-159,9	   0,0317006	-160,4
     42,8314	   0,0319268	-159,0	   0,0316663	-159,1
     42,8333	   0,0318501	-159,6	   0,0315395	-157,4
     42,8353	   0,0316833	-158,5	    0,031436	-158,5
     42,8372	   0,0315501	-159,6	   0,0312628	-161,4
     42,8392	    0,031458	-157,7	   0,0312259	-160,1
     42,8412	   0,0313475	-158,2	   0,0310478	-158,7
     42,8431	   0,0311953	-159,3	   0,0310679	-159,5
     42,8451	   0,0311346	-159,7	   0,0310248	-159,2
      42,847	   0,0310703	-157,6	   0,0309398	-159,9
      42,849	   0,0309641	-158,1	   0,0308294	-160,4
     42,8509	   0,0308353	-158,1	   0,0306927	-159,0
     42,8529	   0,0306438	-158,9	   0,0305481	-158,0
     42,8548	    0,030636	-159,3	   0,0304824	-158,7
     42,8568	   0,0305574	-158,3	   0,0304148	-159,9
     42,8587	   0,0305087	-156,7	   0,0304006	-158,3
     42,8607	   0,0304025	-157,5	   0,0302996	-158,6
     42,8627	   0,0303309	-156,3	   0,0301811	-157,6
     42,8646	   0,0302655	-157,4	    0,030015	-157,9
     42,8666	   0,0301338	-156,3	   0,0299338	-157,0
     42,8685	   0,0299708	-155,4	    0,029877	-156,2
     42,8705	   0,0298413	-155,8	   0,0298104	-157,8
     42,8724	   0,0297632	-155,9	   0,0297149	-156,9
     42,8744	    0,029649	-156,6	   0,0296147	-155,7
     42,8763	   0,0296519	-156,9	   0,0294972	-156,9
     42,8783	   0,0295986	-154,2	    0,029443	-156,5
     42,8803	   0,0294682	-154,0	   0,0292928	-156,5
     42,8822	   0,0294203	-154,1	   0,0292166	-155,8
     42,8842	   0,0293009	-155,7	   0,0290456	-154,4
     42,8861	   0,0291972	-157,0	   0,0290438	-154,5
     42,8881	   0,0290226	-153,6	   0,0289084	-156,8
       42,89	   0,0289538	-154,8	   0,0288767	-157,0
      42,892	   0,0288596	-154,9	   0,0287845	-155,6
     42,8939	   0,0287106	-155,7	   0,0286886	-156,1
     42,8959	   0,0286714	-157,2	   0,0285386	-155,2
     42,8979	   0,0285917	-155,8	   0,0284589	-156,3
     42,8998	   0,0284257	-154,5	   0,0284387	-155,6
     42,9018	   0,0284686	-155,4	   0,0283807	-156,9
     42,9037	    0,028305	-156,3	   0,0282704	-155,9
     42,9057	   0,0282848	-155,0	   0,0281769	-153,2
     42,9076	   0,0281156	-154,4	   0,0280943	-152,3
     42,9096	   0,0280601	-153,8	   0,0280165	-155,0
     42,9115	   0,0279915	-153,8	   0,0279641	-154,1
     42,9135	    0,027939	-152,9	   0,0278547	-154,3
     42,9154	   0,0278095	-154,8	   0,0277759	-153,0
     42,9174	   0,0277142	-152,7	   0,0277364	-153,7
     42,9194	   0,0275723	-151,9	   0,0276318	-153,7
     42,9213	   0,0275504	-151,5	   0,0275169	-154,6
     42,9233	   0,0274504	-153,0	   0,0273765	-154,2
     42,9252	   0,0273806	-153,1	   0,0271776	-152,1
     42,9272	   0,0272904	-152,8	   0,0272084	-152,5
     42,9291	   0,0271977	-151,8	   0,0271396	-153,0
     42,9311	   0,0272024	-153,4	   0,0271276	-154,4
      42,933	   0,0271276	-151,7	   0,0271025	-153,9
      42,935	     0,02693	-152,7	   0,0269709	-154,6
      42,937	   0,0268903	-153,8	   0,0268371	-153,9
     42,9389	   0,0268419	-152,8	   0,0267135	-152,5
     42,9409	   0,0267588	-152,8	   0,0265923	-151,6
     42,9428	   0,0266622	-151,9	   0,0265826	-154,4
     42,9448	   0,0265888	-151,3	   0,0264785	-153,1
     42,9467	   0,0264987	-152,6	   0,0263744	-152,0
     42,9487	    0,026385	-152,9	   0,0262998	-151,2
     42,9506	   0,0263265	-151,4	   0,0262021	-150,3
     42,9526	   0,0262263	-149,7	   0,0261163	-150,8
     42,9545	   0,0261107	-150,0	    0,026108	-152,4
     42,9565	   0,0260643	-150,8	   0,0260684	-152,5
     42,9585	   0,0259954	-150,1	   0,0259533	-150,4
     42,9604	   0,0259445	-151,2	   0,0259008	-150,3
     42,9624	   0,0258623	-149,4	   0,0258392	-150,5
     42,9643	   0,0257611	-148,4	   0,0257854	-151,9
     42,9663	   0,0255965	-150,1	   0,0256421	-152,1
     42,9682	   0,0255297	-150,2	   0,0255363	-153,4
     42,9702	   0,0253459	-148,7	   0,0254149	-150,8
     42,9721	   0,0253259	-150,7	   0,0254044	-150,4
     42,9741	   0,0253344	-151,1	   0,0252857	-152,2
     42,9761	   0,0253214	-149,7	   0,0252304	-151,0
      42,978	   0,0252922	-150,3	   0,0251463	-151,8
       42,98	   0,0252331	-152,6	   0,0250897	-150,7
     42,9819	   0,0252129	-151,7	   0,0249515	-150,1
     42,9839	   0,0251434	-148,8	   0,0248947	-148,7
     42,9858	    0,024995	-149,0	   0,0248633	-151,3
     42,9878	   0,0248127	-148,4	   0,0248083	-149,8
     42,9897	   0,0246344	-148,3	   0,0247419	-150,6
     42,9917	   0,0245965	-150,1	    0,024693	-149,7
     42,9936	   0,0244814	-150,3	   0,0245835	-148,9
     42,9956	   0,0243694	-147,6	    0,024488	-148,7
     42,9976	   0,0244017	-148,1	   0,0243767	-149,6
     42,9995	   0,0243033	-149,0	   0,0242798	-150,1
     43,0015	   0,0243137	-149,5	   0,0242493	-151,1
     43,0034	   0,0242635	-147,5	    0,024186	-148,0
     43,0054	    0,024157	-149,3	    0,024109	-149,5
     43,0073	   0,0240786	-147,5	    0,024035	-148,4
     43,0093	   0,0240855	-149,2	   0,0240361	-149,8
     43,0112	    0,024053	-149,4	    0,024004	-149,0
     43,0132	   0,0240667	-148,1	   0,0238633	-150,0
     43,0152	   0,0238085	-148,5	   0,0237345	-148,7
     43,0171	   0,0236546	-148,5	   0,0236052	-147,6
     43,0191	   0,0235848	-146,9	   0,0235337	-146,8
      43,021	   0,0235864	-147,7	   0,0234212	-147,7
      43,023	   0,0234968	-146,4	   0,0234291	-148,6
     43,0249	   0,0234402	-148,2	   0,0233365	-147,7
     43,0269	   0,0233337	-147,6	    0,023389	-148,4
     43,0288	   0,0232727	-146,2	   0,0233388	-146,9
     43,0308	   0,0231694	-146,0	   0,0232838	-147,7
     43,0327	   0,0231329	-145,0	   0,0232195	-147,9
     43,0347	   0,0230488	-145,3	   0,0231728	-148,6
     43,0367	   0,0229659	-148,0	   0,0231008	-148,9
     43,0386	   0,0229659	-148,0	   0,0229898	-148,9
     43,0406	   0,0228901	-146,1	   0,0229478	-146,9
     43,0425	   0,0228678	-147,4	   0,0228095	-145,6
     43,0445	   0,0227944	-146,4	   0,0227267	-145,0
     43,0464	   0,0227026	-147,3	   0,0226594	-148,1
     43,0484	   0,0226751	-147,7	   0,0226369	-147,0
     43,0503	   0,0226163	-148,4	   0,0225998	-146,1
     43,0523	   0,0225436	-146,9	   0,0225323	-146,7
     43,0543	   0,0224513	-145,9	   0,0224321	-145,7
     43,0562	   0,0223754	-145,1	   0,0223737	-146,1
     43,0582	   0,0222863	-142,6	   0,0222827	-147,7
     43,0601	   0,0221911	-145,7	   0,0222976	-147,9
     43,0621	   0,0221505	-146,8	   0,0222373	-148,9
      43,064	   0,0220085	-144,1	   0,0221457	-147,3
      43,066	    0,022003	-144,7	   0,0220893	-146,0
     43,0679	   0,0219899	-144,3	   0,0219795	-146,9
     43,0699	   0,0219228	-145,4	   0,0219292	-144,7
     43,0718	   0,0218682	-146,9	   0,0218414	-146,8
     43,0738	   0,0218509	-148,4	   0,0217795	-146,1
     43,0758	   0,0217432	-145,5	   0,0217752	-145,9
     43,0777	   0,0216558	-146,4	   0,0217253	-146,2
     43,0797	   0,0216082	-143,6	   0,0215927	-145,1
     43,0816	   0,0214866	-145,2	   0,0214076	-146,6
     43,0836	    0,021443	-145,3	   0,0213665	-146,4
     43,0855	    0,021456	-145,9	   0,0213244	-146,2
     43,0875	   0,0213839	-144,8	   0,0212303	-146,5
     43,0894	   0,0213327	-143,8	   0,0212201	-146,2
     43,0914	   0,0212369	-143,9	   0,0212682	-143,6
     43,0934	   0,0211075	-142,8	   0,0212097	-143,8
     43,0953	   0,0209513	-144,0	   0,0212023	-144,3
     43,0973	   0,0208868	-145,6	   0,0211264	-143,6
     43,0992	   0,0208537	-146,6	   0,0210271	-145,5
     43,1012	   0,0208766	-144,8	   0,0209025	-146,3
     43,1031	   0,0208783	-144,7	   0,0208049	-143,4
     43,1051	   0,0208611	-143,9	    0,020726	-144,0
      43,107	   0,0207426	-144,0	   0,0206129	-143,8
      43,109	   0,0207435	-145,3	   0,0206278	-144,5
     43,1109	   0,0206484	-143,8	   0,0206819	-145,1
     43,1129	   0,0205666	-143,6	      0,0206	-146,9
     43,1149	   0,0205036	-142,2	   0,0205208	-144,4
     43,1168	   0,0203894	-142,1	    0,020475	-143,3
     43,1188	   0,0203873	-142,8	   0,0203907	-143,3
     43,1207	   0,0203087	-144,1	   0,0203243	-142,4
     43,1227	   0,0202737	-144,8	   0,0203059	-143,6
     43,1246	   0,0202246	-145,3	   0,0202987	-144,2
     43,1266	   0,0200921	-144,3	   0,0202118	-144,0
     43,1285	   0,0200203	-143,9	   0,0202216	-143,8
     43,1305	   0,0200388	-142,5	   0,0201248	-141,6
     43,1325	   0,0200122	-142,0	   0,0200771	-143,2
     43,1344	    0,019904	-144,1	   0,0200607	-143,4
     43,1364	   0,0198131	-142,2	   0,0199115	-145,7
     43,1383	   0,0198029	-142,4	   0,0198861	-144,3
     43,1403	   0,0197995	-143,7	   0,0197768	-144,3
     43,1422	   0,0198137	-140,8	   0,0197271	-143,4
     43,1442	   0,0197733	-141,0	   0,0195777	-143,0
     43,1461	   0,0196623	-142,1	   0,0195113	-141,9
     43,1481	   0,0195702	-141,8	   0,0194572	-141,5
       43,15	   0,0194125	-143,7	   0,0194667	-142,7
      43,152	    0,019363	-144,0	    0,019458	-144,4
      43,154	   0,0193728	-143,4	   0,0194821	-142,9
     43,1559	   0,0193426	-141,3	   0,0194077	-144,2
     43,1579	   0,0191771	-139,8	   0,0192577	-142,2
     43,1598	   0,0192176	-142,5	   0,0191767	-142,1
     43,1618	   0,0191605	-141,7	   0,0191326	-142,8
     43,1637	   0,0191523	-140,9	   0,0189698	-143,2
     43,1657	   0,0190569	-141,9	   0,0189451	-142,9
     43,1676	   0,0188981	-141,2	   0,0189738	-142,2
     43,1696	   0,0188713	-141,9	   0,0190413	-140,6
     43,1716	   0,0189024	-140,8	   0,0189759	-141,2
     43,1735	   0,0188331	-141,9	   0,0187704	-140,8
     43,1755	   0,0187656	-144,1	   0,0187481	-141,1
     43,1774	    0,018778	-142,7	   0,0187304	-143,4
     43,1794	   0,0187336	-141,0	   0,0187094	-142,7
     43,1813	   0,0186174	-140,9	   0,0186988	-143,8
     43,1833	   0,0184563	-139,7	   0,0185876	-143,2
     43,1852	   0,0184137	-139,4	   0,0185549	-140,4
     43,1872	    0,018455	-139,9	   0,0184459	-141,3
     43,1891	   0,0184699	-141,2	   0,0184643	-139,3
     43,1911	   0,0183627	-141,8	   0,0184442	-141,3
     43,1931	   0,0182633	-143,2	   0,0183478	-141,3
      43,195	   0,0181984	-142,4	   0,0183775	-142,2
      43,197	     0,01824	-141,4	   0,0183647	-139,7
     43,1989	   0,0181673	-139,5	   0,0182276	-142,1
     43,2009	   0,0181658	-140,2	   0,0181141	-142,4
     43,2028	   0,0181762	-138,2	   0,0181072	-140,8
     43,2048	   0,0181534	-140,6	   0,0179744	-141,2
     43,2067	   0,0180106	-140,5	   0,0178547	-142,4
     43,2087	   0,0179283	-139,5	   0,0177844	-141,3
     43,2107	   0,0178632	-142,0	   0,0178159	-138,4
     43,2126	   0,0177638	-139,3	   0,0178149	-139,7
     43,2146	   0,0176914	-140,1	   0,0177497	-139,9
     43,2165	    0,017762	-141,1	   0,0177721	-139,1
     43,2185	   0,0177759	-140,4	   0,0177786	-142,2
     43,2204	   0,0177611	-142,2	   0,0176597	-142,0
     43,2224	   0,0176617	-139,8	   0,0176258	-141,7
     43,2243	   0,0175624	-139,6	   0,0175143	-141,6
     43,2263	   0,0175175	-139,1	   0,0176457	-140,3
     43,2282	   0,0174908	-137,9	   0,0175596	-140,2
     43,2302	   0,0174263	-138,6	   0,0175152	-139,5
     43,2322	   0,0173076	-139,8	   0,0174676	-138,8
     43,2341	   0,0173856	-141,7	   0,0172989	-142,0
     43,2361	   0,0173164	-140,4	   0,0172418	-140,4
      43,238	   0,0172598	-140,3	   0,0171923	-142,6
       43,24	   0,0171807	-140,0	   0,0172809	-140,7
     43,2419	   0,0171035	-138,2	   0,0172217	-140,4
     43,2439	    0,016997	-137,3	   0,0171205	-139,3
     43,2458	   0,0169677	-138,5	   0,0170795	-139,2
     43,2478	    0,016988	-139,8	   0,0169805	-139,1
     43,2498	   0,0169842	-141,2	   0,0169745	-139,7
     43,2517	   0,0169819	-141,2	   0,0169389	-139,5
     43,2537	   0,0168933	-142,1	   0,0168721	-139,5
     43,2556	   0,0168812	-138,3	     0,01689	-141,5
     43,2576	    0,016728	-138,2	   0,0167965	-139,2
     43,2595	   0,0166757	-138,7	   0,0168454	-140,8
     43,2615	   0,0167001	-137,6	   0,0167732	-139,2
     43,2634	   0,0166797	-139,1	   0,0166719	-138,4
     43,2654	   0,0165406	-139,5	   0,0166233	-138,0
     43,2673	    0,016543	-138,2	   0,0166482	-139,2
     43,2693	   0,0165384	-139,2	   0,0166966	-138,9
     43,2713	   0,0165765	-140,6	    0,016557	-138,7
     43,2732	   0,0165474	-138,7	   0,0165817	-139,8
     43,2752	   0,0165071	-138,2	   0,0164346	-138,5
     43,2771	   0,0164113	-138,8	    0,016335	-139,1
     43,2791	   0,0164181	-137,9	   0,0163155	-139,7
      43,281	   0,0163577	-138,4	   0,0162914	-138,4
      43,283	   0,0163505	-138,7	   0,0162337	-139,2
     43,2849	    0,016264	-137,3	   0,0162345	-138,9
     43,2869	   0,0162065	-139,5	   0,0161503	-138,5
     43,2889	   0,0161699	-138,1	    0,016165	-139,4
     43,2908	   0,0160409	-138,2	   0,0161398	-138,3
     43,2928	   0,0160237	-139,8	   0,0161413	-138,1
     43,2947	   0,0159608	-139,7	   0,0160764	-138,5
     43,2967	   0,0159398	-139,4	   0,0159309	-138,3
     43,2986	     0,01593	-140,4	   0,0159417	-139,2
     43,3006	   0,0158902	-137,3	   0,0158891	-139,2
     43,3025	   0,0157963	-137,4	   0,0159373	-138,3
     43,3045	   0,0157046	-135,0	   0,0158938	-139,6
     43,3064	   0,0157573	-137,4	   0,0158522	-136,9
     43,3084	   0,0156907	-137,9	   0,0157845	-138,5
     43,3104	   0,0156823	-139,1	   0,0157562	-136,9
     43,3123	   0,0156212	-138,8	   0,0156594	-138,0
     43,3143	   0,0155755	-139,0	   0,0156055	-138,9
     43,3162	   0,0155897	-137,5	   0,0156517	-138,0
     43,3182	   0,0154937	-135,9	    0,015631	-138,8
     43,3201	   0,0153605	-138,5	    0,015626	-137,8
     43,3221	   0,0153679	-136,6	   0,0155189	-136,7
      43,324	   0,0153517	-137,7	   0,0155228	-137,2
      43,326	   0,0153502	-138,5	   0,0154935	-137,3
      43,328	   0,0153091	-137,8	   0,0154453	-137,0
     43,3299	   0,0152155	-139,0	   0,0153221	-139,3
     43,3319	   0,0151759	-138,2	    0,015268	-138,1
     43,3338	   0,0152087	-137,1	   0,0151782	-139,2
     43,3358	   0,0152128	-137,3	   0,0151418	-138,1
     43,3377	   0,0152389	-134,7	   0,0151001	-137,0
     43,3397	   0,0151737	-136,4	   0,0151118	-137,6
     43,3416	    0,015018	-136,6	   0,0151896	-135,9
     43,3436	   0,0150031	-136,9	   0,0152337	-137,8
     43,3456	   0,0149271	-137,7	   0,0151687	-138,4
     43,3475	   0,0149814	-137,7	   0,0149846	-137,9
     43,3495	   0,0150083	-138,2	   0,0149328	-139,6
     43,3514	    0,015017	-135,4	   0,0148795	-137,6
     43,3534	    0,014981	-136,4	   0,0148555	-136,4
     43,3553	   0,0148132	-135,1	   0,0148279	-136,8
     43,3573	   0,0147278	-135,9	   0,0148586	-136,8
     43,3592	   0,0146963	-136,6	   0,0148069	-137,5
     43,3612	   0,0146978	-138,6	   0,0147471	-137,6
     43,3631	   0,0147461	-136,3	   0,0146318	-136,8
     43,3651	    0,014722	-137,2	   0,0146213	-135,3
     43,3671	   0,0146478	-136,7	   0,0146124	-136,9
      43,369	   0,0146124	-135,8	   0,0146879	-135,9
      43,371	   0,0146118	-137,9	   0,0146427	-137,1
     43,3729	   0,0145276	-135,6	   0,0145202	-135,9
     43,3749	   0,0145445	-136,4	   0,0144625	-138,6
     43,3768	   0,0145046	-135,6	   0,0144602	-136,3
     43,3788	    0,014428	-137,2	   0,0144116	-136,8
     43,3807	   0,0142634	-134,9	    0,014442	-136,3
     43,3827	   0,0142727	-136,7	   0,0143514	-135,8
     43,3847	   0,0142833	-137,4	    0,014303	-136,8
     43,3866	   0,0142967	-136,3	   0,0142293	-135,6
     43,3886	   0,0142226	-137,5	   0,0142241	-135,9
     43,3905	   0,0140847	-136,5	   0,0142661	-138,1
     43,3925	   0,0141607	-137,4	   0,0142664	-138,3
     43,3944	   0,0141435	-135,4	   0,0142036	-137,1
     43,3964	   0,0140889	-134,2	   0,0141477	-137,7
     43,3983	   0,0140098	-135,3	   0,0140938	-135,3
     43,4003	   0,0140159	-135,5	   0,0140063	-135,8
     43,4022	   0,0139577	-136,8	   0,0138887	-135,3
     43,4042	   0,0140402	-138,2	   0,0139014	-135,9
     43,4062	   0,0140278	-136,4	   0,0138613	-136,1
     43,4081	   0,0139372	-138,1	   0,0139351	-138,2
     43,4101	    0,013909	-135,8	   0,0139761	-137,3
      43,412	   0,0138067	-134,3	   0,0139605	-136,8
      43,414	   0,0138113	-134,1	   0,0138656	-135,3
     43,4159	   0,0137953	-134,0	   0,0137864	-135,8
     43,4179	   0,0138288	-135,5	   0,0137123	-134,4
     43,4198	   0,0138132	-136,7	   0,0137033	-136,1
     43,4218	    0,013785	-136,3	   0,0137151	-136,7
     43,4238	   0,0136843	-137,0	   0,0136669	-135,9
     43,4257	   0,0136575	-135,6	   0,0136816	-137,2
     43,4277	   0,0136067	-135,7	   0,0136427	-135,0
     43,4296	   0,0135101	-136,0	    0,013625	-136,4
     43,4316	   0,0133579	-134,7	   0,0136005	-136,5
     43,4335	   0,0134462	-135,6	   0,0134703	-134,4
     43,4355	     0,01343	-135,1	   0,0134092	-135,2
     43,4374	   0,0134679	-134,9	   0,0133845	-135,0
     43,4394	   0,0134747	-136,6	    0,013336	-136,3
     43,4413	   0,0134342	-135,5	   0,0132966	-133,5
     43,4433	   0,0134794	-134,9	    0,013376	-133,4
     43,4453	   0,0133757	-136,0	   0,0133401	-135,4
     43,4472	   0,0131335	-135,4	   0,0133114	-137,2
     43,4492	   0,0131787	-137,2	    0,013232	-136,4
     43,4511	   0,0132292	-137,4	   0,0132443	-137,1
     43,4531	   0,0132533	-133,8	   0,0132028	-135,7
      43,455	   0,0131816	-133,1	   0,0131495	-137,2
      43,457	   0,0131414	-133,9	   0,0130596	-133,9
     43,4589	   0,0131408	-134,5	   0,0130097	-133,7
     43,4609	   0,0130504	-134,8	   0,0130348	-134,1
     43,4629	   0,0130608	-135,8	   0,0131297	-133,9
     43,4648	   0,0130255	-136,1	   0,0131181	-135,6
     43,4668	   0,0130439	-134,3	    0,013018	-136,9
     43,4687	   0,0129979	-135,0	   0,0129002	-135,4
     43,4707	   0,0129216	-134,4	   0,0128332	-136,0
     43,4726	   0,0129787	-135,2	   0,0128702	-134,8
     43,4746	   0,0128843	-133,8	    0,012912	-134,3
     43,4765	   0,0127659	-133,8	   0,0129146	-136,1
     43,4785	   0,0127679	-134,5	   0,0128772	-134,0
     43,4804	   0,0127291	-134,2	   0,0127862	-134,3
     43,4824	   0,0128105	-133,2	   0,0127435	-133,7
     43,4844	   0,0127452	-132,7	   0,0127344	-132,7
     43,4863	   0,0126746	-134,9	   0,0126819	-132,8
     43,4883	   0,0126886	-135,4	   0,0127325	-133,9
     43,4902	   0,0127639	-135,7	   0,0127677	-135,3
     43,4922	   0,0126995	-135,3	   0,0127341	-136,8
     43,4941	   0,0126379	-133,8	   0,0125319	-135,5
     43,4961	   0,0125363	-133,9	   0,0124741	-135,4
      43,498	   0,0125059	-132,2	   0,0124257	-134,9
        43,5	     0,01248	-135,2	   0,0124205	-132,5

