X-Data [Hz]	Piezo (M - Filtered) [mV]	Phase [Deg]	Piezo (M - Filtered) [mV]	Phase [Deg]	
	002: [07-09-24 15:32]		003: [07-09-24 15:35]	
        41,5	     0,14117	-103,5	    0,155936	-104,2
      41,502	    0,144231	-107,2	    0,151237	-106,2
     41,5039	    0,142962	-104,2	    0,146736	-104,5
     41,5059	    0,143851	-102,4	    0,147645	-107,2
     41,5078	     0,14997	-104,5	    0,147885	-101,8
     41,5098	    0,148051	-103,0	    0,147719	-103,9
     41,5117	    0,150545	-106,1	    0,149283	-103,8
     41,5137	    0,148172	-105,8	    0,148842	-103,7
     41,5156	    0,150643	-105,8	    0,149493	-105,6
     41,5176	    0,152038	-106,5	    0,150845	-101,1
     41,5196	    0,152039	-103,4	    0,150872	-103,0
     41,5215	    0,153822	-106,6	    0,149651	-102,5
     41,5235	     0,15062	-103,8	    0,149042	-103,0
     41,5254	    0,153002	-106,7	    0,154453	-105,5
     41,5274	    0,152412	-107,6	    0,153032	-104,0
     41,5293	    0,151703	-103,1	    0,154074	-105,5
     41,5313	    0,156743	-104,4	    0,151866	-102,6
     41,5332	    0,153684	-102,9	      0,1519	-102,9
     41,5352	    0,154268	-105,8	    0,154253	-108,4
     41,5371	    0,149892	-103,4	     0,15226	-103,6
     41,5391	    0,152824	-102,7	    0,154827	-106,5
     41,5411	    0,151182	-102,2	    0,153724	-100,9
      41,543	    0,154095	-101,7	    0,153803	-103,7
      41,545	     0,15274	-106,0	    0,154794	-102,6
     41,5469	    0,151954	-103,0	    0,153484	-103,4
     41,5489	      0,1566	-106,1	    0,154422	-104,4
     41,5508	    0,155391	-104,0	    0,155049	-101,4
     41,5528	    0,155065	-101,9	    0,158241	-105,5
     41,5547	    0,154609	-104,3	    0,157535	-103,2
     41,5567	    0,153832	-102,7	    0,154712	-104,2
     41,5587	     0,15829	-105,7	    0,161493	-103,9
     41,5606	    0,155975	-105,0	    0,156996	-102,4
     41,5626	    0,159168	-104,4	     0,15963	-105,1
     41,5645	    0,158032	-104,5	    0,159809	-103,3
     41,5665	    0,157645	-103,9	    0,156612	-104,3
     41,5684	    0,158544	-106,6	    0,158165	-102,7
     41,5704	    0,156713	-102,6	    0,156969	-101,4
     41,5723	      0,1599	-103,7	    0,156742	-103,7
     41,5743	     0,16018	-104,8	    0,157018	-102,3
     41,5762	    0,159671	-102,8	      0,1578	-101,4
     41,5782	    0,160027	-103,8	    0,160081	-103,2
     41,5802	     0,15719	-102,1	    0,160421	-103,3
     41,5821	    0,161045	-103,4	     0,16305	-104,3
     41,5841	    0,158785	-103,3	    0,160269	-102,1
      41,586	    0,158701	-101,5	    0,161908	-105,0
      41,588	    0,161871	-106,1	    0,162671	-104,6
     41,5899	     0,15862	-102,3	     0,16157	-105,1
     41,5919	    0,163282	-106,2	    0,163747	-106,5
     41,5938	    0,161026	-103,7	    0,159182	-101,5
     41,5958	    0,163062	-102,5	     0,16129	-103,5
     41,5978	    0,163533	-103,9	    0,161522	-101,2
     41,5997	    0,162528	-102,8	      0,1601	-102,2
     41,6017	    0,162055	-104,2	    0,163337	-104,3
     41,6036	      0,1622	-102,8	    0,163247	-102,5
     41,6056	     0,16474	-104,7	     0,16634	-104,0
     41,6075	    0,164435	-104,6	      0,1678	-102,8
     41,6095	     0,16583	-103,8	      0,1671	-104,5
     41,6114	     0,16616	-104,6	     0,16699	-104,7
     41,6134	    0,163607	-100,8	    0,164114	-103,8
     41,6153	    0,167082	-102,1	    0,167277	-106,1
     41,6173	    0,167535	-104,2	    0,168634	-103,3
     41,6193	    0,166495	-102,1	    0,164543	-102,2
     41,6212	    0,169345	-104,1	    0,168481	-104,7
     41,6232	    0,165933	-103,1	    0,168103	-102,7
     41,6251	    0,167607	-103,5	    0,168957	-104,9
     41,6271	    0,167372	-102,3	    0,168465	-101,0
      41,629	    0,167409	-100,7	     0,16675	-101,3
      41,631	    0,169108	-104,8	    0,170138	-102,7
     41,6329	     0,16553	-102,7	    0,168571	-100,8
     41,6349	     0,16945	-105,3	    0,171569	-105,1
     41,6369	    0,168356	-102,8	    0,170377	-101,7
     41,6388	    0,169192	-100,6	    0,169572	-101,9
     41,6408	    0,173456	-103,5	    0,174014	-103,5
     41,6427	     0,16955	-102,1	    0,170856	-100,7
     41,6447	    0,170883	-103,7	     0,17098	-103,3
     41,6466	    0,171489	-104,6	    0,169103	-101,3
     41,6486	    0,170867	-101,4	    0,170156	-103,6
     41,6505	    0,173657	-103,5	    0,173192	-102,3
     41,6525	    0,169909	-100,1	    0,171036	-100,4
     41,6544	    0,172083	-101,0	    0,174226	-104,3
     41,6564	    0,170313	-102,7	    0,175998	-102,0
     41,6584	    0,172376	-100,6	    0,176109	-105,2
     41,6603	    0,173276	-104,0	    0,177785	-105,0
     41,6623	    0,171322	-101,3	    0,176711	-101,9
     41,6642	    0,175972	-102,0	    0,176527	-102,9
     41,6662	    0,175334	-104,8	    0,178014	-102,8
     41,6681	     0,17525	-101,0	    0,175305	-102,6
     41,6701	    0,177064	-103,5	    0,176889	-104,9
      41,672	    0,174009	-100,7	     0,17663	-101,6
      41,674	    0,174572	-102,1	    0,176629	-102,1
      41,676	    0,176305	-101,3	    0,178498	-102,2
     41,6779	    0,175027	-100,3	    0,177852	-100,4
     41,6799	    0,177266	-103,8	    0,183532	-101,9
     41,6818	     0,17428	-102,8	    0,178254	-101,5
     41,6838	    0,178755	-102,6	    0,179383	-104,5
     41,6857	    0,179308	-103,2	    0,179929	-102,9
     41,6877	    0,179377	-102,0	    0,180098	-102,0
     41,6896	     0,18041	-102,5	    0,182082	-102,5
     41,6916	    0,176773	-101,6	    0,182484	-102,3
     41,6936	    0,177657	-100,0	    0,180991	-102,4
     41,6955	     0,17789	-102,8	    0,183079	-103,9
     41,6975	    0,179184	-100,7	    0,180032	-101,8
     41,6994	    0,183188	-103,6	    0,183347	-102,2
     41,7014	    0,181804	-101,5	    0,181062	-99,9
     41,7033	    0,179936	-100,7	    0,183321	-101,2
     41,7053	    0,182398	-103,4	    0,186781	-101,6
     41,7072	    0,181016	-102,8	    0,182865	-99,4
     41,7092	    0,185021	-102,8	    0,184628	-104,8
     41,7111	    0,183834	-103,4	    0,185804	-102,4
     41,7131	    0,183192	-100,4	    0,183782	-102,8
     41,7151	    0,184043	-103,5	    0,186986	-101,6
      41,717	    0,182856	-102,7	    0,188376	-102,1
      41,719	    0,186721	-102,8	    0,187242	-104,0
     41,7209	    0,185895	-102,8	    0,188657	-102,2
     41,7229	    0,186233	-100,6	    0,185255	-100,8
     41,7248	    0,188808	-102,3	    0,184965	-102,2
     41,7268	    0,187897	-102,2	    0,187627	-100,8
     41,7287	    0,189674	-103,2	    0,188418	-99,4
     41,7307	    0,188475	-102,9	    0,191877	-102,5
     41,7327	    0,187292	-100,5	    0,188431	-100,7
     41,7346	    0,189372	-101,6	    0,191593	-103,9
     41,7366	     0,18701	-99,4	    0,192281	-102,1
     41,7385	    0,189438	-98,8	    0,191819	-100,7
     41,7405	    0,189937	-102,3	    0,193378	-101,9
     41,7424	    0,186884	-101,4	    0,188528	-100,7
     41,7444	    0,191464	-101,8	    0,191777	-101,5
     41,7463	    0,191437	-102,0	    0,193549	-101,0
     41,7483	    0,191619	-102,0	    0,191774	-100,5
     41,7502	    0,195442	-101,7	    0,196039	-102,1
     41,7522	    0,190424	-99,7	    0,195551	-100,4
     41,7542	    0,193616	-101,1	    0,193917	-101,2
     41,7561	     0,19191	-101,6	    0,195858	-101,7
     41,7581	    0,193441	-101,1	    0,197301	-101,1
       41,76	    0,194295	-103,6	    0,195668	-102,1
      41,762	    0,193559	-101,3	    0,199239	-104,0
     41,7639	    0,196111	-100,5	    0,195465	-99,0
     41,7659	    0,195539	-101,4	    0,198674	-101,0
     41,7678	    0,196673	-102,3	    0,198409	-99,1
     41,7698	    0,200037	-101,3	    0,196025	-103,1
     41,7718	    0,198831	-103,2	     0,20102	-102,5
     41,7737	    0,197843	-98,7	    0,199959	-101,1
     41,7757	    0,199641	-101,5	    0,200604	-102,6
     41,7776	     0,19711	-99,4	    0,204039	-101,4
     41,7796	    0,199185	-99,0	    0,199994	-98,9
     41,7815	     0,19959	-101,9	    0,199253	-99,9
     41,7835	    0,198653	-100,4	    0,201073	-99,6
     41,7854	    0,200491	-101,6	    0,200365	-98,7
     41,7874	    0,198474	-100,6	    0,205402	-102,8
     41,7893	    0,202254	-100,3	    0,205907	-99,9
     41,7913	    0,203253	-101,0	    0,203615	-101,6
     41,7933	    0,201373	-99,3	    0,205876	-101,6
     41,7952	    0,203413	-100,2	    0,203412	-98,8
     41,7972	    0,202544	-101,0	    0,202648	-99,1
     41,7991	    0,203438	-98,7	    0,207773	-99,9
     41,8011	    0,207022	-100,8	    0,204923	-99,6
      41,803	    0,203592	-99,2	      0,2091	-99,7
      41,805	    0,205726	-100,4	    0,208562	-100,9
     41,8069	    0,207466	-100,6	    0,208267	-102,0
     41,8089	    0,205246	-99,0	    0,211655	-100,9
     41,8109	    0,209013	-99,9	    0,206915	-98,3
     41,8128	    0,209561	-101,5	    0,207595	-100,0
     41,8148	    0,206237	-97,7	    0,209911	-100,0
     41,8167	    0,209183	-97,0	    0,209157	-98,8
     41,8187	    0,206108	-99,7	    0,212059	-101,4
     41,8206	    0,211126	-100,2	    0,211939	-98,7
     41,8226	    0,210806	-101,8	      0,2116	-96,6
     41,8245	    0,209139	-96,7	     0,21464	-100,3
     41,8265	    0,211089	-98,4	    0,213657	-99,1
     41,8284	    0,208706	-98,3	    0,213066	-101,4
     41,8304	    0,209569	-98,3	    0,215504	-101,8
     41,8324	    0,214475	-101,8	    0,212702	-98,9
     41,8343	    0,211507	-100,7	    0,215598	-100,1
     41,8363	      0,2124	-98,5	    0,218091	-99,6
     41,8382	     0,21709	-100,5	    0,217035	-97,5
     41,8402	     0,21407	-100,3	    0,217999	-99,4
     41,8421	    0,217815	-98,2	    0,220223	-98,9
     41,8441	    0,219156	-101,2	     0,21745	-99,8
      41,846	    0,215627	-97,7	    0,219787	-101,0
      41,848	    0,216677	-96,9	    0,218463	-97,4
       41,85	    0,217662	-100,4	    0,218287	-98,9
     41,8519	    0,216652	-99,8	    0,222221	-98,6
     41,8539	    0,221785	-98,0	    0,220489	-98,2
     41,8558	    0,219989	-99,8	    0,222059	-100,0
     41,8578	    0,220133	-97,8	    0,226819	-99,7
     41,8597	    0,220571	-98,7	     0,22325	-99,1
     41,8617	    0,217832	-98,8	    0,223927	-99,7
     41,8636	    0,220952	-98,1	    0,224744	-98,0
     41,8656	    0,221456	-101,4	    0,223778	-97,7
     41,8675	    0,220077	-98,5	    0,227308	-98,3
     41,8695	    0,226385	-97,2	    0,224625	-97,9
     41,8715	    0,225627	-98,2	    0,226245	-100,2
     41,8734	    0,224673	-97,6	    0,230018	-98,6
     41,8754	     0,22622	-97,2	    0,227771	-97,3
     41,8773	    0,222658	-98,7	    0,226608	-99,5
     41,8793	    0,225375	-97,7	    0,230105	-98,1
     41,8812	    0,227428	-98,6	    0,232213	-98,6
     41,8832	    0,226041	-98,1	    0,232192	-98,0
     41,8851	    0,229168	-97,5	    0,235153	-98,3
     41,8871	    0,229122	-99,8	    0,232385	-96,4
     41,8891	    0,228085	-96,5	    0,232855	-98,5
      41,891	    0,230672	-97,4	    0,233186	-96,5
      41,893	    0,228092	-99,0	    0,231285	-97,5
     41,8949	    0,228444	-97,8	    0,233665	-99,4
     41,8969	    0,234348	-97,6	    0,234931	-96,6
     41,8988	    0,231813	-99,0	    0,233799	-96,2
     41,9008	    0,232539	-96,3	    0,238174	-98,1
     41,9027	    0,235669	-97,9	    0,237296	-96,7
     41,9047	    0,233952	-97,6	    0,238356	-98,0
     41,9066	    0,236962	-96,2	    0,241553	-99,0
     41,9086	     0,23846	-97,5	    0,239173	-95,8
     41,9106	    0,234916	-97,4	     0,24008	-98,4
     41,9125	    0,235106	-96,7	    0,243444	-95,5
     41,9145	    0,238578	-97,1	    0,242301	-96,5
     41,9164	    0,238691	-96,8	    0,242899	-97,4
     41,9184	    0,243385	-96,5	    0,244898	-96,8
     41,9203	    0,241593	-97,3	    0,241159	-97,2
     41,9223	    0,239183	-96,2	      0,2429	-97,5
     41,9242	    0,242076	-97,6	    0,246624	-97,2
     41,9262	    0,241334	-96,9	    0,245624	-96,5
     41,9282	    0,241386	-95,3	    0,248178	-97,7
     41,9301	    0,246578	-96,9	    0,249569	-97,6
     41,9321	    0,245891	-97,4	    0,248297	-96,0
      41,934	    0,245393	-94,9	    0,248953	-96,6
      41,936	    0,248542	-96,6	    0,250075	-95,7
     41,9379	    0,246141	-98,0	     0,24909	-96,3
     41,9399	    0,248578	-94,7	    0,254771	-97,9
     41,9418	    0,251505	-97,3	    0,253299	-97,0
     41,9438	    0,249033	-98,5	    0,254089	-97,9
     41,9457	    0,252754	-95,6	     0,25722	-97,4
     41,9477	    0,251834	-97,3	    0,253076	-94,4
     41,9497	    0,250365	-94,5	    0,253013	-94,3
     41,9516	    0,253164	-95,0	    0,260612	-94,9
     41,9536	    0,252866	-96,8	    0,258679	-94,3
     41,9555	    0,252712	-95,4	     0,25893	-97,1
     41,9575	    0,256694	-97,0	    0,262857	-97,0
     41,9594	    0,257389	-96,3	    0,258048	-96,2
     41,9614	    0,253565	-97,3	    0,260263	-96,1
     41,9633	    0,258058	-95,0	     0,26331	-93,5
     41,9653	    0,257906	-96,1	    0,261392	-93,4
     41,9673	    0,259407	-94,9	    0,264358	-95,8
     41,9692	    0,261326	-94,1	    0,266603	-95,9
     41,9712	    0,258288	-95,3	    0,264068	-95,4
     41,9731	    0,258172	-95,4	     0,26589	-95,4
     41,9751	    0,261882	-95,9	    0,267204	-94,8
      41,977	    0,264019	-96,8	    0,268521	-96,0
      41,979	    0,264182	-93,2	    0,273916	-94,5
     41,9809	    0,265376	-95,1	    0,272236	-94,0
     41,9829	    0,263289	-93,3	    0,269118	-93,9
     41,9848	    0,263191	-94,3	    0,274129	-93,9
     41,9868	    0,265541	-96,0	    0,272333	-93,7
     41,9888	    0,265616	-94,7	     0,27156	-95,0
     41,9907	    0,271584	-93,5	    0,272027	-95,6
     41,9927	    0,272272	-96,5	    0,275754	-93,8
     41,9946	    0,266633	-94,0	    0,273925	-94,5
     41,9966	    0,270882	-94,0	    0,278707	-95,2
     41,9985	    0,271243	-94,7	    0,281416	-93,2
     42,0005	    0,271368	-93,2	    0,278066	-93,6
     42,0024	    0,277603	-93,3	     0,27994	-93,5
     42,0044	    0,277515	-93,6	    0,280177	-92,5
     42,0064	    0,275555	-92,4	    0,277622	-92,7
     42,0083	    0,277285	-93,2	    0,284828	-95,0
     42,0103	    0,278766	-95,8	    0,286433	-93,9
     42,0122	    0,277995	-94,0	    0,282479	-94,5
     42,0142	    0,283794	-92,3	    0,286187	-95,0
     42,0161	     0,28218	-93,4	    0,287796	-91,7
     42,0181	    0,280116	-90,9	    0,286839	-92,1
       42,02	    0,284561	-92,0	    0,292591	-94,3
      42,022	    0,281652	-94,5	      0,2908	-92,6
     42,0239	    0,281938	-93,6	    0,288216	-94,0
     42,0259	    0,288074	-93,8	    0,291346	-93,6
     42,0279	    0,286614	-94,7	    0,294119	-92,2
     42,0298	    0,287198	-93,3	    0,290912	-92,3
     42,0318	    0,291727	-92,9	    0,297027	-92,5
     42,0337	    0,291431	-92,8	    0,298058	-91,9
     42,0357	    0,290684	-90,7	    0,294942	-91,7
     42,0376	    0,293552	-90,6	    0,297769	-93,7
     42,0396	    0,291005	-92,0	    0,299122	-90,9
     42,0415	    0,291784	-91,5	    0,298763	-90,3
     42,0435	    0,295779	-93,6	    0,305172	-92,2
     42,0455	    0,294939	-93,9	    0,304203	-90,9
     42,0474	    0,294116	-93,7	    0,304388	-91,1
     42,0494	    0,302028	-90,5	    0,304954	-93,5
     42,0513	    0,300022	-93,3	     0,31139	-92,0
     42,0533	    0,299607	-90,4	    0,306061	-92,2
     42,0552	    0,302004	-90,5	    0,307416	-92,4
     42,0572	    0,300374	-91,3	      0,3097	-90,0
     42,0591	    0,300815	-90,8	    0,308324	-92,4
     42,0611	    0,307661	-91,9	    0,311314	-90,5
      42,063	    0,306904	-91,9	    0,315447	-91,9
      42,065	     0,30686	-91,5	    0,311933	-89,8
      42,067	    0,308455	-91,6	    0,312809	-90,1
     42,0689	    0,306371	-90,7	    0,317256	-90,6
     42,0709	    0,308424	-91,3	    0,316792	-90,3
     42,0728	    0,313054	-90,6	    0,319911	-92,0
     42,0748	    0,312023	-90,2	    0,322615	-92,2
     42,0767	    0,311425	-89,1	    0,320626	-89,1
     42,0787	    0,315629	-88,8	    0,322516	-90,4
     42,0806	    0,313742	-91,6	    0,327147	-88,5
     42,0826	     0,31281	-89,8	    0,323606	-89,0
     42,0846	     0,31673	-89,4	    0,325293	-90,5
     42,0865	    0,319397	-91,1	    0,330292	-89,6
     42,0885	    0,318789	-91,5	    0,331627	-88,9
     42,0904	    0,325007	-88,4	    0,332888	-90,8
     42,0924	    0,325294	-89,7	    0,335508	-90,9
     42,0943	    0,322951	-88,2	    0,331229	-89,5
     42,0963	    0,325813	-87,4	     0,33248	-90,5
     42,0982	    0,325693	-90,3	    0,338616	-88,5
     42,1002	    0,325276	-89,1	    0,338844	-87,8
     42,1021	    0,327205	-87,9	    0,336993	-88,2
     42,1041	    0,332683	-89,7	    0,341768	-87,4
     42,1061	    0,331203	-90,2	     0,34282	-87,2
      42,108	    0,334724	-88,7	     0,33846	-88,4
       42,11	    0,336839	-90,2	    0,344444	-88,9
     42,1119	    0,331648	-87,8	    0,349804	-87,7
     42,1139	      0,3322	-87,8	    0,348302	-87,6
     42,1158	    0,337171	-88,2	     0,35439	-87,9
     42,1178	    0,337741	-87,1	    0,355607	-88,4
     42,1197	    0,341045	-87,0	    0,353227	-88,3
     42,1217	    0,341813	-87,3	    0,354881	-88,1
     42,1237	    0,342364	-88,0	    0,358246	-86,4
     42,1256	    0,342894	-88,9	    0,356784	-85,2
     42,1276	    0,347347	-88,0	    0,360339	-87,3
     42,1295	    0,348748	-87,7	    0,364184	-86,2
     42,1315	    0,349967	-86,1	    0,362527	-86,3
     42,1334	    0,353732	-86,8	    0,361388	-86,0
     42,1354	    0,349444	-86,4	    0,368401	-86,5
     42,1373	    0,350291	-86,2	    0,370061	-85,3
     42,1393	    0,356727	-85,9	    0,369487	-87,0
     42,1413	    0,358544	-85,9	    0,371459	-87,5
     42,1432	    0,356858	-84,7	    0,372882	-85,1
     42,1452	    0,361848	-86,5	    0,372974	-85,3
     42,1471	    0,360243	-87,5	    0,377936	-85,2
     42,1491	    0,358122	-86,3	    0,378839	-84,8
      42,151	    0,364877	-85,2	    0,379146	-84,8
      42,153	     0,36557	-86,1	    0,379338	-84,6
     42,1549	    0,368351	-86,4	    0,385078	-85,5
     42,1569	    0,368528	-83,3	    0,383814	-83,2
     42,1588	    0,371746	-84,6	    0,385858	-85,6
     42,1608	     0,37024	-84,1	     0,38968	-84,5
     42,1628	    0,371915	-83,8	    0,388256	-84,9
     42,1647	    0,376367	-84,8	    0,388954	-85,1
     42,1667	    0,377565	-83,4	    0,395464	-83,6
     42,1686	    0,378636	-83,8	    0,399544	-84,0
     42,1706	    0,381548	-84,2	    0,397541	-83,9
     42,1725	    0,379329	-84,6	     0,40135	-82,4
     42,1745	    0,380262	-84,7	    0,404342	-82,7
     42,1764	    0,390721	-82,4	    0,403853	-82,2
     42,1784	    0,389288	-83,6	    0,408965	-82,5
     42,1804	    0,387395	-81,5	    0,408794	-82,1
     42,1823	    0,390171	-80,7	    0,407572	-82,9
     42,1843	    0,389407	-82,7	    0,409379	-82,7
     42,1862	    0,391113	-81,6	    0,415928	-81,9
     42,1882	    0,396562	-82,4	    0,416029	-80,8
     42,1901	    0,399035	-82,1	    0,415081	-82,6
     42,1921	    0,399942	-81,3	      0,4212	-82,3
      42,194	    0,397241	-81,7	    0,420182	-80,6
      42,196	    0,404282	-82,0	    0,421882	-81,9
     42,1979	    0,404312	-82,9	    0,425221	-81,1
     42,1999	    0,403364	-81,1	    0,430954	-79,6
     42,2019	    0,410575	-81,3	    0,430637	-79,7
     42,2038	    0,408392	-80,3	    0,432822	-80,3
     42,2058	    0,409588	-79,6	     0,43699	-78,8
     42,2077	    0,411725	-79,6	      0,4377	-78,4
     42,2097	    0,417262	-79,2	    0,436327	-79,6
     42,2116	    0,415762	-79,7	    0,445985	-80,0
     42,2136	    0,419099	-78,7	    0,445778	-78,5
     42,2155	    0,423915	-78,0	    0,445917	-79,2
     42,2175	    0,420137	-79,9	    0,450093	-80,5
     42,2195	    0,423775	-78,7	    0,454781	-76,9
     42,2214	    0,430034	-78,7	    0,455201	-78,4
     42,2234	    0,431871	-80,0	    0,459347	-76,8
     42,2253	     0,43122	-79,0	    0,461479	-76,2
     42,2273	    0,434765	-78,0	    0,459374	-76,0
     42,2292	    0,438638	-79,2	    0,460566	-77,4
     42,2312	    0,437335	-79,0	     0,46675	-75,6
     42,2331	    0,444875	-76,6	    0,469369	-74,8
     42,2351	    0,448358	-75,7	    0,469708	-77,1
      42,237	    0,442587	-76,4	    0,470662	-75,4
      42,239	     0,44595	-75,8	    0,476167	-76,5
      42,241	    0,448096	-75,5	    0,477702	-75,0
     42,2429	    0,452782	-75,7	    0,483156	-76,2
     42,2449	    0,451521	-77,2	    0,486935	-75,7
     42,2468	    0,456343	-76,0	    0,487451	-74,7
     42,2488	    0,462124	-75,1	    0,488634	-73,8
     42,2507	    0,461048	-76,1	    0,498579	-73,3
     42,2527	    0,461529	-75,5	    0,498655	-73,1
     42,2546	    0,467512	-75,4	    0,497376	-72,9
     42,2566	    0,470031	-75,7	    0,500673	-73,2
     42,2586	    0,469693	-73,6	    0,503623	-71,1
     42,2605	    0,473504	-73,6	    0,503268	-71,9
     42,2625	    0,474751	-72,5	    0,502258	-71,4
     42,2644	    0,476346	-72,5	    0,510755	-71,2
     42,2664	    0,483497	-71,5	     0,51492	-70,8
     42,2683	    0,486068	-70,9	    0,512981	-72,4
     42,2703	    0,482551	-72,2	    0,515202	-70,8
     42,2722	    0,483876	-71,9	    0,523661	-70,6
     42,2742	    0,489266	-71,2	    0,524149	-70,0
     42,2761	    0,491963	-72,0	    0,527909	-70,7
     42,2781	    0,491241	-72,7	    0,531315	-69,9
     42,2801	    0,495448	-71,0	    0,530897	-69,0
      42,282	    0,498988	-72,4	    0,532471	-70,3
      42,284	    0,498458	-72,0	    0,538782	-67,9
     42,2859	    0,504941	-70,0	    0,542818	-68,4
     42,2879	    0,507827	-69,6	    0,541569	-68,3
     42,2898	    0,505572	-69,9	    0,545111	-67,4
     42,2918	    0,508161	-70,3	    0,552549	-65,9
     42,2937	    0,512484	-69,2	    0,554654	-66,1
     42,2957	    0,518787	-68,1	    0,553969	-65,6
     42,2977	    0,517364	-67,0	    0,556981	-66,9
     42,2996	    0,519681	-67,0	    0,563063	-64,8
     42,3016	    0,523295	-67,4	    0,563564	-64,5
     42,3035	    0,525727	-66,9	    0,568627	-65,4
     42,3055	    0,526549	-67,3	    0,573095	-64,3
     42,3074	    0,532408	-66,3	    0,572164	-65,1
     42,3094	    0,538005	-65,9	    0,573075	-65,3
     42,3113	    0,537118	-66,2	    0,581897	-63,2
     42,3133	    0,539103	-66,1	    0,584349	-63,3
     42,3153	     0,54623	-65,7	    0,581401	-63,6
     42,3172	    0,545785	-65,5	    0,586034	-63,6
     42,3192	    0,545615	-65,5	     0,59238	-61,4
     42,3211	    0,551674	-64,5	    0,596526	-61,2
     42,3231	    0,553271	-63,4	    0,593387	-61,0
      42,325	    0,554721	-64,5	    0,598484	-59,8
      42,327	    0,561708	-61,6	    0,601029	-58,9
     42,3289	    0,566339	-60,9	     0,60207	-58,7
     42,3309	    0,568035	-62,6	    0,607257	-58,2
     42,3328	     0,56696	-61,4	     0,61119	-57,9
     42,3348	    0,575134	-60,1	    0,612204	-58,5
     42,3368	    0,579602	-60,0	    0,614032	-58,7
     42,3387	    0,574947	-60,9	    0,619198	-56,9
     42,3407	    0,579538	-59,7	    0,619951	-56,7
     42,3426	    0,587512	-59,3	     0,62018	-55,9
     42,3446	    0,588058	-59,5	    0,623329	-57,2
     42,3465	    0,589506	-59,7	    0,624794	-56,1
     42,3485	    0,591174	-58,2	     0,63083	-56,5
     42,3504	      0,5949	-58,7	    0,633125	-55,6
     42,3524	    0,594853	-58,5	    0,634145	-53,9
     42,3544	    0,603049	-57,2	    0,638135	-54,8
     42,3563	    0,606613	-56,6	    0,636131	-53,7
     42,3583	    0,608351	-56,4	    0,639553	-55,2
     42,3602	    0,605132	-56,4	    0,641054	-54,2
     42,3622	    0,613552	-54,3	    0,646365	-52,4
     42,3641	    0,615365	-54,8	    0,646921	-51,5
     42,3661	    0,615205	-54,5	    0,648534	-51,5
      42,368	    0,615192	-53,9	    0,651629	-51,3
       42,37	    0,620707	-54,2	    0,656077	-49,6
     42,3719	    0,625371	-52,0	    0,655614	-50,0
     42,3739	    0,625886	-52,1	    0,659685	-48,8
     42,3759	    0,631333	-51,1	    0,662475	-48,3
     42,3778	    0,632581	-50,2	     0,66251	-49,9
     42,3798	    0,629103	-50,3	    0,662909	-48,1
     42,3817	    0,634352	-50,3	    0,670966	-47,6
     42,3837	    0,639668	-50,2	    0,670477	-46,6
     42,3856	    0,640242	-48,7	    0,668352	-48,6
     42,3876	    0,640368	-51,0	    0,671639	-47,9
     42,3895	    0,644145	-49,6	    0,672374	-46,1
     42,3915	    0,650335	-48,1	    0,678406	-45,4
     42,3935	    0,650652	-48,6	    0,677952	-46,7
     42,3954	    0,650724	-48,8	    0,680656	-45,3
     42,3974	    0,654396	-48,2	    0,683827	-45,1
     42,3993	    0,655341	-46,9	    0,683518	-44,6
     42,4013	    0,658477	-46,4	    0,682184	-45,3
     42,4032	    0,659363	-46,6	    0,689548	-42,0
     42,4052	    0,661645	-46,1	     0,69042	-43,0
     42,4071	    0,664021	-44,0	    0,685639	-42,4
     42,4091	    0,663747	-45,9	    0,686442	-43,6
      42,411	    0,666697	-43,3	    0,690924	-40,6
      42,413	    0,670605	-43,7	    0,691855	-40,8
      42,415	    0,670239	-41,4	    0,690279	-40,0
     42,4169	    0,672251	-43,3	    0,691565	-41,2
     42,4189	     0,67575	-41,4	    0,696684	-38,1
     42,4208	    0,680867	-40,7	    0,696684	-38,6
     42,4228	     0,68189	-39,9	    0,694178	-38,2
     42,4247	    0,679327	-40,2	    0,693581	-38,3
     42,4267	    0,679483	-40,4	    0,703539	-36,9
     42,4286	    0,686346	-38,9	    0,702507	-36,9
     42,4306	     0,68313	-39,8	    0,698129	-37,0
     42,4326	    0,683799	-38,4	    0,698542	-36,0
     42,4345	    0,689826	-37,3	    0,703303	-35,3
     42,4365	    0,689305	-37,4	     0,70478	-35,6
     42,4384	     0,68944	-36,8	    0,701297	-35,7
     42,4404	    0,690487	-38,1	    0,703564	-34,4
     42,4423	    0,692413	-36,5	     0,70759	-34,4
     42,4443	    0,692216	-36,3	    0,706383	-34,2
     42,4462	    0,692163	-36,8	    0,702818	-34,5
     42,4482	    0,696102	-36,6	    0,704486	-33,5
     42,4501	    0,698902	-35,6	    0,708183	-34,0
     42,4521	    0,696105	-34,6	    0,706393	-33,6
     42,4541	    0,696678	-35,1	    0,706239	-32,7
      42,456	     0,70228	-34,5	    0,707452	-31,2
      42,458	    0,704548	-33,5	    0,706346	-31,4
     42,4599	    0,698845	-34,2	    0,705749	-32,6
     42,4619	    0,699983	-33,7	    0,703109	-31,5
     42,4638	    0,704048	-30,7	    0,710783	-29,2
     42,4658	    0,705958	-31,1	    0,711067	-30,1
     42,4677	    0,698769	-30,1	    0,705668	-29,4
     42,4697	    0,702477	-30,7	     0,70734	-28,5
     42,4717	    0,709942	-29,0	    0,711854	-28,0
     42,4736	    0,710261	-28,5	    0,710625	-28,7
     42,4756	    0,703917	-29,4	    0,705752	-26,3
     42,4775	    0,705944	-28,7	    0,706038	-27,0
     42,4795	    0,709003	-26,9	    0,710895	-25,8
     42,4814	    0,708855	-26,8	    0,711124	-26,8
     42,4834	    0,705068	-27,1	    0,707968	-24,4
     42,4853	    0,704154	-27,2	    0,708485	-24,1
     42,4873	    0,711682	-24,7	    0,708745	-24,7
     42,4892	    0,710453	-24,6	    0,706518	-24,3
     42,4912	    0,708036	-26,0	    0,703402	-25,4
     42,4932	    0,708066	-24,8	    0,704858	-22,0
     42,4951	    0,711044	-23,7	    0,705549	-22,9
     42,4971	    0,711263	-21,8	    0,704606	-23,2
      42,499	    0,705665	-23,8	    0,702644	-21,6
      42,501	    0,704335	-22,7	    0,704535	-21,1
     42,5029	     0,70883	-22,5	    0,706381	-22,1
     42,5049	    0,708108	-21,5	     0,70398	-21,6
     42,5068	    0,706563	-24,0	    0,701347	-20,4
     42,5088	    0,705853	-23,2	    0,700617	-20,0
     42,5108	    0,707822	-21,7	    0,702395	-21,6
     42,5127	    0,705854	-20,2	    0,701038	-19,6
     42,5147	    0,705606	-22,3	    0,698717	-19,5
     42,5166	    0,706713	-20,9	    0,702001	-18,3
     42,5186	    0,706955	-20,4	    0,701904	-19,0
     42,5205	    0,705647	-20,8	     0,69998	-19,5
     42,5225	    0,704019	-20,9	    0,701453	-19,2
     42,5244	    0,705677	-20,3	    0,699058	-17,8
     42,5264	    0,706695	-18,5	    0,699203	-18,9
     42,5283	    0,703199	-17,8	    0,699209	-17,9
     42,5303	    0,701412	-18,8	    0,692454	-17,6
     42,5323	    0,701867	-19,0	    0,696178	-16,6
     42,5342	    0,703302	-16,3	    0,693185	-15,6
     42,5362	     0,70096	-16,8	    0,691262	-18,1
     42,5381	    0,697801	-17,1	    0,692057	-16,7
     42,5401	    0,696996	-17,4	    0,691828	-14,8
      42,542	     0,69828	-15,1	    0,692718	-14,8
      42,544	    0,700038	-15,6	    0,687415	-15,9
     42,5459	    0,695279	-15,2	    0,685663	-15,7
     42,5479	    0,696762	-15,9	    0,687645	-13,5
     42,5499	    0,695522	-13,5	    0,688318	-13,2
     42,5518	    0,695694	-13,0	    0,685728	-14,7
     42,5538	    0,690862	-13,2	    0,680616	-13,1
     42,5557	    0,692197	-13,6	    0,680418	-13,3
     42,5577	    0,691504	-11,4	    0,684102	-12,2
     42,5596	    0,688829	-11,1	    0,684825	-12,3
     42,5616	    0,688487	-11,4	    0,677026	-12,0
     42,5635	    0,689882	-12,2	    0,678256	-12,6
     42,5655	    0,689947	-12,3	    0,682453	-10,6
     42,5674	    0,685369	-9,0	    0,680556	-12,3
     42,5694	     0,68208	-10,7	    0,672532	-10,5
     42,5714	    0,683953	-9,8	    0,673743	-10,9
     42,5733	    0,683393	-9,9	     0,67456	-9,2
     42,5753	    0,681975	-7,2	    0,674286	-11,0
     42,5772	    0,681641	-8,5	    0,666731	-9,2
     42,5792	    0,680899	-8,7	    0,664325	-10,0
     42,5811	    0,680419	-8,3	    0,669531	-8,0
     42,5831	    0,676584	-7,1	    0,670542	-8,7
      42,585	    0,673036	-6,8	     0,66226	-7,5
      42,587	    0,675626	-8,0	    0,661888	-7,8
      42,589	    0,675869	-7,6	    0,660586	-7,5
     42,5909	    0,672795	-6,0	    0,663866	-7,6
     42,5929	    0,669399	-4,9	    0,662037	-8,7
     42,5948	    0,670212	-5,8	    0,654435	-6,8
     42,5968	    0,668443	-5,3	    0,652552	-7,4
     42,5987	    0,666554	-5,3	    0,655837	-6,5
     42,6007	    0,665685	-3,5	    0,658603	-5,8
     42,6026	    0,662479	-5,3	    0,650361	-6,0
     42,6046	    0,666928	-4,8	    0,648645	-3,8
     42,6065	    0,664843	-4,1	    0,649905	-4,7
     42,6085	    0,660102	-3,7	    0,647091	-4,1
     42,6105	    0,655308	-3,4	    0,646519	-5,3
     42,6124	    0,659724	-4,0	    0,643545	-4,8
     42,6144	    0,657917	-2,7	    0,645294	-2,2
     42,6163	    0,654251	-1,7	    0,645266	-3,6
     42,6183	    0,652119	-1,5	    0,642762	-3,3
     42,6202	    0,652341	-2,6	     0,64068	-4,0
     42,6222	    0,653598	-1,7	    0,639592	-1,7
     42,6241	    0,647743	-0,7	     0,64108	-1,3
     42,6261	    0,646455	-0,3	     0,64009	-2,2
     42,6281	    0,646425	-1,6	     0,63213	-1,4
       42,63	    0,645274	-0,8	    0,629965	-1,7
      42,632	     0,64128	-0,9	    0,634152	-0,9
     42,6339	    0,640826	 1,1	    0,631706	-1,8
     42,6359	    0,639368	 0,3	    0,630972	-2,3
     42,6378	    0,639525	-0,5	    0,625489	 0,4
     42,6398	    0,637975	 1,3	    0,624072	 0,4
     42,6417	    0,634126	 1,5	    0,627124	-0,7
     42,6437	    0,632962	 0,6	    0,626723	-0,7
     42,6456	    0,633888	 0,6	    0,619912	 0,9
     42,6476	    0,633241	 2,0	    0,618598	 0,6
     42,6496	    0,629492	 3,1	    0,622658	 0,6
     42,6515	    0,629315	 2,3	    0,622661	 1,2
     42,6535	    0,626262	 2,5	    0,613758	 0,7
     42,6554	     0,62619	 2,4	     0,61231	-0,1
     42,6574	    0,624432	 3,6	    0,615071	 2,9
     42,6593	    0,620269	 2,8	    0,615673	 2,1
     42,6613	    0,617652	 2,9	    0,610728	 2,1
     42,6632	     0,62204	 3,2	    0,608261	 1,7
     42,6652	    0,618892	 4,5	    0,610541	 4,0
     42,6672	    0,613353	 5,0	     0,60987	 2,8
     42,6691	    0,611223	 4,3	    0,606817	 1,3
     42,6711	    0,614153	 3,3	    0,604061	 1,8
      42,673	    0,612968	 4,5	    0,600733	 5,0
      42,675	    0,607905	 6,0	    0,599197	 4,5
     42,6769	     0,60544	 6,8	    0,603156	 3,4
     42,6789	    0,608293	 4,3	    0,600053	 1,7
     42,6808	    0,607294	 5,8	    0,593933	 4,3
     42,6828	    0,600085	 6,8	    0,592081	 4,9
     42,6847	    0,596441	 7,6	    0,595121	 4,5
     42,6867	    0,597968	 6,5	    0,593521	 3,7
     42,6887	    0,596545	 5,3	    0,585349	 5,1
     42,6906	    0,593641	 7,2	    0,583243	 5,1
     42,6926	     0,59074	 7,9	    0,588762	 5,5
     42,6945	    0,591835	 5,8	    0,586159	 5,3
     42,6965	    0,591442	 6,7	    0,582401	 5,8
     42,6984	    0,591012	 8,1	    0,581191	 5,4
     42,7004	    0,589081	 8,8	    0,582005	 6,4
     42,7023	    0,585592	10,1	     0,58084	 6,3
     42,7043	    0,584063	 7,9	    0,575788	 6,0
     42,7063	    0,583427	 7,9	    0,575807	 6,1
     42,7082	    0,582743	 9,6	    0,573931	 6,8
     42,7102	    0,581215	10,9	    0,573626	 8,4
     42,7121	     0,57589	 9,8	    0,574906	 8,1
     42,7141	    0,577356	 8,9	    0,570126	 7,5
      42,716	    0,575042	10,1	    0,565516	 7,6
      42,718	    0,571812	12,0	    0,564413	 9,2
     42,7199	    0,571641	11,5	    0,565466	 9,7
     42,7219	    0,567403	10,0	    0,565692	 8,2
     42,7239	    0,569553	11,1	    0,563436	 8,0
     42,7258	     0,56661	12,1	    0,557567	 8,0
     42,7278	     0,56466	11,9	    0,554673	11,3
     42,7297	    0,561752	10,4	    0,558992	 8,8
     42,7317	    0,561051	11,3	    0,557559	 9,8
     42,7336	    0,563643	12,4	    0,550662	10,9
     42,7356	    0,560191	12,4	    0,548981	11,6
     42,7375	    0,554784	13,3	    0,554159	10,0
     42,7395	    0,550959	12,9	    0,552463	11,8
     42,7414	    0,556868	13,6	    0,546444	10,9
     42,7434	    0,555385	12,7	    0,545212	11,8
     42,7454	    0,546684	14,2	    0,544743	12,8
     42,7473	    0,547298	14,2	    0,542792	13,0
     42,7493	    0,549391	13,3	    0,542748	13,4
     42,7512	     0,54722	12,7	     0,53913	12,6
     42,7532	     0,54755	11,8	    0,537792	12,5
     42,7551	     0,53815	15,4	     0,53493	14,0
     42,7571	    0,538212	14,3	    0,534289	14,6
      42,759	    0,540117	13,3	    0,536494	13,1
      42,761	    0,539566	11,7	     0,53433	13,2
      42,763	    0,539678	15,0	    0,529839	15,1
     42,7649	    0,532537	14,4	    0,527441	14,8
     42,7669	    0,532014	13,8	    0,531185	14,5
     42,7688	    0,533116	14,0	    0,531027	13,6
     42,7708	    0,531651	14,9	    0,523002	15,7
     42,7727	    0,531343	14,3	    0,521555	14,1
     42,7747	    0,526293	15,5	    0,523972	15,2
     42,7766	    0,523956	14,3	    0,523387	15,2
     42,7786	    0,527177	14,2	    0,520153	13,9
     42,7805	    0,527243	15,2	    0,519765	13,8
     42,7825	    0,518791	15,9	    0,511869	16,5
     42,7845	    0,517431	17,1	    0,512303	15,7
     42,7864	    0,518912	15,3	    0,513448	14,0
     42,7884	    0,518196	15,0	    0,511423	13,3
     42,7903	    0,513978	16,6	    0,510147	14,2
     42,7923	    0,513765	17,7	    0,505431	16,1
     42,7942	    0,512225	15,3	    0,506064	16,2
     42,7962	    0,511012	16,5	    0,509756	14,6
     42,7981	    0,512099	16,4	    0,508772	15,1
     42,8001	    0,511449	17,8	    0,499154	15,2
     42,8021	    0,503513	17,6	    0,497333	16,4
      42,804	    0,503417	18,6	    0,498701	16,8
      42,806	    0,506517	16,2	    0,499544	17,5
     42,8079	    0,504547	18,3	    0,495681	15,5
     42,8099	    0,503061	19,2	     0,49373	17,3
     42,8118	    0,494481	20,8	    0,490772	18,4
     42,8138	    0,493764	20,1	    0,490618	19,0
     42,8157	    0,496576	18,5	    0,491581	18,0
     42,8177	    0,494713	18,4	    0,491664	17,9
     42,8196	    0,491304	20,6	    0,484219	19,3
     42,8216	    0,489902	20,3	    0,483261	19,5
     42,8236	    0,485532	19,5	    0,484938	19,9
     42,8255	    0,486639	19,3	     0,48549	19,2
     42,8275	    0,490497	20,2	    0,485256	18,0
     42,8294	     0,48842	18,9	    0,478094	19,7
     42,8314	    0,483747	21,3	    0,477618	21,3
     42,8333	    0,480476	20,7	    0,479364	21,1
     42,8353	    0,484562	20,5	    0,478457	20,3
     42,8372	    0,482764	19,2	    0,475725	18,2
     42,8392	    0,476749	22,1	    0,475201	19,2
     42,8412	    0,473088	21,5	    0,470383	21,0
     42,8431	    0,471549	20,4	     0,46727	20,3
     42,8451	    0,474236	20,1	    0,474629	19,2
      42,847	    0,474833	21,1	    0,472839	18,9
      42,849	     0,47391	20,4	     0,46738	19,3
     42,8509	    0,464694	21,6	    0,463646	21,1
     42,8529	    0,462036	21,1	    0,464174	20,8
     42,8548	    0,469559	19,7	    0,462688	20,2
     42,8568	    0,468261	20,3	    0,463395	19,2
     42,8587	    0,469034	22,0	    0,463678	20,7
     42,8607	      0,4612	22,2	    0,456825	21,5
     42,8627	    0,458576	23,7	    0,454709	22,2
     42,8646	    0,462349	22,0	    0,456519	20,8
     42,8666	    0,459879	23,2	    0,456886	21,6
     42,8685	    0,459072	23,1	    0,456486	22,3
     42,8705	    0,452337	24,1	    0,452076	22,4
     42,8724	    0,450697	24,4	    0,449604	23,2
     42,8744	    0,452072	22,4	    0,450436	23,4
     42,8763	    0,452744	22,6	     0,45108	22,0
     42,8783	    0,452597	24,9	    0,449846	22,2
     42,8803	    0,449203	25,6	    0,443108	23,4
     42,8822	    0,445456	25,6	    0,442966	24,4
     42,8842	    0,447437	24,0	    0,443385	24,3
     42,8861	    0,445373	22,9	    0,445035	24,1
     42,8881	    0,446112	25,0	    0,443229	22,2
       42,89	    0,444079	23,7	    0,441691	22,0
      42,892	     0,43667	24,9	    0,434026	24,3
     42,8939	    0,434537	24,5	    0,434599	23,7
     42,8959	    0,439245	22,0	    0,438052	23,4
     42,8979	    0,440714	23,4	    0,434941	21,9
     42,8998	    0,434327	24,5	    0,437878	23,1
     42,9018	    0,433735	24,1	    0,430475	23,2
     42,9037	    0,431992	23,7	    0,428113	24,1
     42,9057	    0,433255	24,7	    0,428611	25,9
     42,9076	    0,432948	24,3	    0,428432	26,8
     42,9096	    0,431212	24,6	    0,429332	24,0
     42,9115	    0,425988	25,8	    0,430138	24,7
     42,9135	    0,422165	26,8	    0,420874	25,8
     42,9154	    0,427071	24,3	    0,420422	26,9
     42,9174	    0,425112	26,2	    0,426383	24,8
     42,9194	    0,423687	26,5	    0,425426	24,9
     42,9213	     0,42199	27,1	    0,419498	25,3
     42,9233	     0,41714	27,3	    0,416625	25,7
     42,9252	    0,417465	26,9	    0,414392	27,6
     42,9272	    0,415703	27,3	     0,41291	26,9
     42,9291	    0,419985	26,8	    0,417769	25,1
     42,9311	    0,419393	25,2	    0,416798	23,7
      42,933	    0,413674	27,5	    0,411915	25,6
      42,935	    0,411724	27,1	     0,41158	25,5
      42,937	    0,410905	26,0	    0,407688	26,3
     42,9389	    0,415135	25,7	    0,408844	26,1
     42,9409	    0,411452	25,3	     0,40771	26,9
     42,9428	    0,406486	27,8	    0,408222	24,7
     42,9448	    0,405512	28,3	    0,405439	26,0
     42,9467	    0,407243	26,7	    0,400231	28,0
     42,9487	    0,405811	26,5	    0,398366	29,1
     42,9506	    0,403946	27,0	    0,401381	27,9
     42,9526	     0,40367	28,8	     0,40163	27,6
     42,9545	    0,401583	28,7	    0,399564	27,4
     42,9565	    0,398271	29,2	    0,399384	27,2
     42,9585	    0,395746	29,8	    0,394002	29,0
     42,9604	     0,40121	27,5	    0,394403	29,2
     42,9624	    0,397471	29,0	     0,39813	27,7
     42,9643	    0,397216	30,0	    0,397822	26,2
     42,9663	    0,390917	30,2	    0,392119	27,7
     42,9682	    0,390311	29,9	    0,390977	26,5
     42,9702	    0,391917	29,5	     0,38622	28,9
     42,9721	    0,391604	27,8	    0,385883	29,2
     42,9741	    0,390503	27,1	    0,390905	26,0
     42,9761	    0,385258	30,3	    0,389845	27,3
      42,978	    0,384706	29,6	    0,384642	28,1
       42,98	    0,389003	26,8	    0,382501	29,6
     42,9819	    0,389222	27,3	    0,381948	29,0
     42,9839	    0,389067	29,3	    0,381935	30,5
     42,9858	    0,386225	29,5	    0,384804	27,6
     42,9878	    0,379525	31,1	    0,383985	28,6
     42,9897	     0,37595	31,4	    0,385138	28,2
     42,9917	    0,378762	29,2	     0,37639	30,3
     42,9936	    0,378817	28,7	    0,375287	30,7
     42,9956	    0,378143	30,5	    0,377906	29,3
     42,9976	    0,377003	30,5	    0,377923	28,6
     42,9995	    0,372083	31,2	    0,374257	29,4
     43,0015	    0,369452	30,2	    0,373659	28,2
     43,0034	    0,376865	30,6	      0,3705	31,3
     43,0054	    0,373551	29,2	    0,368578	30,0
     43,0073	    0,370918	31,0	    0,368886	31,1
     43,0093	    0,371574	29,2	    0,372466	28,6
     43,0112	    0,367973	30,8	    0,372225	29,3
     43,0132	    0,368038	31,4	    0,365455	29,8
     43,0152	    0,368635	29,8	    0,363225	31,3
     43,0171	    0,368871	29,7	    0,361504	31,3
     43,0191	    0,362227	32,5	    0,363221	32,3
      43,021	    0,362462	31,5	    0,363879	30,7
      43,023	    0,361635	32,8	    0,365061	29,9
     43,0249	    0,361539	31,2	     0,35891	32,5
     43,0269	    0,364954	30,6	    0,357827	31,4
     43,0288	    0,363348	31,9	     0,35989	31,6
     43,0308	    0,356056	33,2	    0,358421	30,8
     43,0327	     0,35453	34,5	    0,357975	30,8
     43,0347	    0,352502	34,1	    0,361253	29,9
     43,0367	     0,35494	31,4	    0,359156	29,8
     43,0386	    0,355398	31,3	    0,352902	31,4
     43,0406	    0,356221	32,1	    0,352226	33,3
     43,0425	     0,35479	30,9	    0,352081	32,7
     43,0445	    0,349959	33,0	    0,352511	33,3
     43,0464	    0,348302	32,5	    0,351108	31,3
     43,0484	    0,350188	31,8	    0,352701	32,0
     43,0503	    0,349642	31,1	    0,346468	33,8
     43,0523	    0,352863	31,0	    0,345903	33,5
     43,0543	    0,350814	31,9	    0,347944	32,7
     43,0562	    0,344445	34,0	    0,349178	32,0
     43,0582	    0,343054	35,9	    0,347413	30,6
     43,0601	    0,343876	33,8	    0,345287	30,6
     43,0621	    0,342876	33,1	    0,345315	30,2
      43,064	    0,344245	33,4	    0,340511	32,8
      43,066	    0,343493	33,5	    0,339898	34,2
     43,0679	    0,338138	35,1	    0,341467	31,3
     43,0699	    0,336333	34,4	    0,341915	33,4
     43,0718	    0,339264	32,5	    0,340043	32,0
     43,0738	    0,340086	31,1	    0,339577	32,6
     43,0758	     0,34007	32,6	    0,335361	34,4
     43,0777	    0,339408	31,6	    0,333518	33,7
     43,0797	    0,337166	34,0	    0,333747	33,8
     43,0816	    0,330798	34,4	    0,336087	31,0
     43,0836	      0,3312	34,6	    0,335861	31,6
     43,0855	    0,335905	33,2	    0,333769	31,7
     43,0875	    0,332888	34,6	    0,327786	33,0
     43,0894	    0,333629	34,0	    0,326073	33,5
     43,0914	    0,332658	33,9	     0,32903	35,4
     43,0934	    0,325464	36,6	    0,328339	35,3
     43,0953	     0,32384	35,5	    0,331489	33,8
     43,0973	    0,324299	34,3	    0,331557	33,8
     43,0992	    0,324968	32,7	    0,325503	33,8
     43,1012	    0,327201	33,0	    0,326257	33,2
     43,1031	    0,327857	32,9	    0,320009	36,1
     43,1051	    0,319837	35,9	    0,318646	35,4
      43,107	    0,320678	36,0	    0,322749	34,2
      43,109	    0,324603	33,8	    0,323254	33,5
     43,1109	    0,322398	35,7	    0,322226	33,7
     43,1129	    0,324986	34,0	    0,320737	32,2
     43,1149	    0,322677	35,7	    0,314883	35,0
     43,1168	    0,317228	36,7	    0,316199	36,5
     43,1188	    0,316268	36,1	    0,318574	34,7
     43,1207	    0,317122	35,7	     0,31744	36,0
     43,1227	    0,316373	34,6	    0,319515	34,9
     43,1246	    0,314769	34,5	    0,319589	34,2
     43,1266	    0,316013	33,4	    0,312634	36,2
     43,1285	    0,317075	34,3	    0,311712	36,0
     43,1305	    0,312429	35,9	    0,313556	36,3
     43,1325	    0,311726	36,4	    0,312846	34,9
     43,1344	    0,309664	35,5	    0,312033	35,1
     43,1364	     0,30626	38,0	    0,315051	32,7
     43,1383	    0,312498	35,6	     0,31449	33,6
     43,1403	      0,3128	34,6	    0,306907	35,6
     43,1422	    0,310435	37,3	    0,308467	36,0
     43,1442	    0,308529	37,4	    0,303396	36,7
     43,1461	    0,304988	37,8	    0,308345	35,4
     43,1481	     0,30379	38,0	    0,305788	36,3
       43,15	     0,30577	35,1	    0,305661	36,1
      43,152	    0,304531	34,9	    0,305676	33,6
      43,154	     0,30773	34,0	    0,302049	37,1
     43,1559	    0,305947	36,3	    0,302585	35,5
     43,1579	    0,298104	39,4	    0,300304	36,7
     43,1598	     0,29976	37,1	    0,296953	36,7
     43,1618	      0,2984	38,3	    0,301198	34,8
     43,1637	    0,302807	36,8	    0,300083	34,7
     43,1657	    0,300067	36,7	    0,295951	36,7
     43,1676	    0,300014	36,1	    0,297477	37,3
     43,1696	    0,298676	35,7	     0,29446	38,7
     43,1716	     0,29476	38,5	    0,295008	38,2
     43,1735	    0,293196	37,2	    0,297711	36,1
     43,1755	    0,294419	35,3	    0,295152	36,7
     43,1774	    0,295191	36,7	    0,295302	34,7
     43,1794	    0,295212	38,2	    0,296484	34,8
     43,1813	     0,29803	36,9	    0,291141	35,7
     43,1833	    0,289333	39,2	    0,289253	36,9
     43,1852	    0,289198	39,3	     0,28946	39,5
     43,1872	    0,288324	40,0	    0,288911	36,9
     43,1891	    0,287134	38,9	    0,289684	39,2
     43,1911	    0,288846	36,8	    0,295244	36,0
     43,1931	    0,289034	35,6	    0,292681	36,1
      43,195	    0,288641	34,8	    0,289922	36,8
      43,197	    0,289406	36,1	    0,286154	39,7
     43,1989	    0,290014	37,5	    0,284822	37,6
     43,2009	    0,284083	39,1	    0,286795	35,3
     43,2028	    0,282642	41,2	    0,285584	36,8
     43,2048	    0,285765	38,4	    0,284242	36,7
     43,2067	    0,284129	38,8	    0,284667	36,3
     43,2087	    0,286773	38,3	    0,284985	36,7
     43,2107	    0,284132	35,6	    0,278093	41,1
     43,2126	    0,278326	39,2	    0,277595	39,9
     43,2146	    0,279729	37,9	    0,278945	38,5
     43,2165	    0,276692	39,0	    0,278466	39,5
     43,2185	    0,278887	39,7	    0,284468	34,7
     43,2204	    0,283266	36,5	    0,281874	35,5
     43,2224	    0,280796	38,6	    0,277118	37,2
     43,2243	    0,279739	37,9	    0,278038	37,2
     43,2263	    0,279671	38,2	     0,27508	39,3
     43,2282	    0,273032	41,5	    0,275368	40,4
     43,2302	    0,273302	40,4	    0,277901	38,1
     43,2322	    0,271749	40,1	    0,275624	39,0
     43,2341	    0,271876	38,0	    0,277593	35,9
     43,2361	    0,277114	37,0	    0,276373	36,6
      43,238	    0,275619	37,5	    0,271104	36,6
       43,24	    0,271899	38,2	     0,27481	38,3
     43,2419	    0,271822	39,6	    0,268614	39,7
     43,2439	    0,268501	40,1	     0,26821	40,5
     43,2458	    0,265864	41,2	    0,270641	39,4
     43,2478	    0,265169	39,8	     0,26764	39,8
     43,2498	    0,270188	38,6	    0,270493	37,8
     43,2517	    0,269854	38,4	    0,271154	37,4
     43,2537	     0,27138	35,9	    0,266358	40,2
     43,2556	    0,267272	39,7	    0,266905	38,2
     43,2576	    0,266519	39,7	    0,263548	39,8
     43,2595	    0,261037	40,9	     0,26435	38,7
     43,2615	     0,26234	42,0	    0,263658	40,5
     43,2634	    0,265488	39,6	    0,266395	38,9
     43,2654	    0,262186	40,1	    0,263391	39,8
     43,2673	    0,266783	39,2	    0,267777	38,7
     43,2693	    0,267937	38,5	    0,267393	38,7
     43,2713	    0,267031	36,6	     0,26076	41,4
     43,2732	    0,260967	40,0	    0,259843	40,1
     43,2752	    0,262951	39,7	    0,258383	40,2
     43,2771	    0,258408	40,7	    0,256833	40,4
     43,2791	    0,258484	41,7	    0,261678	37,5
      43,281	    0,264403	40,0	    0,261713	39,1
      43,283	    0,260542	40,7	    0,260556	39,1
     43,2849	    0,262481	39,8	    0,263686	38,7
     43,2869	    0,260334	38,1	    0,255828	41,3
     43,2889	    0,256005	40,8	    0,255747	39,9
     43,2908	    0,256207	40,0	     0,25664	40,9
     43,2928	    0,252411	39,9	    0,255164	41,5
     43,2947	    0,252186	39,8	    0,257072	39,0
     43,2967	    0,257102	38,9	    0,252448	40,2
     43,2986	    0,254931	38,4	    0,258325	38,3
     43,3006	    0,257418	39,9	    0,258673	38,5
     43,3025	    0,256562	39,5	    0,253785	41,3
     43,3045	    0,249245	43,5	    0,252466	39,7
     43,3064	    0,249935	40,9	     0,25014	42,1
     43,3084	    0,249164	41,0	    0,248953	41,5
     43,3104	    0,248224	40,9	    0,252233	40,0
     43,3123	     0,24828	41,1	    0,249777	39,9
     43,3143	    0,253762	39,2	    0,253824	38,5
     43,3162	    0,251166	40,7	    0,251898	39,1
     43,3182	    0,253037	41,4	    0,249008	41,2
     43,3201	    0,251334	38,4	    0,248632	41,7
     43,3221	    0,245534	41,6	    0,246134	42,4
      43,324	    0,246288	40,5	    0,246258	42,2
      43,326	    0,243615	41,7	    0,250067	40,2
      43,328	    0,242664	41,9	    0,245761	41,1
     43,3299	    0,246527	39,6	    0,248672	38,3
     43,3319	    0,245219	40,8	    0,247183	39,1
     43,3338	    0,247938	39,9	    0,243019	39,3
     43,3358	    0,248102	39,9	    0,245456	40,4
     43,3377	    0,244317	43,9	    0,240413	43,1
     43,3397	    0,242015	42,1	    0,242159	41,8
     43,3416	    0,238198	42,8	    0,240792	43,3
     43,3436	    0,239024	42,8	    0,240002	41,9
     43,3456	    0,237336	42,2	    0,243625	38,4
     43,3475	     0,24195	41,0	      0,2418	39,7
     43,3495	    0,242578	40,9	    0,244385	38,8
     43,3514	    0,244216	41,2	    0,242029	39,8
     43,3534	    0,245879	40,6	    0,237976	43,4
     43,3553	    0,236796	43,4	    0,238044	42,5
     43,3573	    0,235117	42,4	    0,236265	42,3
     43,3592	    0,235634	41,3	    0,236577	42,3
     43,3612	    0,233812	41,9	    0,236883	39,8
     43,3631	     0,23346	43,3	    0,235053	40,9
     43,3651	    0,238486	41,5	    0,234377	42,5
     43,3671	    0,236879	42,6	    0,237883	40,3
      43,369	    0,238321	41,1	    0,239246	41,0
      43,371	    0,239302	39,4	    0,237356	41,5
     43,3729	    0,234396	42,2	    0,232594	44,3
     43,3749	    0,236203	40,7	    0,229539	41,2
     43,3768	    0,235744	41,9	    0,230845	42,0
     43,3788	    0,229865	42,7	    0,230222	41,8
     43,3807	    0,228097	45,1	    0,235052	40,3
     43,3827	    0,231663	42,8	    0,232799	41,6
     43,3847	    0,230534	42,1	    0,234975	40,5
     43,3866	       0,235	41,0	     0,23328	41,6
     43,3886	    0,233558	40,4	    0,230805	43,1
     43,3905	    0,228914	40,8	    0,233868	40,3
     43,3925	    0,230342	39,7	     0,23102	40,5
     43,3944	    0,232504	41,3	    0,224361	42,6
     43,3964	    0,225269	45,2	    0,225488	42,8
     43,3983	    0,225563	43,4	    0,224634	43,4
     43,4003	    0,224143	44,4	    0,230236	41,0
     43,4022	     0,22449	43,2	    0,227521	41,5
     43,4042	    0,228581	40,3	    0,226472	41,2
     43,4062	    0,230067	41,8	    0,227755	40,2
     43,4081	    0,228891	38,2	    0,226166	41,2
     43,4101	    0,230468	41,0	     0,22569	41,7
      43,412	    0,223277	43,5	    0,228047	42,1
      43,414	    0,224678	42,9	     0,22214	45,0
     43,4159	    0,220704	45,6	    0,220451	44,7
     43,4179	    0,220714	43,5	    0,222878	43,3
     43,4198	    0,221671	43,2	    0,220997	43,2
     43,4218	     0,22213	43,4	    0,224913	39,8
     43,4238	    0,225997	41,4	    0,224902	41,2
     43,4257	    0,223354	43,0	    0,225276	40,2
     43,4277	    0,225789	41,6	    0,225498	42,1
     43,4296	    0,224422	41,2	    0,221314	43,5
     43,4316	    0,218696	42,8	    0,222265	42,1
     43,4335	    0,219095	41,3	    0,216475	45,0
     43,4355	    0,216676	44,5	    0,214305	44,5
     43,4374	    0,216404	43,5	    0,218882	42,7
     43,4394	    0,217165	43,3	    0,216213	41,7
     43,4413	    0,215873	44,8	    0,215213	45,4
     43,4433	    0,221525	43,5	    0,221047	43,5
     43,4453	    0,219204	43,3	    0,221793	42,2
     43,4472	    0,217616	41,8	    0,221911	40,2
     43,4492	     0,21842	39,7	    0,217296	42,1
     43,4511	     0,21974	39,9	    0,217056	41,8
     43,4531	     0,21634	43,4	    0,213083	44,3
      43,455	    0,219069	44,2	    0,213575	42,4
      43,457	    0,212214	45,6	    0,212337	45,0
     43,4589	    0,213064	43,9	    0,210684	45,4
     43,4609	    0,210653	45,3	    0,210222	45,3
     43,4629	     0,20972	43,6	    0,215226	43,0
     43,4648	     0,21442	42,4	    0,214809	42,0
     43,4668	    0,212842	45,0	    0,216192	40,0
     43,4687	    0,216826	41,7	    0,214765	41,2
     43,4707	    0,215455	42,1	     0,21126	42,4
     43,4726	    0,214778	42,2	     0,21303	43,1
     43,4746	    0,213542	42,2	    0,209084	45,5
     43,4765	    0,207886	45,2	    0,209681	43,9
     43,4785	     0,20785	43,5	    0,208099	44,1
     43,4804	    0,209202	43,5	    0,205565	44,6
     43,4824	    0,207176	46,4	    0,203659	45,3
     43,4844	    0,205337	46,7	    0,209671	43,4
     43,4863	    0,205608	44,7	    0,207946	45,4
     43,4883	    0,204899	44,4	    0,212916	42,7
     43,4902	    0,211102	42,1	    0,212106	42,9
     43,4922	    0,210114	42,3	    0,212953	41,0
     43,4941	    0,211093	42,2	    0,210296	41,3
     43,4961	    0,210618	42,8	    0,203736	44,1
      43,498	    0,204861	45,2	    0,202889	44,0
        43,5	    0,211195	42,2	    0,202124	46,6

