X-Data [Hz]	Laser (M - Filtered) [m/s]	Phase [Deg]	Laser (M - Filtered) [m/s]	Phase [Deg]	
	002: [07-09-24 17:28]		003: [07-09-24 17:31]	
        41,5	  0,00811757	75,1	  0,00832375	74,5
      41,502	  0,00811386	78,5	  0,00836152	76,8
     41,5039	  0,00816784	75,3	  0,00833732	77,1
     41,5059	  0,00810286	77,3	  0,00830865	78,9
     41,5078	  0,00819782	78,0	  0,00822319	76,7
     41,5098	  0,00830403	78,7	  0,00835184	77,0
     41,5117	  0,00836911	80,1	  0,00847329	75,6
     41,5137	  0,00827478	77,4	  0,00857379	78,1
     41,5156	  0,00830714	78,8	  0,00829952	78,0
     41,5176	  0,00837182	76,0	  0,00821578	76,4
     41,5196	  0,00843707	77,3	   0,0083846	74,6
     41,5215	  0,00833566	77,4	   0,0085071	73,9
     41,5235	  0,00836437	77,5	  0,00845119	79,9
     41,5254	  0,00842951	79,0	  0,00832367	77,7
     41,5274	  0,00843001	75,5	  0,00839765	74,9
     41,5293	  0,00841414	76,6	  0,00849715	76,9
     41,5313	  0,00843028	76,2	  0,00856276	76,5
     41,5332	  0,00846189	76,1	  0,00856555	78,4
     41,5352	  0,00845437	75,6	  0,00844259	78,4
     41,5371	   0,0084265	76,6	  0,00852084	79,3
     41,5391	  0,00857127	77,6	  0,00858319	79,2
     41,5411	  0,00844381	75,9	  0,00857759	76,7
      41,543	  0,00839353	80,8	  0,00861704	76,6
      41,545	  0,00849155	80,8	   0,0085553	75,9
     41,5469	  0,00854498	77,9	  0,00855438	76,2
     41,5489	  0,00856295	80,3	  0,00862384	77,6
     41,5508	   0,0086103	75,7	  0,00872293	75,2
     41,5528	  0,00855996	77,9	  0,00858196	77,7
     41,5547	  0,00854014	79,3	  0,00854574	75,5
     41,5567	  0,00851766	78,5	  0,00859876	77,8
     41,5587	  0,00864174	80,6	  0,00865062	77,6
     41,5606	  0,00876509	76,1	  0,00868699	78,6
     41,5626	  0,00863566	76,7	  0,00874581	78,7
     41,5645	  0,00850573	77,4	  0,00874711	75,5
     41,5665	  0,00869338	78,2	  0,00868231	77,8
     41,5684	  0,00878309	77,8	  0,00863202	77,7
     41,5704	  0,00877033	75,7	  0,00866082	77,4
     41,5723	  0,00866571	78,9	  0,00876264	80,3
     41,5743	  0,00867448	76,8	  0,00867418	76,0
     41,5762	  0,00870353	79,4	  0,00871301	76,4
     41,5782	  0,00865379	79,6	  0,00880502	76,9
     41,5802	  0,00871344	77,7	  0,00881267	81,2
     41,5821	  0,00878282	79,5	  0,00882558	80,3
     41,5841	  0,00878506	76,9	  0,00886189	78,4
      41,586	  0,00884522	77,2	  0,00884538	79,1
      41,588	   0,0088062	78,7	  0,00886773	78,2
     41,5899	  0,00874224	77,0	  0,00877523	78,3
     41,5919	  0,00878146	78,9	  0,00881805	78,6
     41,5938	  0,00885734	76,7	  0,00892519	77,6
     41,5958	  0,00891781	75,3	  0,00895338	79,3
     41,5978	  0,00886748	78,4	  0,00897923	75,6
     41,5997	  0,00882519	77,3	  0,00889553	76,2
     41,6017	  0,00890198	80,4	   0,0089221	79,2
     41,6036	  0,00899226	78,7	  0,00888287	77,1
     41,6056	  0,00890646	77,6	  0,00897773	80,4
     41,6075	  0,00888854	79,9	  0,00899203	79,5
     41,6095	  0,00895404	78,3	  0,00904728	77,6
     41,6114	  0,00899202	79,7	  0,00909017	79,4
     41,6134	  0,00904069	77,3	  0,00902894	78,3
     41,6153	  0,00898397	77,9	  0,00908313	78,8
     41,6173	  0,00887469	76,5	  0,00911464	76,5
     41,6193	  0,00900703	77,0	  0,00903993	78,5
     41,6212	  0,00915249	80,0	  0,00908397	76,7
     41,6232	  0,00903137	78,0	   0,0091693	74,2
     41,6251	  0,00906521	78,7	  0,00911021	82,1
     41,6271	  0,00907493	78,3	  0,00909602	78,8
      41,629	  0,00905698	77,7	  0,00915302	79,7
      41,631	  0,00913942	79,1	  0,00915736	79,0
     41,6329	  0,00917124	77,6	  0,00921505	77,4
     41,6349	  0,00918162	78,4	  0,00920654	79,9
     41,6369	  0,00912382	77,2	  0,00922929	76,8
     41,6388	   0,0091695	77,6	  0,00914605	79,0
     41,6408	  0,00922438	77,7	  0,00927781	78,0
     41,6427	  0,00921912	77,3	   0,0093395	77,7
     41,6447	  0,00930161	79,7	  0,00926874	80,0
     41,6466	  0,00924138	80,4	  0,00924241	76,9
     41,6486	  0,00925591	77,1	  0,00933273	80,4
     41,6505	  0,00922801	80,9	   0,0092994	81,4
     41,6525	  0,00930512	76,2	  0,00926347	78,0
     41,6544	  0,00935631	78,9	  0,00936475	79,7
     41,6564	  0,00939985	79,3	  0,00948599	78,8
     41,6584	   0,0094375	77,5	   0,0094842	77,2
     41,6603	  0,00933724	79,9	  0,00940538	79,9
     41,6623	  0,00929691	78,7	  0,00935288	79,1
     41,6642	  0,00932767	76,0	  0,00936989	78,4
     41,6662	  0,00941254	78,9	  0,00944687	78,2
     41,6681	  0,00947702	79,1	   0,0095031	78,4
     41,6701	  0,00948411	80,2	  0,00944272	79,0
      41,672	  0,00951184	82,1	  0,00946148	77,3
      41,674	   0,0094389	77,8	  0,00949798	78,7
      41,676	  0,00945169	81,1	  0,00956043	80,8
     41,6779	  0,00949494	76,5	  0,00957957	79,1
     41,6799	  0,00947046	76,2	  0,00963228	79,5
     41,6818	  0,00954949	80,0	   0,0095499	77,2
     41,6838	  0,00951628	79,2	  0,00958214	77,8
     41,6857	  0,00963846	80,5	    0,009626	79,9
     41,6877	  0,00963377	78,1	   0,0095718	77,5
     41,6896	  0,00954449	80,1	  0,00964613	79,8
     41,6916	   0,0095691	79,7	  0,00969816	81,6
     41,6936	  0,00958879	80,3	   0,0096869	79,0
     41,6955	  0,00968678	81,2	  0,00965702	80,8
     41,6975	  0,00956485	77,3	   0,0096137	76,7
     41,6994	  0,00959918	78,2	  0,00967844	77,8
     41,7014	  0,00963262	81,9	  0,00983666	79,3
     41,7033	  0,00982843	77,9	  0,00983016	79,2
     41,7053	  0,00983762	77,1	  0,00982119	81,7
     41,7072	  0,00975956	80,1	  0,00975813	79,5
     41,7092	  0,00964706	79,5	  0,00975641	79,2
     41,7111	  0,00969226	81,7	  0,00979015	79,8
     41,7131	  0,00983188	80,9	  0,00986322	79,0
     41,7151	  0,00984882	79,9	  0,00990893	81,7
      41,717	  0,00974413	81,1	  0,00995593	76,1
      41,719	  0,00979337	79,3	  0,00994903	78,4
     41,7209	  0,00991439	81,0	  0,00988975	80,3
     41,7229	  0,00998372	83,2	  0,00986598	77,0
     41,7248	  0,00986788	79,3	  0,00992922	81,4
     41,7268	  0,00998089	78,8	  0,00995654	80,2
     41,7287	  0,00996438	78,6	   0,0100214	79,5
     41,7307	  0,00993859	80,5	   0,0100642	82,7
     41,7327	  0,00989561	81,1	   0,0100897	80,9
     41,7346	  0,00992528	80,0	   0,0100764	78,7
     41,7366	  0,00994604	80,0	   0,0100116	80,0
     41,7385	   0,0100101	81,1	   0,0100666	78,5
     41,7405	   0,0100785	77,3	   0,0100892	79,9
     41,7424	   0,0100621	79,0	   0,0100589	80,0
     41,7444	   0,0100591	79,6	   0,0101549	78,8
     41,7463	   0,0101599	78,9	   0,0101565	80,5
     41,7483	   0,0101476	81,2	   0,0102594	78,2
     41,7502	   0,0100651	79,9	   0,0101575	80,9
     41,7522	   0,0100995	82,0	   0,0101731	80,9
     41,7542	   0,0101282	80,8	   0,0102344	80,4
     41,7561	   0,0102354	79,5	   0,0102279	82,3
     41,7581	    0,010238	80,7	   0,0102115	79,7
       41,76	   0,0101355	80,5	   0,0103143	78,6
      41,762	   0,0101619	80,3	    0,010255	80,9
     41,7639	   0,0101159	79,9	   0,0102927	79,4
     41,7659	   0,0102011	78,0	   0,0103472	81,6
     41,7678	   0,0103193	82,3	   0,0103804	82,1
     41,7698	   0,0104129	81,9	   0,0104527	79,6
     41,7718	   0,0104229	79,9	   0,0105053	80,6
     41,7737	   0,0104374	81,5	   0,0104326	80,6
     41,7757	   0,0102798	79,9	    0,010351	79,2
     41,7776	   0,0103193	80,5	   0,0103265	79,6
     41,7796	   0,0104179	81,4	   0,0105437	78,9
     41,7815	   0,0104051	78,6	   0,0106636	82,7
     41,7835	   0,0103965	83,0	   0,0106167	83,5
     41,7854	   0,0103815	79,8	    0,010568	79,9
     41,7874	   0,0104034	79,3	   0,0105256	80,8
     41,7893	   0,0104489	83,6	   0,0104709	79,2
     41,7913	   0,0105102	83,4	   0,0105019	78,8
     41,7933	   0,0105685	80,2	   0,0106056	78,1
     41,7952	   0,0105801	81,3	   0,0106703	81,2
     41,7972	   0,0106381	78,5	    0,010671	79,8
     41,7991	   0,0106025	79,6	   0,0106635	81,6
     41,8011	   0,0105466	80,9	   0,0107109	82,0
      41,803	   0,0105123	80,5	    0,010698	80,4
      41,805	   0,0106253	81,7	   0,0107596	80,3
     41,8069	   0,0107312	80,7	   0,0108269	79,0
     41,8089	   0,0108175	80,4	   0,0107629	82,0
     41,8109	   0,0108628	79,9	   0,0108256	81,5
     41,8128	   0,0107841	80,8	   0,0108138	81,2
     41,8148	   0,0108271	81,4	    0,010867	80,6
     41,8167	   0,0107607	82,1	    0,010853	81,3
     41,8187	    0,010771	81,5	   0,0108409	79,5
     41,8206	   0,0108714	81,0	   0,0108896	81,2
     41,8226	   0,0108535	79,8	   0,0109065	81,3
     41,8245	   0,0107957	78,8	   0,0109334	81,5
     41,8265	    0,010875	82,1	   0,0110175	83,2
     41,8284	   0,0108916	81,4	   0,0110061	81,8
     41,8304	   0,0109208	79,5	   0,0109797	83,1
     41,8324	   0,0109422	84,0	   0,0110667	78,6
     41,8343	    0,011033	83,8	   0,0110529	79,2
     41,8363	   0,0110058	81,2	     0,01112	83,3
     41,8382	   0,0109741	83,1	   0,0110916	81,2
     41,8402	   0,0109962	79,6	   0,0111808	82,2
     41,8421	   0,0110114	78,6	   0,0112236	83,3
     41,8441	   0,0110995	83,3	   0,0112491	80,6
      41,846	   0,0111305	83,2	   0,0112111	80,8
      41,848	    0,011211	83,5	   0,0111682	81,7
       41,85	   0,0112202	84,4	   0,0111212	80,3
     41,8519	   0,0112122	79,2	   0,0112394	78,0
     41,8539	   0,0111913	81,8	   0,0113106	82,7
     41,8558	   0,0112221	80,9	   0,0113169	81,4
     41,8578	   0,0112359	80,2	   0,0113069	86,3
     41,8597	   0,0112766	83,5	   0,0112878	83,4
     41,8617	   0,0113235	82,9	   0,0114095	80,0
     41,8636	   0,0113374	81,9	   0,0115634	82,1
     41,8656	   0,0114138	83,0	   0,0115307	79,9
     41,8675	   0,0112962	82,8	   0,0114763	81,4
     41,8695	   0,0112496	82,5	   0,0115007	83,4
     41,8715	   0,0114309	84,1	   0,0115251	82,0
     41,8734	   0,0113811	80,2	   0,0114976	84,8
     41,8754	   0,0114456	81,1	   0,0116064	83,5
     41,8773	   0,0115455	84,4	   0,0116451	80,8
     41,8793	   0,0115387	82,9	   0,0116551	81,6
     41,8812	   0,0115221	83,6	   0,0115811	81,0
     41,8832	    0,011556	85,2	   0,0115717	79,2
     41,8851	   0,0115482	80,0	   0,0116886	83,3
     41,8871	   0,0114931	81,0	   0,0117418	84,8
     41,8891	   0,0115131	82,8	   0,0117927	82,0
      41,891	   0,0115122	81,7	   0,0117278	84,7
      41,893	   0,0115973	85,3	   0,0117607	80,7
     41,8949	   0,0117138	84,0	   0,0118654	79,3
     41,8969	   0,0118805	83,3	   0,0119376	83,6
     41,8988	   0,0118313	84,0	   0,0118917	81,3
     41,9008	   0,0117016	81,0	   0,0119189	84,7
     41,9027	   0,0117253	81,1	   0,0119261	84,6
     41,9047	   0,0117182	82,7	   0,0119042	83,3
     41,9066	   0,0117802	82,1	   0,0119611	82,9
     41,9086	   0,0118872	84,7	   0,0121108	83,4
     41,9106	   0,0119339	85,2	    0,012122	82,3
     41,9125	   0,0119729	83,7	   0,0121121	82,5
     41,9145	   0,0120374	83,3	    0,012154	84,4
     41,9164	   0,0119434	83,6	   0,0121327	81,3
     41,9184	   0,0119768	82,6	   0,0121426	85,6
     41,9203	   0,0120824	82,7	   0,0121692	84,6
     41,9223	   0,0121779	84,1	   0,0121915	83,2
     41,9242	   0,0121387	82,8	   0,0122325	85,3
     41,9262	   0,0120389	83,1	   0,0122805	85,2
     41,9282	   0,0121153	84,7	    0,012305	82,2
     41,9301	   0,0121193	83,1	   0,0123268	83,3
     41,9321	   0,0121789	83,5	   0,0122728	83,0
      41,934	   0,0122431	84,3	   0,0123351	81,0
      41,936	   0,0121396	83,1	   0,0124411	85,3
     41,9379	   0,0122274	85,0	   0,0125253	84,6
     41,9399	   0,0123251	84,7	   0,0125319	83,2
     41,9418	   0,0124166	83,6	    0,012476	85,2
     41,9438	   0,0124234	83,9	   0,0125149	83,6
     41,9457	   0,0123383	85,1	   0,0124647	84,0
     41,9477	   0,0124445	84,1	   0,0125378	85,1
     41,9497	   0,0124268	86,2	   0,0126722	82,9
     41,9516	   0,0125351	86,9	   0,0126607	84,2
     41,9536	   0,0126074	82,2	   0,0127294	84,4
     41,9555	   0,0125469	84,6	    0,012716	84,7
     41,9575	   0,0125958	85,0	   0,0127432	82,0
     41,9594	   0,0126342	84,5	   0,0127085	85,6
     41,9614	   0,0126676	85,1	   0,0128264	85,3
     41,9633	   0,0126659	84,9	   0,0129372	84,2
     41,9653	   0,0127229	83,6	   0,0129163	83,0
     41,9673	   0,0127845	87,8	   0,0129414	82,9
     41,9692	   0,0128725	86,1	   0,0129572	85,2
     41,9712	    0,012758	83,3	   0,0130192	85,9
     41,9731	   0,0127609	85,0	   0,0130627	83,9
     41,9751	   0,0127964	84,2	   0,0130699	84,4
      41,977	   0,0128479	81,0	   0,0131804	85,8
      41,979	   0,0129222	86,6	   0,0131534	85,8
     41,9809	   0,0129704	84,9	   0,0131268	85,4
     41,9829	   0,0129029	86,8	   0,0131098	83,4
     41,9848	   0,0129816	87,3	   0,0132426	82,2
     41,9868	   0,0129473	83,3	   0,0132644	84,0
     41,9888	   0,0130588	84,5	   0,0132654	85,8
     41,9907	   0,0132157	83,6	   0,0132039	84,0
     41,9927	   0,0131705	84,5	   0,0132261	87,7
     41,9946	   0,0131776	83,7	   0,0132635	87,1
     41,9966	   0,0132447	86,1	   0,0133002	83,4
     41,9985	   0,0132128	84,9	   0,0134027	86,6
     42,0005	    0,013255	87,3	    0,013516	84,9
     42,0024	   0,0133319	88,6	   0,0135607	84,6
     42,0044	   0,0133549	83,8	   0,0135205	85,4
     42,0064	   0,0134154	84,1	   0,0136225	85,8
     42,0083	   0,0134223	86,4	   0,0135263	85,5
     42,0103	   0,0134364	84,7	   0,0135534	85,0
     42,0122	   0,0135029	83,7	   0,0137331	86,5
     42,0142	   0,0136257	87,7	   0,0137853	86,4
     42,0161	   0,0135935	85,0	   0,0138813	89,1
     42,0181	   0,0135524	85,7	   0,0138716	87,9
       42,02	   0,0135817	87,3	   0,0138614	84,9
      42,022	   0,0136475	86,2	   0,0138831	85,4
     42,0239	   0,0137464	86,9	   0,0139115	85,3
     42,0259	   0,0138824	87,3	   0,0140444	84,1
     42,0279	   0,0138629	86,2	   0,0140615	88,6
     42,0298	    0,013839	86,9	   0,0140815	88,3
     42,0318	   0,0138652	85,0	   0,0140744	86,9
     42,0337	   0,0138747	86,0	   0,0140933	88,9
     42,0357	   0,0139053	86,8	   0,0140695	88,5
     42,0376	   0,0139842	89,6	   0,0141362	85,5
     42,0396	   0,0140318	88,4	    0,014128	87,4
     42,0415	   0,0140621	86,8	   0,0141392	87,3
     42,0435	   0,0140502	88,6	    0,014186	86,4
     42,0455	   0,0140388	88,2	   0,0142786	87,7
     42,0474	   0,0140533	85,8	   0,0143156	87,0
     42,0494	   0,0141487	87,6	   0,0143717	85,9
     42,0513	    0,014196	84,7	   0,0144207	85,6
     42,0533	   0,0141661	85,0	   0,0145915	88,5
     42,0552	   0,0143209	89,7	   0,0146104	87,7
     42,0572	   0,0143343	88,5	   0,0147019	89,2
     42,0591	   0,0142847	87,4	   0,0147157	90,3
     42,0611	   0,0144142	89,3	   0,0147197	89,9
      42,063	   0,0144738	88,3	   0,0147943	85,1
      42,065	   0,0144651	87,4	   0,0148329	88,3
      42,067	   0,0145466	89,6	   0,0148168	87,3
     42,0689	   0,0146062	88,4	   0,0148927	85,6
     42,0709	   0,0146097	86,8	   0,0148822	89,9
     42,0728	    0,014633	88,4	   0,0149368	88,8
     42,0748	   0,0146623	88,8	   0,0149324	88,9
     42,0767	   0,0147678	86,3	   0,0149442	89,5
     42,0787	   0,0147986	86,9	   0,0150614	88,3
     42,0806	   0,0147983	91,2	   0,0151076	88,5
     42,0826	   0,0148673	89,5	   0,0152261	89,4
     42,0846	    0,014849	89,2	   0,0152354	90,3
     42,0865	   0,0148982	90,0	   0,0152146	87,5
     42,0885	   0,0149535	86,9	    0,015305	87,3
     42,0904	   0,0149552	88,4	   0,0153968	87,2
     42,0924	   0,0150446	89,6	   0,0154722	88,4
     42,0943	   0,0151036	91,0	   0,0155118	89,8
     42,0963	   0,0151556	88,0	   0,0154684	90,8
     42,0982	   0,0151966	88,6	    0,015488	87,7
     42,1002	   0,0152219	88,8	   0,0155437	90,1
     42,1021	   0,0152945	88,2	   0,0156893	91,4
     42,1041	   0,0153829	92,8	   0,0157085	90,5
     42,1061	   0,0154928	91,9	   0,0157928	88,9
      42,108	   0,0155191	89,0	   0,0158349	91,2
       42,11	    0,015443	91,1	   0,0158946	86,9
     42,1119	   0,0155012	93,2	   0,0159336	88,6
     42,1139	   0,0156277	87,3	   0,0159222	92,3
     42,1158	   0,0156394	88,3	   0,0160336	89,8
     42,1178	   0,0156585	89,9	    0,016058	90,5
     42,1197	   0,0157196	88,5	   0,0160617	92,5
     42,1217	   0,0157724	91,1	   0,0161522	91,9
     42,1237	   0,0157606	91,7	    0,016134	89,3
     42,1256	   0,0158405	90,7	   0,0162448	89,2
     42,1276	   0,0158935	89,7	   0,0162809	93,3
     42,1295	   0,0159801	92,9	   0,0163968	92,9
     42,1315	   0,0160472	92,5	   0,0164559	90,4
     42,1334	     0,01606	90,1	   0,0165221	92,1
     42,1354	   0,0161456	91,7	    0,016543	90,2
     42,1373	   0,0161645	90,4	   0,0164791	89,2
     42,1393	   0,0161684	90,2	   0,0165866	91,5
     42,1413	   0,0162522	91,8	   0,0167028	90,4
     42,1432	   0,0162351	91,4	   0,0167842	91,9
     42,1452	   0,0164037	89,0	    0,016833	91,3
     42,1471	    0,016427	90,2	    0,016902	92,0
     42,1491	   0,0164659	94,3	   0,0169137	92,3
      42,151	   0,0165683	93,2	   0,0169782	93,4
      42,153	   0,0165813	92,8	   0,0170007	94,2
     42,1549	   0,0166635	93,8	   0,0171317	90,9
     42,1569	   0,0168006	90,6	   0,0170928	93,4
     42,1588	   0,0167707	90,0	   0,0171823	94,6
     42,1608	   0,0168239	92,5	   0,0171538	90,2
     42,1628	   0,0168327	95,4	   0,0172776	89,4
     42,1647	   0,0169432	91,4	   0,0173609	93,8
     42,1667	   0,0170482	94,6	   0,0173869	92,6
     42,1686	    0,017046	94,3	   0,0174657	90,9
     42,1706	   0,0171301	92,4	   0,0175365	94,5
     42,1725	   0,0171387	94,3	   0,0176423	94,8
     42,1745	    0,017148	95,5	    0,017705	94,5
     42,1764	   0,0172456	93,9	   0,0177801	92,1
     42,1784	   0,0173551	90,6	    0,017844	95,0
     42,1804	   0,0173852	97,9	    0,017918	94,5
     42,1823	   0,0174496	96,7	   0,0180531	92,7
     42,1843	   0,0175328	93,0	   0,0180829	95,5
     42,1862	   0,0175697	94,2	    0,018076	93,3
     42,1882	   0,0176441	93,8	   0,0180608	93,2
     42,1901	   0,0176915	90,4	   0,0181882	94,7
     42,1921	   0,0176072	95,8	   0,0181806	96,5
      42,194	    0,017707	95,7	   0,0182941	92,5
      42,196	   0,0177696	95,0	   0,0183722	93,9
     42,1979	   0,0179231	93,7	   0,0185115	95,7
     42,1999	   0,0180282	94,4	   0,0185827	95,0
     42,2019	   0,0180415	96,0	   0,0187174	96,6
     42,2038	   0,0181187	94,9	   0,0187592	97,4
     42,2058	   0,0182343	98,4	   0,0188692	94,2
     42,2077	   0,0182844	99,0	    0,018885	95,6
     42,2097	   0,0183412	94,4	   0,0189871	98,3
     42,2116	   0,0184277	95,4	   0,0190336	96,0
     42,2136	   0,0184505	95,4	   0,0190636	95,4
     42,2155	   0,0184328	94,5	   0,0190715	95,9
     42,2175	    0,018574	96,0	   0,0190988	95,7
     42,2195	   0,0186074	96,1	   0,0192052	95,5
     42,2214	   0,0186354	95,5	   0,0192455	96,0
     42,2234	   0,0187008	93,4	   0,0193928	96,9
     42,2253	   0,0187725	97,3	   0,0195086	95,3
     42,2273	   0,0188108	97,6	   0,0195369	95,0
     42,2292	   0,0189683	95,5	   0,0196769	100,5
     42,2312	     0,01905	97,5	   0,0197306	100,3
     42,2331	   0,0191186	100,2	   0,0198494	97,5
     42,2351	   0,0192251	98,8	   0,0200058	99,4
      42,237	   0,0192458	97,4	   0,0200143	99,7
      42,239	   0,0193293	99,3	   0,0200991	96,7
      42,241	   0,0194187	98,8	   0,0201732	97,7
     42,2429	    0,019431	97,7	   0,0202612	99,5
     42,2449	   0,0195139	98,7	   0,0203088	100,8
     42,2468	   0,0196135	99,1	    0,020387	97,4
     42,2488	   0,0196589	94,3	   0,0204661	97,5
     42,2507	   0,0196593	96,9	   0,0204778	100,2
     42,2527	   0,0197467	98,0	    0,020578	99,4
     42,2546	   0,0198697	99,0	   0,0206836	98,3
     42,2566	   0,0199819	99,0	   0,0207957	99,1
     42,2586	   0,0201882	100,1	    0,020957	99,8
     42,2605	   0,0202196	101,0	   0,0210051	98,0
     42,2625	   0,0203362	99,2	   0,0211752	103,3
     42,2644	    0,020355	99,7	   0,0212284	102,8
     42,2664	   0,0203874	103,7	   0,0213187	100,8
     42,2683	   0,0204638	103,3	   0,0213664	99,5
     42,2703	   0,0205264	100,3	   0,0214848	102,9
     42,2722	   0,0205734	100,3	   0,0215688	102,6
     42,2742	   0,0206203	100,8	    0,021673	102,0
     42,2761	   0,0207677	100,4	   0,0217263	102,8
     42,2781	   0,0208411	102,1	   0,0217645	102,1
     42,2801	   0,0208961	103,9	   0,0218899	101,2
      42,282	   0,0210636	99,9	   0,0219444	101,4
      42,284	   0,0211371	100,3	   0,0220815	102,5
     42,2859	   0,0213584	103,6	   0,0221223	101,0
     42,2879	   0,0214552	103,0	   0,0221833	99,6
     42,2898	   0,0215849	101,0	   0,0222607	105,0
     42,2918	   0,0215609	101,4	    0,022409	103,9
     42,2937	   0,0216932	104,2	   0,0225933	102,9
     42,2957	   0,0217358	104,5	   0,0226676	102,0
     42,2977	    0,021892	102,7	   0,0228078	105,9
     42,2996	   0,0219755	101,8	   0,0229546	105,5
     42,3016	   0,0220836	105,2	    0,023044	104,6
     42,3035	   0,0221318	105,5	   0,0230825	105,0
     42,3055	   0,0221548	104,2	   0,0231846	105,7
     42,3074	   0,0221904	105,4	   0,0233045	103,7
     42,3094	   0,0222553	104,6	   0,0234104	106,3
     42,3113	   0,0223115	104,1	   0,0235011	106,5
     42,3133	   0,0224227	105,3	   0,0236755	108,0
     42,3153	   0,0224978	107,0	    0,023796	104,2
     42,3172	   0,0225972	104,4	   0,0238409	106,9
     42,3192	   0,0227165	105,4	   0,0239208	108,7
     42,3211	   0,0228009	107,8	   0,0240095	106,5
     42,3231	   0,0229193	106,4	   0,0241001	104,2
      42,325	   0,0229924	103,8	   0,0242021	107,3
      42,327	   0,0230519	105,4	   0,0243209	106,9
     42,3289	   0,0231805	109,8	   0,0244366	106,5
     42,3309	   0,0232444	106,0	   0,0245426	111,4
     42,3328	    0,023411	108,9	   0,0246359	109,7
     42,3348	   0,0235145	107,9	   0,0248658	107,1
     42,3368	   0,0235691	109,2	   0,0249747	105,8
     42,3387	   0,0236702	107,8	   0,0250499	111,3
     42,3407	   0,0238077	110,1	   0,0251694	111,3
     42,3426	   0,0239464	110,0	   0,0253213	109,7
     42,3446	   0,0240029	108,1	   0,0253819	111,8
     42,3465	   0,0241406	108,2	   0,0254374	112,8
     42,3485	   0,0242687	111,6	   0,0255626	110,1
     42,3504	   0,0243779	112,1	   0,0256738	110,5
     42,3524	   0,0244772	107,5	   0,0258234	109,5
     42,3544	   0,0245613	107,3	   0,0260336	112,7
     42,3563	   0,0246748	111,0	   0,0261664	111,8
     42,3583	   0,0247179	111,3	   0,0261046	110,3
     42,3602	   0,0248049	111,3	   0,0261923	113,5
     42,3622	    0,024961	109,9	   0,0263021	112,0
     42,3641	   0,0250416	111,3	   0,0263589	111,4
     42,3661	     0,02513	112,3	   0,0265181	113,2
      42,368	   0,0252228	108,9	   0,0266118	114,1
       42,37	   0,0253877	113,6	   0,0266988	113,4
     42,3719	   0,0254262	113,2	   0,0268372	113,7
     42,3739	   0,0255003	112,9	   0,0269373	115,6
     42,3759	   0,0255629	111,6	   0,0270734	115,4
     42,3778	   0,0257113	114,9	   0,0271639	113,6
     42,3798	   0,0257501	115,1	   0,0272919	112,2
     42,3817	   0,0259331	114,3	   0,0274671	117,9
     42,3837	   0,0260788	114,5	   0,0275645	117,9
     42,3856	    0,026242	117,6	   0,0276843	115,9
     42,3876	   0,0263144	118,2	   0,0277445	115,3
     42,3895	   0,0264425	114,2	   0,0279671	120,3
     42,3915	    0,026558	114,6	   0,0280397	118,7
     42,3935	   0,0265663	118,6	    0,028179	117,4
     42,3954	   0,0267412	118,8	   0,0282688	120,0
     42,3974	   0,0269155	116,0	   0,0284154	119,9
     42,3993	   0,0269733	117,9	   0,0285531	119,0
     42,4013	   0,0271117	117,6	   0,0285726	120,3
     42,4032	     0,02719	117,5	   0,0287255	122,0
     42,4052	   0,0273135	117,1	   0,0288417	121,2
     42,4071	   0,0274134	120,5	   0,0288935	121,5
     42,4091	   0,0275327	118,3	   0,0289878	120,0
      42,411	   0,0275496	119,1	   0,0290328	124,9
      42,413	   0,0276757	120,2	    0,029164	123,6
      42,415	   0,0278027	121,4	   0,0294355	121,0
     42,4169	   0,0278847	120,0	   0,0295476	121,5
     42,4189	   0,0279983	118,6	   0,0296628	125,3
     42,4208	   0,0280037	118,4	   0,0297894	124,6
     42,4228	   0,0281816	121,7	   0,0298471	120,2
     42,4247	   0,0282361	122,3	   0,0298657	122,8
     42,4267	   0,0283777	121,5	   0,0299366	124,6
     42,4286	   0,0283989	122,4	   0,0299494	125,5
     42,4306	   0,0285382	125,1	   0,0300327	124,5
     42,4326	   0,0286624	120,7	   0,0301257	124,3
     42,4345	   0,0286948	123,5	   0,0301371	125,6
     42,4365	   0,0288343	124,1	   0,0302628	127,1
     42,4384	     0,02898	125,1	   0,0303588	126,0
     42,4404	   0,0290597	127,2	   0,0305586	127,7
     42,4423	    0,029128	126,0	   0,0306362	127,8
     42,4443	   0,0292784	127,0	   0,0307181	129,0
     42,4462	   0,0294329	128,0	   0,0308174	126,3
     42,4482	   0,0295744	128,7	   0,0308935	129,6
     42,4501	   0,0296102	128,6	   0,0309172	130,4
     42,4521	   0,0297572	128,5	   0,0310128	129,4
     42,4541	   0,0298558	128,8	   0,0311084	128,7
      42,456	   0,0299331	128,0	   0,0312392	133,0
      42,458	   0,0299927	128,2	   0,0312754	132,7
     42,4599	   0,0300407	130,1	   0,0312809	130,2
     42,4619	   0,0301268	128,5	   0,0313662	132,3
     42,4638	   0,0302093	128,7	   0,0314427	135,1
     42,4658	   0,0302786	131,4	   0,0314849	135,6
     42,4677	   0,0303897	132,0	   0,0315839	133,1
     42,4697	   0,0305375	129,0	   0,0315815	134,4
     42,4717	   0,0306134	129,3	   0,0316506	136,1
     42,4736	   0,0307276	131,3	   0,0317158	137,7
     42,4756	   0,0308175	133,8	   0,0317249	134,7
     42,4775	   0,0309068	132,1	   0,0317906	134,3
     42,4795	   0,0310144	130,5	   0,0319135	137,4
     42,4814	   0,0311264	136,5	   0,0319621	138,5
     42,4834	   0,0312339	134,9	   0,0320494	134,1
     42,4853	   0,0312803	132,7	   0,0320503	136,9
     42,4873	   0,0312789	133,8	   0,0321346	138,4
     42,4892	   0,0313541	134,4	   0,0321875	140,6
     42,4912	   0,0314424	137,6	   0,0321776	136,9
     42,4932	   0,0314311	137,8	   0,0322761	137,7
     42,4951	    0,031567	133,9	   0,0323281	140,7
     42,4971	   0,0316387	135,7	   0,0323208	140,9
      42,499	   0,0317331	139,6	   0,0323504	138,7
      42,501	   0,0317834	139,0	   0,0324229	138,9
     42,5029	   0,0318882	139,4	   0,0323933	141,1
     42,5049	   0,0319513	138,9	   0,0323771	142,7
     42,5068	   0,0320412	142,0	   0,0324381	141,5
     42,5088	   0,0320944	140,1	   0,0325034	141,7
     42,5108	   0,0321132	142,0	   0,0324408	142,2
     42,5127	   0,0321211	142,0	   0,0324895	144,3
     42,5147	   0,0321926	142,5	   0,0325746	142,3
     42,5166	   0,0322828	142,5	   0,0325411	142,6
     42,5186	   0,0322309	142,4	   0,0326345	144,5
     42,5205	   0,0322613	143,5	   0,0325666	146,4
     42,5225	   0,0323736	145,4	   0,0325719	144,3
     42,5244	   0,0323551	143,9	   0,0325711	143,6
     42,5264	   0,0324286	143,7	   0,0325969	145,3
     42,5283	   0,0324809	148,0	   0,0326426	147,7
     42,5303	   0,0324389	146,8	   0,0326676	148,3
     42,5323	    0,032519	145,9	    0,032689	145,1
     42,5342	    0,032568	145,3	   0,0325936	149,6
     42,5362	   0,0325295	148,3	    0,032662	149,8
     42,5381	   0,0325313	147,4	   0,0326783	147,8
     42,5401	   0,0325712	147,4	   0,0327203	148,2
      42,542	   0,0326045	147,6	   0,0327146	152,7
      42,544	   0,0325182	150,6	   0,0327031	150,9
     42,5459	   0,0325359	151,0	   0,0325966	149,6
     42,5479	   0,0326046	149,4	   0,0326695	149,2
     42,5499	   0,0326327	149,5	   0,0326686	150,3
     42,5518	   0,0327246	151,7	   0,0326281	152,2
     42,5538	   0,0326554	152,0	   0,0326787	152,0
     42,5557	   0,0327278	150,8	   0,0326867	151,1
     42,5577	   0,0327139	150,6	   0,0326585	151,1
     42,5596	   0,0327453	151,5	   0,0325851	155,8
     42,5616	   0,0327038	153,7	   0,0326179	154,2
     42,5635	   0,0326112	152,8	   0,0326188	153,1
     42,5655	   0,0326157	151,9	   0,0325745	153,7
     42,5674	   0,0326469	153,9	   0,0325105	156,0
     42,5694	   0,0326041	155,3	   0,0324985	157,2
     42,5714	   0,0326543	157,2	   0,0324997	154,1
     42,5733	   0,0327276	152,2	   0,0325148	154,5
     42,5753	   0,0326537	153,6	   0,0324905	157,8
     42,5772	   0,0326608	155,5	   0,0324554	158,2
     42,5792	   0,0326614	159,3	   0,0323449	156,4
     42,5811	   0,0327009	155,2	   0,0322988	155,3
     42,5831	   0,0325795	154,9	   0,0322435	158,3
      42,585	   0,0325928	157,7	   0,0322122	157,9
      42,587	   0,0326543	160,0	   0,0322005	158,0
      42,589	    0,032541	155,4	   0,0321955	156,5
     42,5909	   0,0324996	157,7	   0,0322054	160,3
     42,5929	   0,0324645	159,5	   0,0321437	161,6
     42,5948	   0,0324427	159,5	   0,0320592	161,0
     42,5968	   0,0324155	155,6	   0,0319514	159,4
     42,5987	   0,0323486	157,4	   0,0319148	159,4
     42,6007	   0,0323421	160,3	   0,0318974	162,5
     42,6026	    0,032306	160,2	   0,0319171	162,0
     42,6046	   0,0322927	159,5	   0,0318618	162,9
     42,6065	   0,0322735	160,8	   0,0317957	161,1
     42,6085	   0,0322554	160,7	   0,0317062	160,7
     42,6105	   0,0322451	162,7	    0,031608	162,7
     42,6124	   0,0321771	162,4	   0,0315343	164,5
     42,6144	   0,0321347	161,9	   0,0315716	164,3
     42,6163	    0,032102	162,9	   0,0314393	163,8
     42,6183	   0,0321157	163,2	   0,0314769	163,8
     42,6202	   0,0320448	163,3	   0,0313315	165,7
     42,6222	   0,0320129	164,2	   0,0312832	166,4
     42,6241	   0,0319365	163,5	   0,0312531	165,6
     42,6261	   0,0318308	164,9	   0,0312783	163,3
     42,6281	   0,0317775	165,9	   0,0312739	168,4
       42,63	   0,0316864	165,1	   0,0312258	167,3
      42,632	   0,0316576	165,3	   0,0311629	165,0
     42,6339	   0,0316171	166,7	   0,0310941	165,2
     42,6359	   0,0315673	167,8	   0,0309913	169,0
     42,6378	   0,0315442	165,3	   0,0310025	169,7
     42,6398	   0,0315301	166,1	   0,0308913	167,4
     42,6417	    0,031389	167,2	   0,0308707	167,8
     42,6437	   0,0313222	168,4	   0,0307173	170,2
     42,6456	   0,0312102	170,4	   0,0306692	170,7
     42,6476	   0,0310847	167,7	   0,0305684	168,9
     42,6496	    0,031102	168,5	    0,030541	168,6
     42,6515	   0,0310886	169,6	   0,0305032	169,5
     42,6535	   0,0311022	172,2	   0,0303772	170,7
     42,6554	   0,0310422	169,6	   0,0303863	170,5
     42,6574	   0,0309723	169,2	   0,0303584	171,5
     42,6593	   0,0308893	170,4	   0,0302525	169,5
     42,6613	   0,0307338	171,1	   0,0301785	170,6
     42,6632	   0,0306776	173,4	   0,0301736	173,7
     42,6652	   0,0306569	171,4	   0,0301024	173,0
     42,6672	   0,0305646	172,6	   0,0300109	171,1
     42,6691	   0,0304686	172,8	   0,0299197	171,6
     42,6711	   0,0303561	174,8	   0,0298822	173,8
      42,673	    0,030364	174,6	   0,0298065	174,5
      42,675	   0,0303288	172,7	   0,0296822	176,4
     42,6769	   0,0302423	172,5	    0,029588	170,8
     42,6789	   0,0301478	176,2	   0,0296294	175,3
     42,6808	   0,0300708	176,0	   0,0295095	174,9
     42,6828	   0,0300601	176,5	   0,0294367	173,9
     42,6847	   0,0300293	173,0	   0,0293223	174,4
     42,6867	   0,0298756	174,9	    0,029244	175,9
     42,6887	   0,0298701	176,4	   0,0291594	177,2
     42,6906	   0,0297356	178,8	    0,029153	178,5
     42,6926	   0,0295947	176,3	   0,0289987	176,0
     42,6945	   0,0295319	176,8	   0,0288399	176,5
     42,6965	   0,0294922	177,3	   0,0287968	177,4
     42,6984	   0,0293691	178,8	   0,0287835	179,1
     42,7004	   0,0292906	180,6	   0,0287018	180,3
     42,7023	   0,0292442	177,3	   0,0286127	176,9
     42,7043	   0,0291635	179,5	   0,0285435	177,6
     42,7063	   0,0291138	179,3	   0,0285419	181,8
     42,7082	    0,029064	181,8	    0,028463	181,2
     42,7102	    0,028929	181,2	   0,0282883	179,8
     42,7121	   0,0288673	178,9	   0,0282038	180,4
     42,7141	   0,0287805	179,4	   0,0281744	180,2
      42,716	   0,0286819	182,8	   0,0281244	181,9
      42,718	   0,0286447	184,0	   0,0280589	182,3
     42,7199	   0,0286279	180,1	   0,0279103	183,8
     42,7219	   0,0285567	181,6	   0,0279324	180,6
     42,7239	   0,0284596	184,5	   0,0278486	180,7
     42,7258	   0,0284128	184,2	    0,027759	183,6
     42,7278	   0,0282663	184,0	   0,0276751	185,0
     42,7297	   0,0281793	181,8	   0,0275437	180,9
     42,7317	   0,0279935	184,8	   0,0273866	181,6
     42,7336	   0,0278837	184,6	   0,0273088	179,2
     42,7356	   0,0278698	184,5	   0,0272674	184,7
     42,7375	   0,0277684	183,2	   0,0272248	185,4
     42,7395	   0,0277231	181,8	   0,0271241	184,1
     42,7414	   0,0275205	185,8	   0,0270835	182,8
     42,7434	   0,0274696	186,1	   0,0270079	185,9
     42,7454	    0,027412	186,3	    0,027014	186,8
     42,7473	    0,027325	184,6	   0,0268952	186,4
     42,7493	   0,0272323	185,3	   0,0268222	184,8
     42,7512	   0,0272031	184,6	   0,0268109	185,2
     42,7532	   0,0271205	186,7	   0,0267893	183,5
     42,7551	    0,027124	188,0	   0,0266601	186,2
     42,7571	   0,0270009	184,6	   0,0265396	185,5
      42,759	   0,0269558	185,4	   0,0265064	185,9
      42,761	   0,0269434	184,9	   0,0264337	184,3
      42,763	   0,0268474	187,6	   0,0262945	184,7
     42,7649	   0,0266745	188,5	   0,0261346	187,0
     42,7669	   0,0266328	186,1	   0,0261034	188,1
     42,7688	     0,02658	186,1	   0,0260291	185,1
     42,7708	   0,0264467	188,1	   0,0259703	187,3
     42,7727	   0,0263161	189,0	   0,0258917	186,8
     42,7747	   0,0262542	187,5	   0,0258204	189,0
     42,7766	   0,0261304	186,0	   0,0256525	188,1
     42,7786	   0,0260251	187,5	   0,0255757	188,6
     42,7805	   0,0259215	189,6	   0,0254568	187,6
     42,7825	   0,0258815	191,8	   0,0253784	187,6
     42,7845	   0,0257958	186,3	   0,0253106	189,7
     42,7864	   0,0256385	188,3	   0,0252948	190,6
     42,7884	   0,0256066	189,7	   0,0252052	189,4
     42,7903	   0,0255424	193,0	   0,0251372	189,7
     42,7923	   0,0254512	193,4	   0,0250711	190,9
     42,7942	   0,0253544	191,8	   0,0249638	191,9
     42,7962	   0,0252455	191,7	    0,024926	191,8
     42,7981	   0,0252027	191,6	   0,0248216	189,7
     42,8001	   0,0251916	191,6	   0,0247267	190,9
     42,8021	   0,0250796	192,5	   0,0246735	191,3
      42,804	   0,0250177	192,6	   0,0245521	193,6
      42,806	   0,0249521	191,0	   0,0245452	191,1
     42,8079	   0,0249058	193,4	   0,0244334	191,2
     42,8099	   0,0248041	193,7	   0,0243753	190,8
     42,8118	   0,0246216	194,4	   0,0242316	194,3
     42,8138	   0,0246138	193,8	   0,0242063	195,7
     42,8157	   0,0245372	191,1	   0,0241146	193,2
     42,8177	   0,0244347	193,8	   0,0240897	191,4
     42,8196	   0,0243545	191,9	   0,0239966	191,5
     42,8216	   0,0242231	195,0	   0,0240102	192,2
     42,8236	   0,0241851	194,9	    0,023865	194,1
     42,8255	   0,0240486	190,9	    0,023785	195,0
     42,8275	   0,0240058	192,5	   0,0236795	190,7
     42,8294	    0,023932	193,6	    0,023593	191,8
     42,8314	    0,023793	196,1	   0,0235004	194,3
     42,8333	   0,0237241	193,8	   0,0234621	194,6
     42,8353	   0,0236704	193,1	   0,0232903	193,4
     42,8372	   0,0235948	192,4	   0,0232714	193,5
     42,8392	   0,0235222	195,6	   0,0232154	192,9
     42,8412	    0,023489	195,6	   0,0230937	196,7
     42,8431	   0,0233161	197,8	    0,023079	194,7
     42,8451	   0,0233071	195,0	   0,0230155	198,7
      42,847	    0,023213	195,9	    0,022987	198,3
      42,849	   0,0231327	195,9	   0,0228693	195,1
     42,8509	   0,0231083	197,6	     0,02284	196,0
     42,8529	   0,0229852	198,4	   0,0227349	199,2
     42,8548	    0,022925	199,9	   0,0227275	197,2
     42,8568	   0,0227873	195,9	   0,0225415	196,8
     42,8587	   0,0227998	195,9	   0,0225464	197,7
     42,8607	   0,0227128	-159,4	   0,0224351	195,6
     42,8627	   0,0227071	-161,1	   0,0223472	195,0
     42,8646	   0,0224867	-163,1	   0,0222489	198,9
     42,8666	   0,0224515	-163,4	   0,0222071	196,1
     42,8685	   0,0223399	-160,8	   0,0221823	196,0
     42,8705	    0,022266	-161,8	   0,0221297	195,9
     42,8724	   0,0222533	-161,0	   0,0220084	196,0
     42,8744	   0,0221654	-160,7	   0,0219077	198,5
     42,8763	   0,0221184	-162,4	   0,0218628	198,1
     42,8783	   0,0220822	-162,3	   0,0217699	-159,7
     42,8803	   0,0220074	-160,4	   0,0216528	-163,6
     42,8822	   0,0219475	-159,9	   0,0215615	-162,3
     42,8842	   0,0218677	-161,8	   0,0215123	-159,2
     42,8861	   0,0217547	-160,0	   0,0214721	-159,2
     42,8881	   0,0216299	-159,8	   0,0214727	-159,0
       42,89	   0,0215806	-160,2	    0,021408	-158,2
      42,892	   0,0215398	-157,7	   0,0213436	-160,0
     42,8939	   0,0214575	-157,4	   0,0212249	-160,1
     42,8959	   0,0213858	-158,9	   0,0210989	-156,5
     42,8979	    0,021287	-158,9	   0,0210347	-158,4
     42,8998	   0,0212912	-159,3	   0,0209337	-160,5
     42,9018	    0,021181	-159,1	   0,0209648	-160,6
     42,9037	    0,021047	-156,3	   0,0208398	-160,8
     42,9057	   0,0210003	-154,4	   0,0207954	-160,5
     42,9076	   0,0209043	-157,6	   0,0206619	-158,3
     42,9096	   0,0208627	-159,4	   0,0206339	-158,2
     42,9115	   0,0207978	-161,0	   0,0205624	-160,6
     42,9135	   0,0207043	-157,1	   0,0205395	-160,5
     42,9154	   0,0207196	-157,7	   0,0204248	-158,4
     42,9174	   0,0205548	-157,7	   0,0203723	-156,7
     42,9194	   0,0204499	-161,4	   0,0203135	-155,8
     42,9213	   0,0204623	-161,0	   0,0202973	-157,0
     42,9233	    0,020423	-157,5	   0,0202059	-156,6
     42,9252	   0,0203852	-157,0	   0,0201238	-157,6
     42,9272	   0,0202983	-155,3	   0,0200821	-157,4
     42,9291	   0,0202435	-156,9	   0,0200335	-155,8
     42,9311	   0,0200827	-154,5	   0,0199513	-155,2
      42,933	   0,0200117	-157,0	   0,0198727	-157,1
      42,935	   0,0199207	-155,1	   0,0198419	-159,4
      42,937	   0,0198231	-153,0	   0,0196941	-158,1
     42,9389	   0,0198008	-151,9	   0,0196245	-157,3
     42,9409	   0,0197192	-155,3	   0,0195485	-156,1
     42,9428	   0,0197253	-157,1	   0,0195079	-156,5
     42,9448	   0,0197384	-154,4	   0,0194508	-159,2
     42,9467	   0,0196223	-155,5	   0,0194118	-158,4
     42,9487	   0,0194846	-152,0	   0,0193454	-156,7
     42,9506	   0,0194257	-155,1	    0,019302	-155,1
     42,9526	   0,0194629	-157,5	   0,0193202	-154,5
     42,9545	   0,0194428	-158,9	   0,0191709	-154,1
     42,9565	   0,0193971	-156,2	   0,0190999	-155,4
     42,9585	   0,0192812	-154,3	   0,0190364	-157,1
     42,9604	   0,0191191	-153,4	   0,0188817	-154,9
     42,9624	   0,0190072	-154,1	   0,0188257	-153,7
     42,9643	   0,0188966	-153,9	   0,0188041	-153,0
     42,9663	    0,018854	-155,9	   0,0187011	-152,2
     42,9682	    0,018815	-153,2	   0,0187246	-156,1
     42,9702	    0,018689	-150,1	   0,0187114	-155,6
     42,9721	   0,0186483	-152,3	   0,0185491	-153,9
     42,9741	   0,0186649	-153,8	   0,0185244	-154,1
     42,9761	   0,0186527	-154,0	   0,0185111	-152,9
      42,978	   0,0186683	-153,8	   0,0184662	-154,0
       42,98	   0,0185627	-155,5	   0,0183771	-156,0
     42,9819	   0,0185351	-150,8	   0,0183829	-156,1
     42,9839	   0,0184316	-150,8	   0,0183595	-154,5
     42,9858	   0,0183309	-154,2	   0,0182171	-150,9
     42,9878	    0,018206	-152,4	   0,0181832	-151,0
     42,9897	   0,0181679	-154,8	   0,0180671	-152,7
     42,9917	   0,0181364	-153,6	   0,0179751	-151,8
     42,9936	   0,0181251	-151,7	   0,0179127	-153,2
     42,9956	   0,0180074	-147,7	   0,0179068	-153,4
     42,9976	   0,0179618	-153,7	   0,0178678	-149,6
     42,9995	   0,0179172	-151,8	    0,017858	-151,2
     43,0015	   0,0178989	-151,4	   0,0177968	-152,7
     43,0034	   0,0178772	-151,3	   0,0176581	-153,1
     43,0054	   0,0177023	-148,0	   0,0176364	-155,5
     43,0073	   0,0177104	-149,6	   0,0175781	-153,2
     43,0093	   0,0175866	-151,3	   0,0175227	-151,7
     43,0112	   0,0175141	-152,4	   0,0174257	-150,7
     43,0132	   0,0175832	-154,4	   0,0174061	-151,6
     43,0152	   0,0173766	-151,4	   0,0173846	-151,4
     43,0171	   0,0174209	-151,5	   0,0172514	-153,7
     43,0191	   0,0173378	-149,8	   0,0172318	-151,2
      43,021	   0,0172861	-152,3	    0,017147	-147,3
      43,023	   0,0173087	-151,5	    0,017077	-147,2
     43,0249	   0,0172099	-150,2	   0,0169662	-149,2
     43,0269	   0,0171705	-149,7	   0,0169217	-150,7
     43,0288	    0,016899	-149,2	   0,0169254	-151,1
     43,0308	   0,0167574	-148,6	   0,0169362	-151,7
     43,0327	   0,0168203	-148,5	     0,01688	-151,5
     43,0347	   0,0167609	-150,0	   0,0169146	-148,5
     43,0367	   0,0167437	-151,1	   0,0168742	-149,1
     43,0386	   0,0166675	-148,9	   0,0167043	-152,3
     43,0406	   0,0166691	-150,0	    0,016633	-151,1
     43,0425	     0,01668	-148,6	   0,0165727	-150,9
     43,0445	   0,0166181	-149,0	   0,0165238	-149,6
     43,0464	    0,016518	-152,2	    0,016524	-148,5
     43,0484	   0,0165689	-150,9	   0,0164614	-146,0
     43,0503	   0,0164916	-149,2	    0,016376	-151,7
     43,0523	   0,0164232	-149,5	   0,0162894	-150,4
     43,0543	    0,016339	-147,8	    0,016248	-148,7
     43,0562	   0,0163081	-146,5	   0,0162382	-150,7
     43,0582	   0,0162869	-146,7	   0,0162573	-148,2
     43,0601	   0,0162241	-147,3	   0,0162447	-150,0
     43,0621	   0,0161496	-150,3	   0,0162107	-150,5
      43,064	   0,0160818	-147,5	   0,0160998	-149,9
      43,066	     0,01602	-149,7	    0,015949	-151,9
     43,0679	   0,0159474	-146,9	    0,015817	-150,1
     43,0699	   0,0159291	-146,5	    0,015821	-148,2
     43,0718	   0,0158198	-150,6	   0,0157732	-146,0
     43,0738	   0,0157617	-148,6	     0,01576	-144,5
     43,0758	   0,0157514	-148,6	   0,0157022	-149,1
     43,0777	   0,0157669	-148,2	   0,0156252	-147,4
     43,0797	    0,015757	-148,4	   0,0156933	-147,5
     43,0816	   0,0157173	-145,3	   0,0156773	-146,3
     43,0836	   0,0156379	-147,7	   0,0155704	-146,7
     43,0855	   0,0155197	-147,0	   0,0155679	-146,4
     43,0875	   0,0154775	-146,4	   0,0155791	-148,7
     43,0894	   0,0154143	-149,3	   0,0155575	-149,0
     43,0914	   0,0154691	-149,0	   0,0154943	-149,1
     43,0934	   0,0154169	-146,0	     0,01539	-148,4
     43,0953	   0,0152811	-147,4	   0,0153567	-147,0
     43,0973	     0,01524	-147,3	   0,0153134	-146,0
     43,0992	    0,015175	-149,4	   0,0152171	-145,4
     43,1012	   0,0151776	-148,0	   0,0151763	-144,8
     43,1031	   0,0151006	-147,0	   0,0151202	-147,6
     43,1051	   0,0151022	-144,3	   0,0151132	-151,7
      43,107	   0,0150774	-143,2	   0,0150377	-146,8
      43,109	   0,0150245	-145,1	   0,0149805	-148,1
     43,1109	   0,0149553	-145,9	   0,0149436	-146,1
     43,1129	   0,0148145	-146,9	   0,0148325	-145,6
     43,1149	   0,0148838	-147,6	   0,0148523	-148,9
     43,1168	   0,0148737	-145,3	   0,0148188	-148,1
     43,1188	   0,0148121	-145,5	   0,0146956	-147,9
     43,1207	    0,014703	-145,6	   0,0146275	-144,4
     43,1227	   0,0146865	-144,9	   0,0146141	-145,2
     43,1246	   0,0146145	-148,1	   0,0144483	-143,9
     43,1266	   0,0145832	-146,6	   0,0144922	-145,0
     43,1285	   0,0145101	-144,4	   0,0145038	-146,4
     43,1305	   0,0144106	-144,4	   0,0145584	-147,9
     43,1325	   0,0143692	-141,3	   0,0144855	-145,3
     43,1344	   0,0143201	-143,4	   0,0144523	-147,4
     43,1364	    0,014311	-144,5	   0,0144496	-145,7
     43,1383	   0,0143237	-145,9	   0,0143572	-144,3
     43,1403	   0,0142644	-147,6	    0,014283	-145,7
     43,1422	   0,0142416	-147,2	   0,0141972	-144,5
     43,1442	   0,0142602	-145,6	   0,0141851	-145,8
     43,1461	   0,0141382	-143,6	   0,0141516	-145,3
     43,1481	   0,0140345	-145,0	   0,0141173	-142,5
       43,15	    0,013981	-143,9	   0,0141048	-145,6
      43,152	   0,0140003	-143,6	   0,0140076	-144,7
      43,154	   0,0139554	-145,1	   0,0140153	-144,8
     43,1559	   0,0138685	-142,0	   0,0139492	-143,6
     43,1579	   0,0138166	-144,2	   0,0139349	-147,7
     43,1598	   0,0138609	-143,2	   0,0137913	-145,9
     43,1618	   0,0139013	-143,1	   0,0137542	-144,1
     43,1637	   0,0138632	-144,9	   0,0137196	-142,3
     43,1657	   0,0138258	-143,8	   0,0137413	-141,4
     43,1676	   0,0137562	-145,4	    0,013734	-142,7
     43,1696	   0,0136686	-145,4	   0,0137125	-142,0
     43,1716	   0,0135976	-142,5	    0,013728	-145,2
     43,1735	   0,0135943	-142,1	   0,0136783	-145,7
     43,1755	   0,0135115	-140,2	   0,0135518	-145,0
     43,1774	   0,0134777	-141,9	    0,013496	-143,7
     43,1794	   0,0134263	-143,6	   0,0133504	-145,0
     43,1813	   0,0133523	-145,8	   0,0132344	-141,3
     43,1833	   0,0133344	-145,1	   0,0132909	-140,3
     43,1852	   0,0132854	-144,6	   0,0133292	-143,9
     43,1872	   0,0131801	-141,9	    0,013374	-144,6
     43,1891	   0,0131731	-141,3	   0,0133252	-143,0
     43,1911	   0,0131507	-141,6	    0,013277	-139,8
     43,1931	   0,0132425	-143,3	    0,013259	-141,7
      43,195	   0,0132136	-141,5	   0,0132292	-143,9
      43,197	   0,0130884	-143,9	    0,013109	-145,5
     43,1989	   0,0130677	-146,3	   0,0130473	-143,4
     43,2009	   0,0130417	-141,9	   0,0130184	-145,1
     43,2028	   0,0130194	-144,2	   0,0130048	-143,4
     43,2048	   0,0129515	-142,4	   0,0129904	-142,2
     43,2067	   0,0129222	-142,6	   0,0129774	-142,4
     43,2087	   0,0129212	-143,2	   0,0129268	-139,9
     43,2107	   0,0128385	-142,5	   0,0129187	-142,0
     43,2126	    0,012838	-142,3	   0,0128393	-143,8
     43,2146	   0,0127726	-141,8	   0,0128373	-143,6
     43,2165	    0,012701	-140,6	   0,0128062	-144,4
     43,2185	   0,0126671	-142,5	   0,0128372	-144,8
     43,2204	   0,0125468	-140,6	   0,0127584	-144,9
     43,2224	   0,0126163	-141,3	   0,0126333	-141,8
     43,2243	   0,0125704	-144,4	   0,0125048	-140,8
     43,2263	    0,012578	-144,6	   0,0125119	-139,8
     43,2282	   0,0126237	-143,3	   0,0125548	-141,6
     43,2302	   0,0125526	-141,8	   0,0125583	-142,6
     43,2322	   0,0124941	-139,7	   0,0124885	-144,6
     43,2341	   0,0125263	-138,4	    0,012425	-143,1
     43,2361	   0,0124547	-140,9	    0,012417	-143,4
      43,238	   0,0124758	-140,8	   0,0124581	-142,0
       43,24	     0,01234	-143,0	   0,0124285	-139,5
     43,2419	   0,0123989	-143,3	   0,0123517	-140,5
     43,2439	    0,012288	-142,9	   0,0123114	-139,5
     43,2458	   0,0122361	-141,8	   0,0122787	-140,7
     43,2478	   0,0122184	-140,5	   0,0123022	-141,2
     43,2498	   0,0121815	-139,5	   0,0121706	-143,6
     43,2517	   0,0121525	-138,5	   0,0121121	-144,8
     43,2537	   0,0120725	-140,4	   0,0121884	-140,5
     43,2556	   0,0120196	-140,3	   0,0120649	-141,4
     43,2576	   0,0120322	-143,6	   0,0121625	-141,4
     43,2595	   0,0120713	-143,1	   0,0120535	-140,5
     43,2615	   0,0120292	-142,7	   0,0119646	-142,3
     43,2634	   0,0119324	-141,2	   0,0119713	-141,0
     43,2654	   0,0118379	-140,0	   0,0118536	-142,1
     43,2673	   0,0117428	-137,8	   0,0119103	-143,2
     43,2693	   0,0116983	-136,5	   0,0118408	-140,5
     43,2713	   0,0116811	-139,5	   0,0118205	-140,6
     43,2732	   0,0117404	-143,1	   0,0117731	-140,4
     43,2752	   0,0117423	-141,2	   0,0117228	-140,3
     43,2771	   0,0116933	-142,2	   0,0117399	-137,7
     43,2791	   0,0116823	-140,2	   0,0117539	-140,7
      43,281	   0,0116797	-141,2	   0,0117282	-140,3
      43,283	   0,0116514	-139,2	   0,0117012	-141,7
     43,2849	   0,0116607	-137,4	   0,0116788	-142,6
     43,2869	   0,0116122	-140,9	   0,0115953	-141,1
     43,2889	   0,0115926	-141,0	   0,0115333	-141,0
     43,2908	   0,0115798	-139,7	   0,0115419	-140,8
     43,2928	   0,0115482	-143,4	   0,0114206	-138,3
     43,2947	   0,0115065	-142,9	   0,0114665	-138,0
     43,2967	   0,0114457	-139,8	   0,0114472	-140,7
     43,2986	   0,0113701	-138,7	   0,0114075	-139,1
     43,3006	   0,0113488	-137,0	   0,0114283	-143,1
     43,3025	   0,0112412	-137,5	   0,0113522	-140,1
     43,3045	   0,0112337	-139,7	   0,0113125	-141,1
     43,3064	    0,011263	-141,1	   0,0113224	-139,8
     43,3084	   0,0112047	-140,2	   0,0112621	-139,0
     43,3104	   0,0111305	-141,5	   0,0112048	-141,0
     43,3123	   0,0111278	-140,9	   0,0111442	-139,3
     43,3143	    0,011101	-139,5	    0,011202	-141,0
     43,3162	   0,0111915	-137,8	   0,0112137	-140,4
     43,3182	   0,0110947	-135,5	   0,0111927	-140,3
     43,3201	   0,0110716	-138,5	   0,0112068	-137,7
     43,3221	   0,0110015	-136,4	   0,0110999	-139,3
      43,324	   0,0109437	-140,2	   0,0109972	-139,7
      43,326	   0,0109478	-142,0	   0,0109324	-138,0
      43,328	   0,0109082	-142,4	   0,0108517	-141,5
     43,3299	   0,0109649	-139,4	   0,0108466	-139,0
     43,3319	   0,0108823	-138,6	   0,0108813	-140,6
     43,3338	   0,0108291	-136,3	   0,0108435	-138,9
     43,3358	   0,0107251	-137,6	   0,0108741	-140,2
     43,3377	   0,0107062	-138,0	   0,0108596	-137,4
     43,3397	   0,0107314	-138,4	   0,0108376	-138,3
     43,3416	   0,0108079	-139,8	    0,010781	-138,6
     43,3436	   0,0108346	-141,6	   0,0107595	-135,8
     43,3456	   0,0108231	-139,3	   0,0107266	-138,0
     43,3475	   0,0107298	-137,9	   0,0107841	-138,7
     43,3495	   0,0105331	-136,5	   0,0106791	-139,4
     43,3514	    0,010453	-138,5	   0,0105974	-140,3
     43,3534	   0,0105015	-138,9	    0,010527	-139,8
     43,3553	    0,010604	-137,9	   0,0105478	-139,9
     43,3573	   0,0105965	-139,4	    0,010512	-138,7
     43,3592	    0,010557	-137,5	    0,010423	-137,0
     43,3612	   0,0105291	-138,2	   0,0104741	-138,6
     43,3631	   0,0104466	-138,4	   0,0105066	-137,0
     43,3651	   0,0104516	-138,9	   0,0104034	-140,0
     43,3671	   0,0104934	-139,8	   0,0102782	-142,4
      43,369	   0,0103848	-136,2	   0,0102618	-139,7
      43,371	   0,0102667	-136,6	   0,0103114	-140,4
     43,3729	   0,0102048	-136,0	   0,0103584	-138,4
     43,3749	   0,0101952	-137,9	   0,0103557	-134,8
     43,3768	   0,0102171	-140,6	   0,0103134	-135,0
     43,3788	   0,0102816	-137,7	   0,0102282	-136,1
     43,3807	   0,0102469	-139,1	   0,0102589	-136,3
     43,3827	   0,0102186	-137,5	   0,0102547	-138,9
     43,3847	   0,0101752	-136,1	    0,010269	-138,5
     43,3866	   0,0100622	-138,5	   0,0101633	-141,7
     43,3886	   0,0100354	-137,6	   0,0100109	-140,2
     43,3905	   0,0101552	-138,2	   0,0100532	-137,0
     43,3925	   0,0101783	-138,3	   0,0100349	-138,0
     43,3944	   0,0101228	-136,8	   0,0100313	-133,8
     43,3964	   0,0101079	-138,7	   0,0100553	-135,2
     43,3983	  0,00999498	-136,1	   0,0100579	-137,8
     43,4003	  0,00990552	-138,4	    0,010008	-137,5
     43,4022	  0,00992681	-138,2	  0,00991976	-140,6
     43,4042	  0,00989211	-139,9	  0,00992833	-136,8
     43,4062	  0,00992111	-138,0	  0,00989237	-137,8
     43,4081	  0,00988432	-137,3	  0,00983886	-139,1
     43,4101	  0,00982649	-136,1	   0,0098145	-136,1
      43,412	  0,00974416	-133,4	  0,00983867	-139,3
      43,414	  0,00968812	-134,8	  0,00981428	-138,3
     43,4159	  0,00972193	-137,9	  0,00983807	-135,5
     43,4179	   0,0098262	-138,5	  0,00981226	-137,7
     43,4198	  0,00977642	-138,1	  0,00967281	-135,5
     43,4218	  0,00972411	-139,2	  0,00956065	-137,8
     43,4238	   0,0096631	-137,3	  0,00962229	-136,8
     43,4257	  0,00959808	-135,9	   0,0096559	-138,2
     43,4277	  0,00957928	-136,2	  0,00968522	-138,7
     43,4296	  0,00959896	-135,5	  0,00960108	-138,2
     43,4316	  0,00961383	-136,5	  0,00955303	-136,9
     43,4335	  0,00957586	-137,6	  0,00953787	-135,5
     43,4355	  0,00954046	-135,8	  0,00955829	-134,8
     43,4374	  0,00943678	-137,7	   0,0095368	-136,1
     43,4394	   0,0094517	-136,3	  0,00954201	-136,5
     43,4413	  0,00944508	-137,2	  0,00951554	-136,7
     43,4433	  0,00945354	-137,4	  0,00944332	-140,0
     43,4453	  0,00943366	-137,0	  0,00928332	-137,1
     43,4472	   0,0094321	-137,5	  0,00932193	-138,3
     43,4492	  0,00940155	-136,9	  0,00924357	-136,5
     43,4511	   0,0093477	-134,2	  0,00934335	-136,7
     43,4531	  0,00940997	-132,0	  0,00934417	-137,7
      43,455	  0,00938109	-133,2	  0,00931629	-136,0
      43,457	  0,00932272	-133,5	  0,00934867	-134,2
     43,4589	  0,00921005	-136,1	  0,00931037	-136,5
     43,4609	  0,00919767	-137,0	  0,00908811	-136,7
     43,4629	  0,00921719	-137,7	  0,00916359	-130,0
     43,4648	  0,00923227	-136,4	  0,00912938	-134,6
     43,4668	  0,00916934	-134,2	   0,0090847	-137,8
     43,4687	  0,00914328	-134,2	  0,00921499	-138,9
     43,4707	  0,00922285	-136,7	  0,00919629	-136,8
     43,4726	  0,00926483	-134,4	  0,00916137	-138,8
     43,4746	  0,00915723	-134,7	  0,00911224	-137,4
     43,4765	  0,00911856	-135,1	  0,00909819	-136,1
     43,4785	  0,00902947	-132,8	   0,0090505	-134,7
     43,4804	  0,00899956	-135,3	  0,00891164	-136,2
     43,4824	  0,00900697	-135,4	   0,0089123	-133,9
     43,4844	  0,00895418	-136,5	  0,00901284	-135,2
     43,4863	  0,00897922	-138,6	  0,00900264	-135,5
     43,4883	   0,0089053	-138,3	  0,00898371	-135,9
     43,4902	   0,0089677	-136,7	  0,00889567	-136,6
     43,4922	  0,00891659	-134,8	  0,00874684	-137,9
     43,4941	  0,00888146	-135,0	  0,00874227	-136,9
     43,4961	  0,00886105	-132,0	  0,00884676	-136,4
      43,498	  0,00880365	-135,0	  0,00886001	-137,6
        43,5	  0,00880945	-136,0	  0,00883763	-135,5

