X-Data [Hz]	Laser (M - Filtered) [m/s]	Phase [Deg]	Laser (M - Filtered) [m/s]	Phase [Deg]	
	002: [07-09-24 13:27]		003: [07-09-24 13:30]	
          42	   0,0147738	82,9	   0,0156061	83,2
      42,002	   0,0150338	84,0	   0,0155943	81,1
     42,0039	   0,0152705	82,8	   0,0154926	83,5
     42,0059	   0,0152823	83,7	    0,015673	82,6
     42,0078	   0,0154031	82,5	   0,0156527	84,2
     42,0098	   0,0155113	82,3	   0,0155789	81,3
     42,0117	   0,0155688	82,6	   0,0157984	82,3
     42,0137	   0,0155084	81,7	   0,0158432	82,4
     42,0156	   0,0155385	83,3	   0,0158193	80,8
     42,0176	   0,0155892	82,5	   0,0158483	83,5
     42,0196	   0,0157095	85,1	   0,0159022	83,0
     42,0215	   0,0156918	83,0	   0,0158543	82,8
     42,0235	   0,0157166	82,7	   0,0158313	82,9
     42,0254	   0,0157338	83,6	   0,0159558	83,1
     42,0274	   0,0158319	81,7	   0,0159691	83,8
     42,0293	   0,0158432	83,6	   0,0159673	81,5
     42,0313	   0,0159835	82,6	   0,0159917	83,5
     42,0332	   0,0158894	83,2	   0,0159396	82,7
     42,0352	   0,0158469	82,4	    0,016125	82,7
     42,0371	   0,0158965	83,7	   0,0161872	81,4
     42,0391	   0,0159846	84,6	   0,0162164	84,0
     42,0411	   0,0160359	81,0	   0,0161935	83,9
      42,043	   0,0160739	84,9	   0,0161597	82,4
      42,045	   0,0161199	83,1	    0,016198	82,2
     42,0469	   0,0161221	84,1	    0,016286	84,5
     42,0489	   0,0161259	81,4	   0,0163055	84,2
     42,0508	   0,0161737	84,6	   0,0162984	82,2
     42,0528	   0,0161342	83,8	   0,0163489	84,5
     42,0547	   0,0162002	82,5	    0,016429	82,9
     42,0567	    0,016264	83,2	    0,016352	83,3
     42,0587	   0,0163006	84,9	   0,0164055	83,3
     42,0606	   0,0163328	83,9	   0,0164678	83,6
     42,0626	   0,0163361	82,1	   0,0166057	83,1
     42,0645	   0,0164261	84,2	   0,0166582	83,1
     42,0665	   0,0164585	83,8	   0,0166343	86,1
     42,0684	   0,0164083	83,2	    0,016575	82,7
     42,0704	   0,0164986	85,5	   0,0166423	83,9
     42,0723	   0,0164645	83,5	   0,0167601	82,4
     42,0743	   0,0165457	83,1	   0,0167364	85,7
     42,0762	   0,0164906	82,6	   0,0167993	84,0
     42,0782	   0,0165433	85,8	   0,0168188	83,8
     42,0802	   0,0166374	83,4	   0,0168122	82,8
     42,0821	   0,0167122	84,4	   0,0167939	85,5
     42,0841	   0,0167948	83,1	   0,0168942	84,9
      42,086	   0,0168563	86,0	   0,0168956	82,3
      42,088	   0,0167819	83,1	   0,0169689	85,7
     42,0899	   0,0167446	84,7	   0,0170608	82,9
     42,0919	   0,0168304	82,4	   0,0170952	84,2
     42,0938	   0,0168593	86,2	     0,01709	83,7
     42,0958	   0,0168534	83,0	   0,0171137	86,2
     42,0978	   0,0167899	83,7	   0,0171032	83,0
     42,0997	   0,0168588	84,2	     0,01711	84,5
     42,1017	   0,0169848	84,0	   0,0171893	83,5
     42,1036	   0,0171059	84,8	   0,0172048	86,0
     42,1056	   0,0170751	83,5	   0,0172955	83,7
     42,1075	   0,0170996	86,3	   0,0172983	84,8
     42,1095	   0,0172318	83,5	   0,0173706	84,0
     42,1114	   0,0172425	84,8	   0,0173956	83,4
     42,1134	   0,0172877	85,3	   0,0173577	85,6
     42,1153	   0,0172608	86,5	   0,0174663	83,5
     42,1173	    0,017314	83,9	   0,0175128	85,8
     42,1193	   0,0173559	84,2	   0,0174986	84,0
     42,1212	   0,0174131	85,3	   0,0175146	85,1
     42,1232	   0,0173981	86,2	   0,0175271	84,9
     42,1251	   0,0173818	85,6	    0,017628	85,4
     42,1271	   0,0173678	84,9	   0,0176549	84,0
      42,129	   0,0174545	87,4	   0,0177487	84,6
      42,131	    0,017668	84,0	   0,0177651	85,4
     42,1329	   0,0177094	85,8	   0,0178254	86,0
     42,1349	    0,017677	84,6	   0,0178255	86,2
     42,1369	   0,0176791	86,6	   0,0178976	84,6
     42,1388	   0,0176879	83,8	    0,017974	88,0
     42,1408	   0,0177285	85,6	   0,0179775	84,8
     42,1427	   0,0177717	85,7	   0,0179579	86,6
     42,1447	   0,0178006	87,1	   0,0180608	85,0
     42,1466	   0,0177737	84,4	   0,0180965	86,3
     42,1486	   0,0178919	84,8	   0,0182206	84,1
     42,1505	   0,0179959	86,8	   0,0182269	86,6
     42,1525	   0,0180099	83,4	   0,0182317	85,9
     42,1544	    0,018059	85,9	   0,0181715	87,7
     42,1564	   0,0181338	85,0	   0,0181795	85,6
     42,1584	   0,0181593	86,4	   0,0183559	85,4
     42,1603	   0,0181229	84,8	    0,018453	85,6
     42,1623	   0,0181763	86,6	   0,0184504	85,3
     42,1642	   0,0182539	85,7	   0,0185531	86,5
     42,1662	   0,0183409	87,3	   0,0185326	85,9
     42,1681	   0,0183297	84,6	   0,0185818	86,4
     42,1701	   0,0183253	86,6	   0,0186971	85,5
      42,172	   0,0183749	86,5	   0,0186869	87,2
      42,174	     0,01836	86,4	   0,0186823	85,5
      42,176	   0,0184356	86,0	   0,0186784	88,1
     42,1779	    0,018535	86,5	   0,0187455	85,6
     42,1799	   0,0186207	87,0	   0,0187216	86,5
     42,1818	   0,0186771	87,7	   0,0187768	87,2
     42,1838	   0,0187383	86,8	   0,0188305	87,5
     42,1857	   0,0187079	86,5	   0,0189602	86,2
     42,1877	   0,0187272	88,7	     0,01901	86,3
     42,1896	   0,0187938	84,5	   0,0190286	87,9
     42,1916	   0,0187959	87,3	   0,0190144	88,0
     42,1936	    0,018791	87,1	   0,0190432	86,2
     42,1955	   0,0188397	88,3	   0,0191452	86,0
     42,1975	   0,0189247	85,8	   0,0191707	87,6
     42,1994	   0,0189388	87,7	    0,019196	88,5
     42,2014	   0,0189651	85,8	   0,0192824	87,4
     42,2033	   0,0190641	88,5	   0,0194171	86,6
     42,2053	   0,0190707	85,8	   0,0194641	89,3
     42,2072	   0,0191148	88,1	   0,0194427	86,7
     42,2092	   0,0191126	87,0	   0,0195097	87,9
     42,2111	   0,0192884	89,5	   0,0194308	86,3
     42,2131	   0,0192848	86,5	   0,0194667	88,1
     42,2151	   0,0193783	87,2	   0,0195506	88,8
      42,217	   0,0193099	87,0	   0,0196846	89,7
      42,219	   0,0194957	87,8	   0,0198352	86,1
     42,2209	   0,0196187	88,1	   0,0198635	89,6
     42,2229	   0,0196837	87,3	   0,0198519	88,0
     42,2248	   0,0196941	88,8	   0,0198861	90,1
     42,2268	   0,0196841	87,2	   0,0199484	85,6
     42,2287	   0,0197489	87,6	   0,0199161	88,8
     42,2307	   0,0197537	87,0	   0,0199709	88,9
     42,2327	   0,0197304	89,1	   0,0200558	87,8
     42,2346	   0,0197309	88,1	   0,0202286	87,8
     42,2366	   0,0198088	87,6	   0,0202081	89,2
     42,2385	   0,0199051	88,5	   0,0202381	89,2
     42,2405	    0,020031	88,8	   0,0203009	87,6
     42,2424	   0,0200998	87,0	   0,0203032	88,5
     42,2444	   0,0201515	89,2	   0,0204224	88,7
     42,2463	   0,0201427	87,2	    0,020517	89,4
     42,2483	   0,0200878	90,3	   0,0205282	88,8
     42,2502	   0,0201674	88,2	   0,0205895	87,6
     42,2522	    0,020301	89,5	   0,0205815	89,7
     42,2542	   0,0203451	87,7	   0,0206178	90,4
     42,2561	   0,0204785	91,3	   0,0206535	90,3
     42,2581	   0,0204903	88,2	   0,0206922	89,3
       42,26	   0,0203794	90,3	   0,0208075	88,8
      42,262	   0,0204717	87,5	   0,0209891	89,7
     42,2639	   0,0204988	89,7	   0,0209779	88,1
     42,2659	   0,0205434	88,7	   0,0209062	88,4
     42,2678	    0,020681	90,0	   0,0210092	89,7
     42,2698	    0,020853	88,6	   0,0210933	89,8
     42,2718	   0,0209187	90,7	   0,0211839	88,0
     42,2737	   0,0208797	90,2	   0,0211801	90,2
     42,2757	   0,0208889	91,3	   0,0211943	88,9
     42,2776	   0,0208653	88,2	   0,0212658	92,5
     42,2796	   0,0210013	90,9	   0,0213887	89,8
     42,2815	   0,0210422	91,0	   0,0214716	90,9
     42,2835	   0,0211184	89,2	   0,0214991	88,8
     42,2854	   0,0212227	89,3	   0,0215468	92,2
     42,2874	   0,0212333	90,7	   0,0216023	91,1
     42,2893	   0,0212737	91,1	   0,0216396	91,1
     42,2913	   0,0213421	91,4	   0,0217708	89,1
     42,2933	   0,0213536	89,3	   0,0218107	90,3
     42,2952	   0,0214195	91,3	   0,0219159	91,6
     42,2972	   0,0215417	90,8	    0,021944	92,0
     42,2991	   0,0216349	92,7	   0,0218731	90,1
     42,3011	   0,0217546	89,7	   0,0219216	90,4
      42,303	   0,0217604	92,4	   0,0220717	90,9
      42,305	   0,0218772	90,4	   0,0222123	91,8
     42,3069	   0,0218354	92,5	   0,0222438	90,4
     42,3089	   0,0218918	90,6	   0,0222927	92,5
     42,3109	    0,021948	91,7	   0,0223381	91,0
     42,3128	   0,0220091	92,1	   0,0224331	93,5
     42,3148	   0,0221425	92,6	   0,0225017	89,3
     42,3167	   0,0222641	90,3	   0,0225253	93,2
     42,3187	   0,0222575	91,4	   0,0225318	90,8
     42,3206	   0,0222039	92,0	    0,022705	93,8
     42,3226	   0,0222075	93,3	   0,0228005	92,3
     42,3245	    0,022304	90,2	   0,0228057	92,9
     42,3265	   0,0223996	92,2	   0,0227611	91,8
     42,3284	   0,0225547	90,2	   0,0228535	93,2
     42,3304	   0,0226385	93,1	   0,0229551	93,1
     42,3324	   0,0227097	92,1	    0,022996	92,7
     42,3343	   0,0228313	92,5	   0,0231067	92,8
     42,3363	    0,022792	91,9	   0,0231617	93,8
     42,3382	   0,0227826	94,3	   0,0232835	92,0
     42,3402	    0,022845	92,6	   0,0233166	92,7
     42,3421	   0,0228528	93,6	   0,0233256	91,8
     42,3441	   0,0229475	91,9	   0,0234381	95,6
      42,346	   0,0231385	95,5	   0,0236021	92,8
      42,348	   0,0232554	92,6	   0,0236561	94,5
       42,35	   0,0232479	94,9	    0,023648	91,6
     42,3519	   0,0233182	91,7	   0,0236631	94,3
     42,3539	    0,023402	93,9	   0,0237806	93,6
     42,3558	   0,0235449	93,6	   0,0239178	95,2
     42,3578	   0,0236119	95,4	   0,0240636	92,8
     42,3597	   0,0236932	92,4	   0,0241304	94,9
     42,3617	   0,0236725	93,8	   0,0242393	94,5
     42,3636	    0,023684	93,3	   0,0242934	95,6
     42,3656	   0,0237629	96,4	   0,0243076	95,2
     42,3675	   0,0238459	94,2	   0,0243808	92,8
     42,3695	   0,0239235	94,1	   0,0243722	95,8
     42,3715	   0,0239394	93,0	   0,0244292	95,6
     42,3734	   0,0239938	95,6	   0,0245253	96,0
     42,3754	   0,0240821	95,6	   0,0245618	94,3
     42,3773	   0,0241381	95,0	   0,0246596	95,5
     42,3793	   0,0242765	94,5	   0,0248189	96,2
     42,3812	   0,0243163	96,9	   0,0249703	95,7
     42,3832	   0,0244283	95,0	   0,0250205	95,2
     42,3851	   0,0244939	95,9	    0,025093	94,6
     42,3871	   0,0245741	94,2	   0,0251673	96,5
     42,3891	   0,0246854	95,6	   0,0252567	97,1
      42,391	   0,0246852	96,0	   0,0252758	96,9
      42,393	   0,0246755	96,5	   0,0254193	96,2
     42,3949	   0,0247361	95,4	   0,0254686	95,2
     42,3969	   0,0248719	97,0	   0,0254982	98,5
     42,3988	   0,0250052	96,9	   0,0255623	96,0
     42,4008	   0,0251316	97,4	   0,0255837	98,6
     42,4027	   0,0251847	97,5	   0,0257245	95,6
     42,4047	   0,0252506	95,0	   0,0258179	96,6
     42,4066	   0,0253165	97,3	   0,0259505	97,9
     42,4086	   0,0253905	95,9	   0,0260839	97,6
     42,4106	   0,0254901	98,0	   0,0261586	96,2
     42,4125	   0,0255631	97,3	   0,0262725	97,6
     42,4145	   0,0256346	97,4	   0,0263784	98,3
     42,4164	   0,0257697	96,5	   0,0264235	100,1
     42,4184	   0,0257965	97,7	   0,0264848	97,7
     42,4203	   0,0259103	98,3	   0,0265615	98,5
     42,4223	   0,0260501	98,2	   0,0266599	97,3
     42,4242	   0,0261222	98,5	   0,0267618	100,1
     42,4262	   0,0262824	98,8	   0,0268295	98,1
     42,4282	   0,0263565	98,4	   0,0269652	99,9
     42,4301	   0,0263398	99,6	   0,0271129	97,8
     42,4321	   0,0264395	97,9	   0,0271302	99,2
      42,434	   0,0265803	98,4	   0,0272555	99,9
      42,436	    0,026693	100,1	    0,027344	100,4
     42,4379	   0,0267092	98,8	   0,0273929	99,9
     42,4399	   0,0267231	100,0	   0,0274738	99,2
     42,4418	   0,0268139	96,9	   0,0276013	100,3
     42,4438	   0,0269553	100,4	   0,0277136	99,2
     42,4457	   0,0270929	99,1	   0,0278008	102,8
     42,4477	   0,0271647	101,9	   0,0278751	99,5
     42,4497	   0,0272676	99,3	   0,0279207	101,4
     42,4516	   0,0273415	100,5	   0,0279713	99,0
     42,4536	   0,0273792	99,1	   0,0280213	101,7
     42,4555	   0,0275023	101,2	   0,0281634	100,6
     42,4575	   0,0275583	101,0	   0,0283947	100,5
     42,4594	   0,0276084	100,5	   0,0285422	100,4
     42,4614	   0,0277434	101,6	   0,0287137	103,1
     42,4633	   0,0279109	99,4	   0,0287383	101,5
     42,4653	   0,0279283	100,6	   0,0287595	103,0
     42,4673	   0,0279963	102,5	   0,0288314	100,2
     42,4692	   0,0280995	99,5	    0,028908	103,0
     42,4712	   0,0281619	101,8	   0,0290518	101,8
     42,4731	   0,0283713	101,8	   0,0291319	103,8
     42,4751	   0,0284613	101,6	    0,029263	102,6
      42,477	   0,0285202	103,5	   0,0293705	102,0
      42,479	   0,0285711	101,7	   0,0294578	103,0
     42,4809	   0,0286569	103,2	   0,0295833	103,3
     42,4829	   0,0287248	101,6	   0,0296887	104,9
     42,4848	   0,0287828	105,1	   0,0297983	102,9
     42,4868	   0,0289716	103,1	   0,0298791	104,5
     42,4888	   0,0290418	104,2	   0,0300292	102,1
     42,4907	   0,0291482	102,7	   0,0301488	105,5
     42,4927	   0,0292821	103,4	   0,0302875	103,7
     42,4946	   0,0293881	104,5	   0,0304466	105,6
     42,4966	   0,0294381	105,1	   0,0305168	102,8
     42,4985	   0,0296291	105,4	   0,0305635	106,2
     42,5005	   0,0296859	102,6	   0,0306681	104,4
     42,5024	   0,0298269	105,6	    0,030815	107,6
     42,5044	   0,0299395	104,1	   0,0308934	105,1
     42,5064	   0,0300224	106,4	   0,0310763	104,8
     42,5083	   0,0302191	104,1	   0,0311995	105,8
     42,5103	    0,030321	105,0	   0,0313351	105,7
     42,5122	   0,0303996	105,0	   0,0314911	107,9
     42,5142	   0,0304524	105,0	   0,0316045	106,7
     42,5161	   0,0305286	105,0	   0,0318021	106,9
     42,5181	   0,0306916	107,2	   0,0318306	107,1
       42,52	     0,03085	105,8	   0,0320102	108,7
      42,522	   0,0309688	106,2	   0,0320442	108,5
     42,5239	    0,031029	107,9	   0,0321509	109,2
     42,5259	   0,0311685	106,7	   0,0322649	107,2
     42,5279	   0,0312456	109,5	   0,0323187	109,3
     42,5298	   0,0313233	106,9	   0,0324495	108,1
     42,5318	   0,0313698	108,9	   0,0325608	110,5
     42,5337	   0,0314917	108,2	   0,0327614	109,7
     42,5357	   0,0315992	109,6	   0,0328493	108,6
     42,5376	   0,0316484	107,4	   0,0328835	109,5
     42,5396	   0,0317855	108,7	   0,0330447	108,3
     42,5415	   0,0319677	108,2	   0,0332195	110,9
     42,5435	   0,0320968	109,0	   0,0333408	111,2
     42,5455	   0,0321861	111,4	   0,0334167	113,6
     42,5474	   0,0322571	109,3	   0,0335567	110,3
     42,5494	   0,0323728	111,5	   0,0336285	110,1
     42,5513	   0,0324954	109,0	    0,033766	111,7
     42,5533	   0,0325826	109,9	   0,0338299	111,3
     42,5552	   0,0326766	110,6	   0,0340366	114,4
     42,5572	   0,0328072	112,6	   0,0340967	111,2
     42,5591	   0,0329668	112,1	   0,0341876	112,6
     42,5611	   0,0330967	111,9	   0,0343807	113,3
      42,563	   0,0332695	110,8	   0,0344673	114,6
      42,565	   0,0333804	113,2	   0,0345325	113,3
      42,567	   0,0334328	113,5	   0,0346423	114,8
     42,5689	   0,0336027	111,2	    0,034772	112,6
     42,5709	   0,0336941	113,3	   0,0348776	113,8
     42,5728	   0,0338836	111,6	   0,0349834	114,5
     42,5748	   0,0339672	112,9	   0,0351433	114,8
     42,5767	   0,0340051	114,1	   0,0353018	115,7
     42,5787	   0,0341539	114,0	   0,0354053	113,9
     42,5806	    0,034241	115,1	    0,035522	116,6
     42,5826	   0,0343663	113,9	   0,0356327	114,4
     42,5846	   0,0345108	115,0	   0,0357901	117,7
     42,5865	   0,0346732	117,3	   0,0359638	117,3
     42,5885	   0,0347411	116,6	   0,0361179	116,7
     42,5904	   0,0348006	114,6	   0,0362609	115,4
     42,5924	   0,0348969	116,9	    0,036477	118,3
     42,5943	    0,035128	114,9	   0,0365725	118,7
     42,5963	   0,0352496	117,3	   0,0366635	118,3
     42,5982	   0,0353265	116,4	   0,0367632	118,6
     42,6002	   0,0354441	117,6	   0,0368286	116,3
     42,6021	   0,0355069	117,7	   0,0369932	119,5
     42,6041	   0,0356591	115,7	   0,0370561	118,2
     42,6061	   0,0357448	118,5	   0,0371785	121,0
      42,608	   0,0357978	116,7	   0,0373218	121,3
       42,61	   0,0360337	119,3	   0,0374216	120,2
     42,6119	   0,0361607	119,3	   0,0374864	120,9
     42,6139	    0,036342	118,5	   0,0374672	119,4
     42,6158	   0,0363994	120,3	    0,037514	122,0
     42,6178	   0,0365552	120,6	   0,0376832	119,9
     42,6197	   0,0367106	120,8	   0,0378043	122,6
     42,6217	   0,0367952	120,9	   0,0380529	122,7
     42,6237	   0,0369202	122,8	   0,0381901	122,0
     42,6256	   0,0370657	119,5	    0,038308	122,5
     42,6276	   0,0371461	121,7	     0,03844	122,0
     42,6295	   0,0372341	121,1	   0,0385086	125,1
     42,6315	   0,0372639	121,7	    0,038646	124,6
     42,6334	   0,0372741	124,3	   0,0388114	124,9
     42,6354	   0,0374114	123,2	   0,0388847	122,7
     42,6373	   0,0375747	125,0	   0,0390126	125,8
     42,6393	   0,0376565	121,7	   0,0390886	125,8
     42,6413	   0,0378555	122,9	   0,0391947	126,2
     42,6432	   0,0379975	124,1	   0,0393308	127,1
     42,6452	   0,0380319	125,3	   0,0393711	126,0
     42,6471	   0,0381879	122,8	    0,039441	127,4
     42,6491	   0,0383377	125,2	    0,039578	125,3
      42,651	   0,0384883	125,8	   0,0396529	128,6
      42,653	   0,0385399	126,1	   0,0397378	128,7
     42,6549	   0,0385804	129,1	   0,0399145	128,8
     42,6569	   0,0387615	126,3	   0,0399749	129,6
     42,6588	   0,0388573	127,6	   0,0401111	128,1
     42,6608	   0,0388984	126,8	    0,040121	130,5
     42,6628	   0,0389819	125,8	   0,0402499	128,5
     42,6647	   0,0390777	130,8	    0,040359	130,7
     42,6667	   0,0391503	127,7	   0,0404853	128,9
     42,6686	   0,0392996	130,8	   0,0405978	132,5
     42,6706	   0,0393709	128,9	   0,0406856	131,3
     42,6725	   0,0394602	128,9	   0,0407081	131,0
     42,6745	     0,03953	130,9	   0,0407816	133,3
     42,6764	   0,0397137	127,8	   0,0408245	131,9
     42,6784	   0,0398292	131,1	   0,0408634	134,9
     42,6804	   0,0398893	130,8	   0,0409826	133,0
     42,6823	   0,0399588	132,7	   0,0410044	132,8
     42,6843	    0,040095	129,8	   0,0410759	132,9
     42,6862	   0,0401325	132,3	   0,0410974	132,7
     42,6882	   0,0401508	132,0	   0,0411621	135,1
     42,6901	   0,0403352	133,8	   0,0412843	134,6
     42,6921	   0,0404638	134,8	   0,0413638	135,2
      42,694	   0,0404602	133,1	    0,041459	133,5
      42,696	   0,0405146	134,4	   0,0414813	136,5
     42,6979	   0,0405815	133,0	   0,0415476	136,2
     42,6999	   0,0406939	134,1	   0,0416646	137,2
     42,7019	   0,0408258	136,3	   0,0416638	138,7
     42,7038	   0,0409037	135,4	   0,0417749	137,8
     42,7058	    0,040961	137,7	   0,0418307	139,2
     42,7077	   0,0410372	136,5	   0,0417588	137,6
     42,7097	    0,041147	136,5	   0,0418727	137,9
     42,7116	   0,0412247	137,3	   0,0418134	139,9
     42,7136	   0,0412829	138,1	   0,0419218	139,8
     42,7155	   0,0414079	138,8	   0,0419607	142,2
     42,7175	   0,0414733	137,2	   0,0420639	139,8
     42,7195	   0,0415049	140,3	   0,0420571	140,6
     42,7214	   0,0415952	139,0	   0,0420004	140,7
     42,7234	   0,0416968	138,4	   0,0420908	140,0
     42,7253	   0,0418111	140,0	   0,0420663	142,4
     42,7273	   0,0418822	138,7	   0,0421335	140,4
     42,7292	   0,0418823	141,8	   0,0421996	144,3
     42,7312	   0,0418862	142,0	   0,0422349	143,0
     42,7331	   0,0420178	142,6	   0,0423226	144,0
     42,7351	   0,0420467	143,3	   0,0423174	142,7
      42,737	   0,0420166	140,7	   0,0423182	145,1
      42,739	   0,0421143	143,0	   0,0423062	145,3
      42,741	   0,0421563	141,8	   0,0422798	144,0
     42,7429	   0,0421194	142,9	   0,0423043	145,9
     42,7449	    0,042063	143,5	   0,0423431	145,3
     42,7468	   0,0420963	144,4	   0,0424354	145,1
     42,7488	   0,0421199	144,1	   0,0423961	146,6
     42,7507	   0,0421648	143,0	   0,0424616	145,5
     42,7527	   0,0421853	145,8	   0,0424561	147,5
     42,7546	   0,0422484	145,9	   0,0424704	145,8
     42,7566	   0,0422353	147,3	   0,0424335	149,0
     42,7586	   0,0421913	147,5	   0,0425418	146,9
     42,7605	    0,042243	146,0	   0,0425666	148,7
     42,7625	    0,042298	147,5	   0,0425472	150,3
     42,7644	   0,0423337	146,7	   0,0425145	149,1
     42,7664	   0,0423018	147,1	   0,0425429	151,6
     42,7683	    0,042339	149,1	   0,0425705	149,3
     42,7703	   0,0423595	147,8	   0,0424647	150,3
     42,7722	   0,0424306	149,9	   0,0424809	150,7
     42,7742	   0,0424309	149,7	   0,0425412	149,6
     42,7761	   0,0423951	149,1	   0,0425171	151,6
     42,7781	   0,0423564	149,6	   0,0424885	151,6
     42,7801	   0,0424024	148,1	    0,042465	152,1
      42,782	   0,0424565	151,8	   0,0424277	154,8
      42,784	   0,0424086	151,6	   0,0424928	151,9
     42,7859	    0,042397	154,3	   0,0424118	153,2
     42,7879	   0,0424514	152,5	   0,0423337	152,3
     42,7898	   0,0424577	151,1	   0,0423832	155,7
     42,7918	   0,0424834	153,7	   0,0423836	154,1
     42,7937	   0,0424871	152,0	   0,0422686	155,8
     42,7957	   0,0424656	153,7	   0,0423045	156,7
     42,7977	   0,0425198	154,9	   0,0422835	153,8
     42,7996	   0,0424429	154,1	   0,0422851	155,5
     42,8016	   0,0424156	156,4	   0,0422274	154,3
     42,8035	   0,0425019	153,5	    0,042196	156,2
     42,8055	   0,0424088	156,3	   0,0421571	157,7
     42,8074	   0,0424564	155,0	   0,0421791	156,5
     42,8094	   0,0423937	155,9	   0,0421231	158,6
     42,8113	   0,0422475	157,3	   0,0421455	158,3
     42,8133	   0,0422768	156,8	   0,0421047	157,4
     42,8153	   0,0422635	157,6	   0,0420477	158,7
     42,8172	   0,0422326	157,3	   0,0419757	158,0
     42,8192	   0,0422204	156,4	   0,0418825	160,3
     42,8211	    0,042155	159,0	   0,0418731	159,1
     42,8231	   0,0420368	157,3	    0,041854	161,3
      42,825	    0,042062	158,8	   0,0418021	160,5
      42,827	   0,0421316	160,0	   0,0417391	158,7
     42,8289	    0,041964	160,8	   0,0416541	162,1
     42,8309	   0,0420051	160,5	   0,0416602	159,3
     42,8328	    0,042026	158,4	   0,0415803	161,7
     42,8348	   0,0419478	161,4	   0,0415088	162,9
     42,8368	   0,0419564	160,1	   0,0414339	162,7
     42,8387	   0,0419089	161,4	   0,0413913	164,1
     42,8407	   0,0418519	162,7	   0,0414125	161,6
     42,8426	   0,0417093	161,5	   0,0413251	161,6
     42,8446	   0,0416989	163,6	   0,0412808	163,7
     42,8465	   0,0416368	163,4	   0,0412564	162,7
     42,8485	   0,0416357	161,6	   0,0411801	163,5
     42,8504	   0,0415722	164,2	   0,0412215	164,4
     42,8524	   0,0414721	163,8	   0,0411491	164,4
     42,8544	   0,0414196	162,4	   0,0410665	167,0
     42,8563	   0,0413611	165,6	   0,0409561	165,7
     42,8583	   0,0413625	164,0	   0,0409837	165,2
     42,8602	   0,0412755	166,9	   0,0409321	164,9
     42,8622	   0,0412954	165,3	   0,0408497	166,3
     42,8641	   0,0412548	165,3	   0,0408071	167,9
     42,8661	   0,0412606	165,9	   0,0408063	165,9
      42,868	   0,0411366	164,2	   0,0406858	167,6
       42,87	   0,0410011	167,8	   0,0405901	168,0
     42,8719	   0,0409681	167,6	   0,0404534	168,2
     42,8739	   0,0408677	166,7	   0,0403615	168,3
     42,8759	   0,0407871	168,0	   0,0403448	166,3
     42,8778	   0,0407403	166,7	   0,0402306	168,2
     42,8798	   0,0406802	168,9	   0,0401709	170,2
     42,8817	    0,040639	168,1	   0,0401161	168,9
     42,8837	   0,0405868	167,9	   0,0400633	170,8
     42,8856	   0,0405146	170,1	   0,0399968	170,8
     42,8876	   0,0405376	169,0	   0,0399328	170,5
     42,8895	   0,0403482	170,4	   0,0398511	170,7
     42,8915	    0,040295	171,0	   0,0396523	168,4
     42,8935	   0,0402486	169,9	   0,0396362	170,4
     42,8954	   0,0401472	171,2	   0,0395751	171,6
     42,8974	    0,040088	169,8	   0,0394894	168,4
     42,8993	   0,0400605	171,2	   0,0395089	173,9
     42,9013	   0,0399253	172,3	   0,0394647	172,0
     42,9032	   0,0398321	172,0	   0,0395197	174,0
     42,9052	   0,0397616	172,9	   0,0394503	171,3
     42,9071	   0,0396135	175,2	   0,0393365	171,2
     42,9091	    0,039501	172,9	   0,0392329	173,8
      42,911	   0,0395029	173,6	   0,0389953	172,4
      42,913	   0,0395032	172,1	   0,0390493	174,3
      42,915	   0,0394459	173,2	   0,0388994	174,6
     42,9169	   0,0393063	172,7	   0,0388101	174,4
     42,9189	   0,0392212	172,8	   0,0387716	175,9
     42,9208	   0,0391412	176,0	   0,0387668	174,7
     42,9228	   0,0390728	175,1	   0,0386674	174,3
     42,9247	   0,0389749	175,7	   0,0386029	175,1
     42,9267	   0,0388789	177,2	   0,0384893	174,2
     42,9286	   0,0387762	175,0	   0,0382845	174,2
     42,9306	   0,0387252	176,0	   0,0381475	176,8
     42,9326	   0,0385838	175,9	   0,0380315	176,1
     42,9345	   0,0385684	174,3	   0,0380328	179,3
     42,9365	   0,0384593	177,0	   0,0380196	176,3
     42,9384	   0,0384008	175,9	   0,0380094	177,6
     42,9404	   0,0383961	177,4	    0,037924	177,3
     42,9423	   0,0382555	178,9	   0,0377788	176,8
     42,9443	   0,0380539	177,5	    0,037727	178,3
     42,9462	   0,0380339	177,9	    0,037617	178,9
     42,9482	   0,0380167	178,6	   0,0375289	177,4
     42,9501	   0,0378887	177,2	    0,037457	181,4
     42,9521	   0,0377648	178,7	   0,0373146	179,4
     42,9541	   0,0376214	178,6	   0,0372472	178,6
      42,956	   0,0375582	180,1	   0,0372184	181,0
      42,958	   0,0374724	181,9	   0,0370057	180,0
     42,9599	   0,0373723	179,5	   0,0369915	180,7
     42,9619	   0,0372803	182,0	   0,0368442	179,8
     42,9638	   0,0371679	181,1	   0,0367493	180,0
     42,9658	   0,0371529	178,9	   0,0366862	182,8
     42,9677	   0,0370938	181,2	   0,0365525	181,0
     42,9697	   0,0369884	179,1	   0,0365056	181,9
     42,9717	   0,0369344	180,9	   0,0364564	182,7
     42,9736	   0,0368391	182,5	   0,0363891	181,1
     42,9756	   0,0367969	182,8	   0,0362289	181,5
     42,9775	   0,0366335	182,7	   0,0361141	182,8
     42,9795	     0,03654	184,2	   0,0361338	181,2
     42,9814	   0,0364693	181,3	   0,0360543	181,4
     42,9834	   0,0363643	182,7	    0,035979	183,4
     42,9853	   0,0362387	182,7	   0,0359082	181,2
     42,9873	   0,0361795	183,2	   0,0358135	184,4
     42,9892	   0,0360818	184,7	   0,0356952	183,6
     42,9912	   0,0358977	184,3	   0,0355433	185,2
     42,9932	    0,035826	184,4	   0,0354868	183,9
     42,9951	   0,0357198	185,4	   0,0354168	182,7
     42,9971	   0,0356008	183,9	   0,0353153	184,4
      42,999	   0,0355029	185,9	   0,0350871	185,2
      43,001	      0,0355	185,2	   0,0350474	184,3
     43,0029	   0,0354513	184,0	   0,0349292	185,4
     43,0049	   0,0353239	185,9	   0,0347908	185,1
     43,0068	   0,0352037	185,3	   0,0347817	185,0
     43,0088	   0,0351262	184,3	   0,0346707	187,3
     43,0108	   0,0350383	186,8	   0,0346419	186,3
     43,0127	   0,0349256	186,6	   0,0345444	187,6
     43,0147	   0,0349024	185,6	   0,0344584	186,2
     43,0166	   0,0347509	188,2	   0,0343277	185,1
     43,0186	   0,0346436	187,9	   0,0343603	186,6
     43,0205	   0,0345615	187,4	   0,0341691	186,2
     43,0225	   0,0344762	188,5	   0,0340374	187,7
     43,0244	   0,0343762	185,6	   0,0339183	188,2
     43,0264	   0,0342816	188,6	   0,0338062	187,8
     43,0283	   0,0341474	186,9	   0,0337277	189,0
     43,0303	   0,0340332	187,9	   0,0337452	190,6
     43,0323	   0,0339079	190,4	   0,0336341	188,3
     43,0342	   0,0338065	188,4	   0,0335097	188,5
     43,0362	   0,0337813	189,1	   0,0334244	189,7
     43,0381	   0,0337053	191,8	   0,0333628	187,1
     43,0401	    0,033569	190,1	   0,0333074	188,7
      43,042	    0,033461	189,1	   0,0331948	189,5
      43,044	   0,0333875	191,0	   0,0331603	187,7
     43,0459	   0,0333035	188,9	   0,0330674	189,1
     43,0479	    0,033147	188,1	   0,0329583	189,9
     43,0499	   0,0331225	190,2	   0,0328477	191,3
     43,0518	   0,0330594	188,9	   0,0327748	190,9
     43,0538	   0,0328955	190,2	   0,0326582	189,2
     43,0557	   0,0328212	191,0	   0,0325454	190,9
     43,0577	   0,0327652	190,7	   0,0325434	191,4
     43,0596	    0,032632	192,4	   0,0324134	187,5
     43,0616	   0,0325941	190,5	   0,0322802	190,3
     43,0635	   0,0324566	192,2	   0,0321473	191,0
     43,0655	   0,0322966	193,6	   0,0320875	190,6
     43,0674	   0,0322898	191,5	   0,0319474	190,7
     43,0694	   0,0322375	189,9	   0,0318676	192,7
     43,0714	   0,0321719	192,5	   0,0317277	192,0
     43,0733	   0,0320689	191,8	   0,0316473	193,9
     43,0753	   0,0319515	192,0	   0,0315731	191,5
     43,0772	   0,0319017	194,0	   0,0314479	192,8
     43,0792	   0,0318226	192,6	   0,0313651	193,3
     43,0811	   0,0317719	195,7	   0,0312576	191,0
     43,0831	    0,031611	194,3	   0,0312023	191,9
      43,085	   0,0314831	193,7	   0,0311717	193,9
      43,087	   0,0313316	194,1	   0,0310887	193,0
      43,089	    0,031218	193,8	   0,0310015	192,1
     43,0909	   0,0311332	192,5	   0,0309264	194,9
     43,0929	   0,0310504	194,9	   0,0308599	193,5
     43,0948	   0,0310562	194,0	   0,0307606	193,7
     43,0968	   0,0309625	193,5	   0,0306724	196,1
     43,0987	   0,0308197	194,8	   0,0306401	195,2
     43,1007	   0,0307105	195,4	    0,030585	194,1
     43,1026	   0,0306449	194,5	   0,0304587	196,3
     43,1046	   0,0305451	196,6	   0,0303859	193,7
     43,1065	   0,0304727	195,5	   0,0302172	195,6
     43,1085	   0,0304283	195,9	   0,0301161	195,4
     43,1105	   0,0303631	197,9	   0,0300303	193,6
     43,1124	   0,0302389	196,0	   0,0299575	196,0
     43,1144	   0,0301479	195,5	   0,0298477	196,5
     43,1163	   0,0300942	196,7	   0,0297923	195,5
     43,1183	   0,0299949	194,8	   0,0296243	197,0
     43,1202	   0,0298642	195,9	   0,0295077	196,8
     43,1222	   0,0297159	197,6	   0,0293953	195,5
     43,1241	   0,0295477	196,1	   0,0293006	198,6
     43,1261	   0,0295109	195,6	   0,0293258	199,1
     43,1281	   0,0294335	198,3	   0,0292453	196,1
       43,13	   0,0293498	197,9	   0,0291968	197,7
      43,132	   0,0292872	198,9	    0,029152	197,8
     43,1339	   0,0292125	200,0	   0,0290887	196,3
     43,1359	   0,0291698	197,3	   0,0289716	197,1
     43,1378	   0,0291521	197,6	   0,0287974	196,4
     43,1398	   0,0290365	199,0	   0,0287217	199,4
     43,1417	   0,0289269	197,7	    0,028625	-159,5
     43,1437	    0,028813	197,7	   0,0284838	-161,7
     43,1456	   0,0287475	199,7	   0,0284815	-161,1
     43,1476	   0,0286118	197,6	    0,028393	-159,3
     43,1496	   0,0284951	198,0	   0,0283133	-160,9
     43,1515	   0,0284144	-159,4	   0,0282819	-160,6
     43,1535	   0,0283704	-160,9	   0,0281896	-158,9
     43,1554	   0,0282533	-161,1	   0,0280834	-160,0
     43,1574	   0,0281298	-158,9	   0,0280569	-161,6
     43,1593	    0,028083	-159,2	   0,0280181	-159,9
     43,1613	   0,0280076	-161,0	   0,0279288	-159,2
     43,1632	   0,0279602	-159,3	   0,0277785	-159,9
     43,1652	   0,0279033	-159,9	   0,0277207	-160,1
     43,1672	   0,0277262	-160,2	   0,0276239	-160,2
     43,1691	   0,0276043	-158,0	   0,0275057	-158,3
     43,1711	   0,0275845	-160,0	   0,0274065	-159,1
      43,173	   0,0275258	-160,4	   0,0272987	-159,2
      43,175	   0,0274589	-158,4	   0,0272301	-159,5
     43,1769	   0,0273601	-159,6	   0,0271281	-157,5
     43,1789	   0,0273151	-161,2	   0,0270338	-159,8
     43,1808	   0,0271672	-157,5	   0,0269658	-158,7
     43,1828	   0,0272012	-159,6	   0,0270037	-157,2
     43,1847	   0,0271161	-159,7	   0,0268229	-159,1
     43,1867	   0,0269131	-156,8	   0,0267499	-158,7
     43,1887	   0,0268186	-157,7	   0,0267099	-157,5
     43,1906	   0,0267748	-157,7	   0,0266222	-159,1
     43,1926	   0,0266975	-155,7	   0,0265447	-159,5
     43,1945	   0,0266206	-157,0	   0,0265136	-157,7
     43,1965	    0,026598	-158,4	   0,0264471	-158,1
     43,1984	    0,026444	-156,1	   0,0263628	-159,7
     43,2004	   0,0262971	-155,4	    0,026302	-158,1
     43,2023	   0,0262879	-157,0	   0,0262901	-157,2
     43,2043	   0,0262094	-155,9	   0,0262471	-158,2
     43,2063	    0,026113	-155,3	    0,026079	-156,8
     43,2082	   0,0261925	-157,9	   0,0259499	-157,8
     43,2102	   0,0260658	-155,3	   0,0258682	-157,6
     43,2121	   0,0259774	-157,1	   0,0257534	-154,7
     43,2141	   0,0258675	-156,7	   0,0256207	-157,1
      43,216	   0,0256517	-155,9	   0,0255302	-156,3
      43,218	   0,0256663	-155,3	   0,0255805	-155,7
     43,2199	   0,0255916	-156,0	   0,0254453	-156,0
     43,2219	    0,025546	-153,4	   0,0254438	-157,0
     43,2239	   0,0254843	-154,1	    0,025329	-155,9
     43,2258	   0,0253848	-155,3	   0,0251847	-156,2
     43,2278	   0,0252638	-154,6	   0,0251056	-157,6
     43,2297	   0,0252102	-153,8	    0,025066	-157,4
     43,2317	   0,0250818	-154,9	   0,0250194	-156,1
     43,2336	   0,0249914	-155,7	   0,0248925	-156,7
     43,2356	    0,025074	-153,3	   0,0248242	-154,7
     43,2375	   0,0249974	-154,0	   0,0247372	-155,0
     43,2395	   0,0249135	-154,8	    0,024666	-156,0
     43,2414	   0,0247919	-152,7	   0,0246558	-153,5
     43,2434	   0,0246667	-156,2	   0,0245766	-152,9
     43,2454	    0,024556	-156,4	   0,0245175	-154,9
     43,2473	   0,0245213	-154,4	   0,0244111	-155,4
     43,2493	   0,0245196	-155,0	   0,0244582	-152,8
     43,2512	   0,0244517	-155,6	   0,0243428	-153,5
     43,2532	   0,0244068	-153,4	   0,0241989	-154,5
     43,2551	   0,0243565	-153,3	   0,0241295	-153,9
     43,2571	   0,0242571	-154,1	    0,023999	-153,6
      43,259	   0,0241638	-153,9	   0,0239006	-155,1
      43,261	   0,0240963	-152,5	   0,0239067	-154,0
      43,263	   0,0239017	-153,7	   0,0237719	-153,6
     43,2649	   0,0237844	-154,8	   0,0237089	-154,7
     43,2669	   0,0237401	-151,6	   0,0236665	-152,8
     43,2688	   0,0236827	-153,5	   0,0236246	-153,8
     43,2708	   0,0236188	-152,1	   0,0235416	-154,7
     43,2727	   0,0236123	-151,3	   0,0235551	-154,3
     43,2747	   0,0235771	-153,2	   0,0233736	-152,8
     43,2766	   0,0234922	-153,8	   0,0233064	-154,1
     43,2786	   0,0234346	-151,6	   0,0232658	-154,5
     43,2805	   0,0234216	-151,3	   0,0232084	-152,8
     43,2825	   0,0233421	-153,6	   0,0231178	-152,5
     43,2845	   0,0232811	-152,6	   0,0231072	-154,3
     43,2864	   0,0231847	-150,9	   0,0229904	-150,8
     43,2884	   0,0230308	-152,7	   0,0229625	-151,6
     43,2903	   0,0229804	-152,8	   0,0229432	-152,2
     43,2923	   0,0229497	-152,3	   0,0227878	-151,1
     43,2942	   0,0229342	-152,4	   0,0227047	-151,7
     43,2962	   0,0229062	-153,5	   0,0226555	-152,7
     43,2981	   0,0228636	-152,3	   0,0225879	-151,1
     43,3001	    0,022697	-149,9	   0,0225711	-150,9
     43,3021	   0,0226314	-150,7	    0,022496	-153,8
      43,304	   0,0225915	-149,6	   0,0224446	-152,9
      43,306	    0,022479	-149,5	   0,0223408	-150,8
     43,3079	   0,0223932	-151,6	   0,0222525	-152,2
     43,3099	   0,0223258	-150,1	   0,0221911	-152,1
     43,3118	   0,0222664	-149,6	   0,0220779	-151,9
     43,3138	   0,0221573	-149,3	   0,0220466	-151,1
     43,3157	   0,0220142	-150,4	   0,0220502	-152,1
     43,3177	   0,0219879	-149,4	   0,0219796	-151,7
     43,3196	    0,021986	-149,2	   0,0219572	-150,1
     43,3216	   0,0218428	-150,0	    0,021947	-151,2
     43,3236	   0,0218567	-149,7	   0,0218167	-153,1
     43,3255	    0,021863	-147,8	   0,0217855	-148,8
     43,3275	    0,021823	-149,6	   0,0216683	-151,8
     43,3294	   0,0217144	-150,0	   0,0215858	-151,1
     43,3314	   0,0216414	-148,4	     0,02148	-148,7
     43,3333	   0,0215648	-148,0	   0,0214786	-149,7
     43,3353	   0,0215032	-150,1	   0,0213417	-150,3
     43,3372	   0,0213659	-148,2	   0,0213324	-149,7
     43,3392	   0,0213341	-149,7	   0,0212503	-147,9
     43,3412	   0,0213055	-150,7	   0,0211809	-149,6
     43,3431	   0,0212918	-149,9	   0,0210126	-150,4
     43,3451	   0,0212093	-149,4	   0,0209887	-147,4
      43,347	   0,0212081	-150,1	   0,0209183	-148,0
      43,349	   0,0211874	-149,9	    0,020948	-150,1
     43,3509	   0,0210994	-148,3	   0,0208307	-148,0
     43,3529	   0,0210075	-148,6	   0,0208158	-148,4
     43,3548	   0,0209831	-149,4	   0,0207888	-150,8
     43,3568	   0,0208588	-148,9	   0,0207122	-148,1
     43,3587	   0,0207539	-148,2	   0,0206662	-147,4
     43,3607	    0,020695	-149,4	   0,0205803	-148,7
     43,3627	   0,0206764	-148,3	   0,0205067	-149,6
     43,3646	   0,0206742	-147,1	   0,0205409	-147,6
     43,3666	   0,0205941	-147,6	   0,0204713	-148,2
     43,3685	   0,0204871	-147,3	   0,0203729	-149,7
     43,3705	     0,02042	-146,3	   0,0203366	-148,2
     43,3724	   0,0203922	-147,2	   0,0203009	-147,2
     43,3744	   0,0202918	-148,7	   0,0201473	-148,1
     43,3763	   0,0202644	-147,1	   0,0201065	-149,3
     43,3783	   0,0202895	-144,5	   0,0201048	-148,2
     43,3803	   0,0201346	-146,5	   0,0200734	-147,6
     43,3822	   0,0200393	-148,0	   0,0199926	-148,1
     43,3842	   0,0199394	-145,3	   0,0199466	-147,6
     43,3861	    0,019885	-145,4	   0,0198485	-147,8
     43,3881	   0,0198363	-146,3	   0,0197916	-149,4
       43,39	   0,0198761	-146,4	    0,019723	-149,6
      43,392	   0,0198103	-145,6	    0,019714	-147,5
     43,3939	   0,0197057	-144,0	   0,0196465	-146,7
     43,3959	   0,0197217	-147,5	   0,0195497	-149,3
     43,3979	   0,0196327	-144,5	   0,0195433	-147,9
     43,3998	   0,0195207	-145,1	   0,0195212	-146,7
     43,4018	   0,0194306	-146,8	   0,0194856	-148,9
     43,4037	   0,0194642	-145,2	   0,0193752	-148,8
     43,4057	   0,0193602	-144,8	   0,0192482	-144,7
     43,4076	   0,0193169	-145,9	   0,0193008	-147,0
     43,4096	   0,0192467	-145,4	    0,019294	-147,6
     43,4115	   0,0192309	-146,2	   0,0192219	-146,1
     43,4135	   0,0191212	-145,6	   0,0192356	-145,9
     43,4154	   0,0190788	-145,6	    0,019131	-147,5
     43,4174	   0,0189969	-146,8	   0,0190516	-147,9
     43,4194	   0,0189992	-144,4	   0,0189324	-146,2
     43,4213	   0,0189471	-145,1	   0,0188538	-145,4
     43,4233	   0,0188968	-146,4	   0,0187796	-147,5
     43,4252	   0,0189001	-146,3	   0,0188166	-147,1
     43,4272	   0,0189401	-143,9	   0,0187221	-145,4
     43,4291	    0,018868	-146,5	   0,0187398	-145,1
     43,4311	   0,0187197	-146,3	   0,0187046	-147,2
      43,433	   0,0186883	-145,2	   0,0186601	-144,4
      43,435	   0,0186432	-145,3	   0,0185894	-145,1
      43,437	   0,0185563	-147,3	   0,0184881	-146,8
     43,4389	   0,0186002	-145,4	   0,0184351	-144,1
     43,4409	    0,018523	-144,5	    0,018326	-143,6
     43,4428	   0,0184494	-145,1	   0,0182667	-145,9
     43,4448	   0,0183194	-145,9	   0,0182003	-146,0
     43,4467	   0,0182457	-145,3	    0,018179	-144,4
     43,4487	   0,0182719	-143,3	   0,0181304	-143,7
     43,4506	   0,0183338	-145,3	   0,0181825	-145,5
     43,4526	   0,0182729	-145,8	   0,0181228	-145,3
     43,4545	   0,0182231	-144,6	    0,017981	-143,3
     43,4565	   0,0181666	-143,4	   0,0180046	-143,9
     43,4585	   0,0180469	-145,9	   0,0179818	-145,4
     43,4604	   0,0179276	-144,6	   0,0179935	-144,1
     43,4624	   0,0177749	-144,5	   0,0179036	-143,4
     43,4643	   0,0177974	-146,7	   0,0178077	-143,1
     43,4663	   0,0177844	-144,9	   0,0177446	-146,0
     43,4682	   0,0177682	-144,3	   0,0176909	-144,8
     43,4702	   0,0177944	-145,1	   0,0176332	-141,9
     43,4721	     0,01776	-146,2	   0,0176222	-143,6
     43,4741	   0,0176989	-144,8	   0,0176192	-145,6
     43,4761	   0,0175804	-144,0	   0,0175356	-143,0
      43,478	   0,0175784	-143,8	   0,0174603	-143,5
       43,48	   0,0175303	-144,1	   0,0175046	-144,8
     43,4819	   0,0174678	-146,1	   0,0173813	-143,9
     43,4839	   0,0173727	-143,7	   0,0173035	-142,2
     43,4858	   0,0173517	-143,7	   0,0172851	-143,2
     43,4878	   0,0172831	-144,7	   0,0172346	-144,2
     43,4897	   0,0173256	-145,0	   0,0172356	-144,1
     43,4917	   0,0172803	-143,1	   0,0172105	-141,7
     43,4936	   0,0172173	-143,6	   0,0172152	-142,6
     43,4956	   0,0171482	-145,1	   0,0171507	-144,5
     43,4976	   0,0170539	-144,4	   0,0170328	-142,7
     43,4995	   0,0170521	-143,3	   0,0169802	-143,4
     43,5015	   0,0170068	-145,3	   0,0168848	-144,2
     43,5034	   0,0169836	-144,6	    0,016807	-143,6
     43,5054	   0,0169415	-141,8	   0,0167852	-142,7
     43,5073	   0,0169078	-143,3	   0,0167895	-142,8
     43,5093	   0,0168636	-145,0	   0,0167799	-143,4
     43,5112	   0,0168299	-144,4	   0,0166664	-143,0
     43,5132	   0,0168274	-142,2	   0,0167289	-141,2
     43,5152	   0,0167307	-142,4	   0,0166598	-141,7
     43,5171	   0,0166168	-144,5	   0,0166526	-142,0
     43,5191	   0,0166808	-143,7	   0,0166462	-142,7
      43,521	   0,0165886	-143,3	   0,0165082	-142,4
      43,523	    0,016555	-141,6	   0,0163971	-142,2
     43,5249	   0,0165944	-142,4	   0,0164063	-143,3
     43,5269	   0,0164258	-143,0	   0,0163948	-142,8
     43,5288	   0,0164458	-141,9	   0,0163798	-140,6
     43,5308	    0,016393	-143,4	   0,0163793	-141,7
     43,5327	     0,01631	-142,8	   0,0163937	-142,6
     43,5347	   0,0162731	-141,8	   0,0162431	-141,3
     43,5367	    0,016199	-141,9	   0,0161353	-142,0
     43,5386	   0,0162404	-143,2	   0,0161064	-142,1
     43,5406	    0,016277	-143,8	   0,0160597	-142,1
     43,5425	   0,0161547	-141,7	   0,0161133	-140,7
     43,5445	   0,0159759	-140,5	   0,0161072	-140,6
     43,5464	   0,0160739	-141,8	   0,0160033	-141,5
     43,5484	   0,0160254	-143,7	   0,0159879	-143,2
     43,5503	   0,0159767	-140,9	   0,0159197	-141,0
     43,5523	    0,015984	-140,4	   0,0158675	-141,5
     43,5543	   0,0158781	-142,3	    0,015836	-141,5
     43,5562	   0,0158136	-142,9	   0,0158446	-143,5
     43,5582	   0,0159009	-141,3	   0,0157176	-143,0
     43,5601	   0,0157828	-140,3	   0,0156133	-140,9
     43,5621	   0,0157075	-140,6	   0,0156174	-141,3
      43,564	   0,0156947	-141,0	   0,0156262	-140,3
      43,566	   0,0156461	-140,0	   0,0155619	-138,9
     43,5679	   0,0156132	-139,6	   0,0155862	-141,4
     43,5699	   0,0155276	-141,0	   0,0154488	-141,6
     43,5718	   0,0154714	-141,4	   0,0153631	-141,8
     43,5738	   0,0154624	-139,9	   0,0153181	-139,7
     43,5758	   0,0154756	-140,3	    0,015395	-141,2
     43,5777	    0,015448	-142,3	   0,0153654	-141,6
     43,5797	   0,0153682	-140,5	   0,0153816	-141,8
     43,5816	   0,0153502	-138,6	   0,0153736	-140,2
     43,5836	   0,0153432	-139,7	    0,015355	-140,4
     43,5855	    0,015213	-140,7	   0,0152847	-142,0
     43,5875	   0,0152127	-141,3	    0,015204	-142,1
     43,5894	   0,0151567	-139,5	   0,0151561	-140,6
     43,5914	   0,0150305	-138,7	    0,015202	-140,5
     43,5934	    0,015026	-140,6	   0,0151514	-141,9
     43,5953	   0,0149821	-141,3	   0,0150287	-141,9
     43,5973	   0,0149801	-141,2	   0,0149185	-141,3
     43,5992	   0,0149838	-139,2	   0,0148704	-140,8
     43,6012	    0,014931	-139,7	   0,0149432	-141,9
     43,6031	   0,0149071	-139,3	   0,0148948	-141,8
     43,6051	    0,014862	-138,7	    0,014828	-140,6
      43,607	   0,0147739	-139,1	   0,0148623	-141,1
      43,609	   0,0147169	-139,8	   0,0148115	-142,7
     43,6109	   0,0146984	-140,9	   0,0146379	-141,4
     43,6129	   0,0146143	-139,6	   0,0146166	-139,5
     43,6149	   0,0146848	-138,6	   0,0146658	-139,7
     43,6168	   0,0146571	-139,5	   0,0146195	-141,7
     43,6188	   0,0145795	-141,1	   0,0145833	-141,0
     43,6207	   0,0145113	-140,4	    0,014524	-139,7
     43,6227	   0,0144938	-140,1	   0,0144991	-139,7
     43,6246	   0,0145782	-140,3	    0,014438	-138,9
     43,6266	   0,0145204	-141,2	   0,0144105	-140,6
     43,6285	   0,0145136	-140,8	   0,0143097	-139,2
     43,6305	   0,0143535	-139,5	   0,0143865	-137,3
     43,6325	   0,0143205	-139,1	   0,0144296	-139,0
     43,6344	   0,0143526	-141,9	   0,0143576	-139,7
     43,6364	   0,0143546	-139,4	   0,0143187	-137,9
     43,6383	   0,0142101	-139,1	   0,0142953	-139,0
     43,6403	   0,0142154	-139,2	   0,0141744	-140,3
     43,6422	   0,0141563	-140,0	    0,014037	-140,7
     43,6442	   0,0141455	-140,8	   0,0140464	-137,5
     43,6461	    0,014119	-139,3	   0,0140847	-137,5
     43,6481	   0,0141133	-137,3	   0,0140439	-138,3
       43,65	    0,014051	-138,3	   0,0140155	-138,9
      43,652	   0,0140159	-139,9	   0,0140778	-140,4
      43,654	   0,0140233	-138,9	   0,0140456	-139,0
     43,6559	   0,0139634	-136,9	   0,0139241	-138,8
     43,6579	   0,0138319	-136,5	   0,0138709	-140,4
     43,6598	   0,0138035	-139,2	   0,0138508	-139,4
     43,6618	   0,0138545	-137,5	   0,0138927	-139,4
     43,6637	   0,0138472	-136,7	   0,0138936	-139,2
     43,6657	   0,0137811	-138,1	    0,013888	-139,7
     43,6676	    0,013778	-138,2	   0,0137239	-141,1
     43,6696	    0,013641	-137,2	   0,0137294	-140,1
     43,6716	    0,013695	-138,2	   0,0137014	-139,0
     43,6735	   0,0136447	-138,0	   0,0136871	-140,1
     43,6755	   0,0136317	-139,3	   0,0136681	-141,4
     43,6774	   0,0135576	-139,5	     0,01357	-139,9
     43,6794	   0,0134965	-137,9	   0,0135302	-138,1
     43,6813	   0,0134993	-137,7	   0,0135801	-138,4
     43,6833	   0,0134375	-139,2	   0,0135285	-139,2
     43,6852	   0,0135059	-138,9	   0,0134233	-139,1
     43,6872	   0,0134118	-137,4	   0,0134393	-137,3
     43,6891	   0,0134058	-137,1	   0,0134215	-137,0
     43,6911	   0,0134031	-139,5	   0,0134204	-137,5
     43,6931	   0,0133032	-140,1	   0,0133748	-139,8
      43,695	   0,0132624	-138,5	   0,0132971	-138,6
      43,697	   0,0132422	-138,2	   0,0132176	-136,6
     43,6989	   0,0132813	-138,6	   0,0132431	-136,1
     43,7009	   0,0132808	-140,2	   0,0132163	-138,6
     43,7028	   0,0132591	-139,9	   0,0131177	-136,6
     43,7048	   0,0131247	-138,1	   0,0131598	-136,3
     43,7067	   0,0131045	-136,5	   0,0131785	-136,7
     43,7087	   0,0131028	-137,5	   0,0131995	-138,4
     43,7107	    0,013069	-137,7	   0,0130808	-140,0
     43,7126	   0,0130546	-137,2	   0,0129134	-138,4
     43,7146	   0,0130104	-136,6	   0,0129713	-137,6
     43,7165	   0,0129959	-137,5	   0,0130148	-137,9
     43,7185	    0,012898	-137,5	   0,0130028	-139,6
     43,7204	   0,0128469	-136,3	   0,0129907	-139,8
     43,7224	   0,0127922	-135,0	   0,0129314	-137,8
     43,7243	   0,0128307	-136,8	   0,0128754	-136,9
     43,7263	    0,012791	-138,1	   0,0128495	-139,5
     43,7282	   0,0126688	-138,2	   0,0128263	-138,7
     43,7302	   0,0127061	-136,8	    0,012762	-137,4
     43,7322	   0,0127859	-136,3	   0,0126717	-136,3
     43,7341	   0,0127837	-137,4	   0,0126677	-137,1
     43,7361	   0,0128093	-138,0	   0,0126424	-137,8
      43,738	   0,0126409	-138,7	    0,012703	-137,3
       43,74	   0,0125446	-137,9	   0,0126985	-136,7
     43,7419	   0,0125635	-136,7	   0,0125917	-135,5
     43,7439	   0,0126037	-138,6	   0,0125176	-136,2
     43,7458	   0,0125783	-138,4	   0,0125253	-137,6
     43,7478	   0,0124789	-137,8	   0,0125163	-136,0
     43,7498	   0,0124408	-137,5	   0,0124859	-136,6
     43,7517	   0,0124464	-137,2	   0,0124167	-137,2
     43,7537	    0,012453	-138,3	   0,0124658	-138,2
     43,7556	   0,0124927	-137,1	    0,012486	-138,8
     43,7576	   0,0123936	-135,6	   0,0123985	-137,2
     43,7595	   0,0123463	-135,3	   0,0123737	-137,6
     43,7615	   0,0123528	-135,4	   0,0124534	-137,7
     43,7634	   0,0122644	-136,4	   0,0123983	-138,6
     43,7654	   0,0122203	-136,2	   0,0123156	-138,9
     43,7673	   0,0121623	-135,3	   0,0122354	-137,0
     43,7693	   0,0121896	-135,5	   0,0122536	-135,5
     43,7713	   0,0121906	-136,6	   0,0122101	-136,1
     43,7732	   0,0121397	-138,1	   0,0120399	-137,6
     43,7752	   0,0121617	-139,6	   0,0121119	-136,0
     43,7771	   0,0121991	-136,7	   0,0121224	-135,2
     43,7791	   0,0121055	-136,4	   0,0122137	-134,3
      43,781	   0,0120351	-137,5	   0,0121034	-136,9
      43,783	   0,0119064	-136,8	   0,0120046	-135,9
     43,7849	    0,012031	-136,9	   0,0118705	-134,9
     43,7869	   0,0119728	-136,2	   0,0119122	-134,5
     43,7889	   0,0120117	-136,2	   0,0120188	-136,3
     43,7908	   0,0119372	-135,7	   0,0120505	-137,1
     43,7928	   0,0119063	-136,6	   0,0119325	-138,1
     43,7947	   0,0119197	-135,1	   0,0119287	-135,8
     43,7967	   0,0118833	-134,6	    0,011889	-136,1
     43,7986	   0,0118274	-135,1	   0,0117981	-137,3
     43,8006	   0,0118676	-136,6	   0,0117978	-137,4
     43,8025	   0,0118182	-137,2	   0,0117327	-136,8
     43,8045	   0,0117995	-135,9	   0,0117346	-133,9
     43,8064	    0,011714	-135,6	   0,0116125	-133,8
     43,8084	   0,0117291	-135,4	   0,0117545	-134,7
     43,8104	    0,011656	-137,1	   0,0117336	-136,5
     43,8123	   0,0115972	-136,7	    0,011652	-136,7
     43,8143	   0,0116824	-135,3	   0,0115534	-136,3
     43,8162	   0,0115421	-135,3	   0,0115855	-134,2
     43,8182	   0,0114817	-137,6	   0,0116352	-137,1
     43,8201	   0,0115219	-136,6	   0,0115126	-136,2
     43,8221	   0,0115366	-136,0	   0,0114659	-135,2
      43,824	   0,0114521	-134,6	   0,0115154	-135,1
      43,826	   0,0114281	-134,4	   0,0114231	-136,5
      43,828	   0,0114933	-134,6	    0,011465	-137,2
     43,8299	   0,0114842	-136,7	   0,0114874	-137,3
     43,8319	   0,0114708	-135,4	    0,011362	-136,0
     43,8338	   0,0114608	-135,2	   0,0113692	-135,4
     43,8358	   0,0114009	-134,7	   0,0114051	-135,7
     43,8377	   0,0113114	-134,9	    0,011359	-136,4
     43,8397	   0,0113423	-136,7	   0,0113235	-134,7
     43,8416	   0,0112659	-138,2	   0,0112925	-134,8
     43,8436	    0,011212	-134,9	   0,0113079	-133,9
     43,8456	   0,0112335	-134,8	   0,0112203	-133,8
     43,8475	   0,0112199	-136,4	   0,0111457	-135,2
     43,8495	   0,0112318	-136,0	   0,0111974	-135,7
     43,8514	   0,0110906	-135,2	   0,0111764	-137,6
     43,8534	   0,0111659	-132,7	    0,011135	-134,6
     43,8553	    0,011163	-132,7	   0,0110901	-136,0
     43,8573	   0,0110668	-133,8	   0,0110684	-136,8
     43,8592	   0,0110819	-135,7	   0,0111025	-136,6
     43,8612	   0,0110634	-135,3	   0,0111233	-136,0
     43,8631	   0,0110205	-134,4	    0,011005	-134,9
     43,8651	   0,0110417	-134,8	   0,0108714	-131,9
     43,8671	   0,0109941	-134,7	   0,0108701	-133,4
      43,869	    0,010935	-136,0	   0,0109643	-134,9
      43,871	   0,0109207	-136,3	   0,0110656	-135,3
     43,8729	   0,0109479	-136,5	   0,0110252	-136,1
     43,8749	   0,0108787	-134,1	   0,0108925	-134,0
     43,8768	   0,0108183	-135,6	   0,0108587	-135,6
     43,8788	    0,010836	-136,2	   0,0108211	-136,0
     43,8807	   0,0108724	-133,8	   0,0108206	-135,6
     43,8827	   0,0108234	-133,3	   0,0107911	-135,2
     43,8847	   0,0107305	-132,8	   0,0107786	-133,4
     43,8866	   0,0106693	-133,7	   0,0107848	-133,8
     43,8886	   0,0107186	-135,3	   0,0106668	-135,4
     43,8905	   0,0107294	-135,8	   0,0106035	-135,5
     43,8925	   0,0107773	-135,6	   0,0106953	-133,9
     43,8944	   0,0107237	-134,5	   0,0107077	-132,2
     43,8964	   0,0106494	-133,1	   0,0106733	-132,5
     43,8983	   0,0106798	-134,6	    0,010641	-135,3
     43,9003	   0,0106732	-135,2	   0,0105792	-135,6
     43,9022	    0,010551	-135,0	   0,0105423	-133,7
     43,9042	   0,0106093	-132,9	   0,0105538	-132,3
     43,9062	   0,0105933	-132,2	   0,0105489	-133,8
     43,9081	    0,010511	-133,8	   0,0105641	-134,3
     43,9101	   0,0104895	-134,8	   0,0105075	-136,1
      43,912	   0,0104385	-134,2	   0,0105108	-133,9
      43,914	   0,0104855	-133,9	   0,0104281	-134,0
     43,9159	   0,0104395	-132,8	   0,0104145	-133,2
     43,9179	     0,01049	-134,4	   0,0104097	-133,0
     43,9198	   0,0104885	-133,4	    0,010385	-134,3
     43,9218	   0,0103927	-135,8	   0,0103864	-133,5
     43,9238	   0,0104259	-134,4	   0,0103675	-133,9
     43,9257	   0,0104298	-133,0	   0,0103414	-134,2
     43,9277	   0,0103381	-132,2	   0,0102885	-134,2
     43,9296	   0,0102859	-133,4	   0,0102626	-134,4
     43,9316	   0,0102544	-134,5	   0,0103529	-134,6
     43,9335	   0,0102405	-134,1	   0,0102101	-136,0
     43,9355	   0,0102357	-133,2	   0,0101698	-134,5
     43,9374	   0,0102209	-133,9	   0,0101458	-132,8
     43,9394	   0,0102677	-133,4	   0,0102353	-131,1
     43,9413	   0,0101894	-134,2	    0,010241	-132,8
     43,9433	   0,0100826	-135,2	   0,0101561	-134,0
     43,9453	   0,0101709	-134,8	   0,0101557	-132,1
     43,9472	   0,0101189	-133,9	   0,0101028	-132,5
     43,9492	   0,0100925	-133,0	   0,0101576	-134,5
     43,9511	   0,0101008	-132,5	   0,0100702	-134,1
     43,9531	    0,010025	-131,7	   0,0100898	-134,5
      43,955	   0,0100266	-133,9	    0,010118	-136,1
      43,957	   0,0100248	-133,0	  0,00998562	-134,0
     43,9589	   0,0100078	-131,6	  0,00988644	-133,6
     43,9609	  0,00990847	-133,1	  0,00996283	-132,0
     43,9629	  0,00989232	-134,2	   0,0100054	-131,9
     43,9648	  0,00993774	-134,4	    0,010043	-134,6
     43,9668	  0,00998705	-134,6	   0,0100126	-134,4
     43,9687	   0,0100068	-134,2	   0,0099426	-133,7
     43,9707	  0,00985096	-132,4	   0,0098653	-132,7
     43,9726	  0,00979853	-132,0	    0,009826	-133,7
     43,9746	  0,00984683	-132,6	  0,00988735	-133,7
     43,9765	  0,00985913	-132,2	  0,00977495	-135,4
     43,9785	  0,00980936	-131,9	  0,00983559	-133,3
     43,9804	  0,00976819	-131,8	  0,00987471	-133,2
     43,9824	  0,00974643	-133,7	  0,00968913	-132,2
     43,9844	  0,00980944	-132,7	  0,00972158	-131,8
     43,9863	  0,00974131	-133,9	  0,00980269	-132,5
     43,9883	  0,00974009	-135,7	  0,00979838	-134,1
     43,9902	  0,00967124	-134,7	  0,00962153	-134,6
     43,9922	  0,00967301	-133,5	   0,0096772	-134,6
     43,9941	  0,00971854	-131,6	  0,00973583	-134,2
     43,9961	  0,00967667	-130,8	  0,00962238	-133,4
      43,998	  0,00961813	-131,6	  0,00954984	-131,2
          44	   0,0096414	-132,1	  0,00951371	-132,6

