X-Data [Hz]	Laser (M - Filtered) [m/s]	Phase [Deg]	Laser (M - Filtered) [m/s]	Phase [Deg]	
	002: [07-10-24 10:05]		003: [07-10-24 10:08]	
        41,5	   0,0203293	79,6	   0,0218825	80,2
      41,502	   0,0206855	81,2	    0,021927	79,8
     41,5039	   0,0210097	81,0	   0,0220252	80,5
     41,5059	   0,0213392	80,9	   0,0220476	81,0
     41,5078	   0,0216152	80,8	   0,0220185	79,8
     41,5098	   0,0218195	80,0	   0,0219922	80,5
     41,5117	   0,0217908	80,6	   0,0220622	79,4
     41,5137	   0,0218481	80,8	   0,0221078	80,6
     41,5156	   0,0219024	81,1	   0,0221494	80,1
     41,5176	   0,0220004	80,6	   0,0221835	80,3
     41,5196	   0,0219757	79,3	   0,0222206	79,7
     41,5215	    0,022007	80,2	    0,022241	80,7
     41,5235	   0,0221028	80,1	   0,0222892	81,1
     41,5254	   0,0221743	80,1	    0,022379	79,8
     41,5274	   0,0221594	79,5	   0,0223809	80,9
     41,5293	   0,0221706	79,7	   0,0224272	79,4
     41,5313	   0,0221478	80,3	   0,0223932	80,1
     41,5332	   0,0221602	80,2	   0,0223593	80,7
     41,5352	   0,0223744	81,7	   0,0224346	80,4
     41,5371	   0,0223777	80,8	   0,0224445	80,9
     41,5391	   0,0223572	80,3	   0,0226025	80,1
     41,5411	   0,0223557	81,2	   0,0226224	79,7
      41,543	   0,0224185	80,6	   0,0226275	80,5
      41,545	   0,0224947	81,0	   0,0226982	80,1
     41,5469	    0,022553	81,2	   0,0227227	81,1
     41,5489	   0,0225544	81,0	   0,0227891	80,4
     41,5508	   0,0224894	81,3	   0,0227849	80,6
     41,5528	   0,0225659	80,0	   0,0228615	81,2
     41,5547	   0,0226764	80,8	    0,022882	81,3
     41,5567	     0,02278	80,2	   0,0228512	81,9
     41,5587	   0,0227852	80,9	   0,0228752	80,8
     41,5606	   0,0226297	80,1	   0,0229221	81,4
     41,5626	   0,0227319	79,8	   0,0230713	79,7
     41,5645	   0,0228055	81,2	   0,0231577	80,7
     41,5665	   0,0229023	80,2	   0,0230427	81,5
     41,5684	   0,0229268	80,2	   0,0230523	80,9
     41,5704	   0,0229533	81,1	   0,0231358	81,4
     41,5723	   0,0229596	80,1	   0,0232117	80,4
     41,5743	   0,0229977	81,2	   0,0232434	80,2
     41,5762	   0,0230309	80,4	   0,0232701	81,3
     41,5782	   0,0230564	81,7	   0,0232101	80,5
     41,5802	   0,0230342	81,9	   0,0231859	82,7
     41,5821	   0,0230951	81,2	   0,0232682	81,9
     41,5841	   0,0231799	81,6	   0,0234255	81,3
      41,586	    0,023322	80,3	   0,0235032	81,2
      41,588	   0,0233024	81,2	   0,0235106	81,4
     41,5899	   0,0233415	81,4	   0,0235264	82,1
     41,5919	   0,0232603	80,8	   0,0235372	81,6
     41,5938	    0,023302	81,4	   0,0235653	81,7
     41,5958	   0,0233294	80,9	   0,0236056	81,8
     41,5978	   0,0233586	81,0	   0,0236513	80,3
     41,5997	    0,023542	81,9	   0,0237632	81,3
     41,6017	   0,0237839	82,0	   0,0237891	81,5
     41,6036	    0,023735	81,9	   0,0237989	81,2
     41,6056	   0,0236637	81,0	   0,0238916	81,7
     41,6075	   0,0236411	80,5	   0,0239263	81,3
     41,6095	   0,0236777	80,8	   0,0239056	82,1
     41,6114	   0,0237569	80,8	    0,023958	81,7
     41,6134	   0,0237537	82,2	   0,0240454	82,4
     41,6153	   0,0238333	82,0	   0,0240251	82,8
     41,6173	   0,0238308	81,5	   0,0240059	82,2
     41,6193	   0,0238561	81,2	   0,0240547	82,1
     41,6212	   0,0238684	81,1	   0,0240862	82,1
     41,6232	   0,0241449	82,0	   0,0241961	81,4
     41,6251	   0,0240149	81,6	    0,024291	82,3
     41,6271	   0,0240826	83,0	   0,0242958	82,0
      41,629	   0,0240768	83,1	   0,0243168	82,2
      41,631	   0,0240254	81,3	   0,0244186	81,6
     41,6329	   0,0240531	82,5	   0,0243951	81,8
     41,6349	   0,0241963	81,1	   0,0244411	82,0
     41,6369	   0,0243074	81,4	   0,0245597	82,0
     41,6388	   0,0243241	83,3	   0,0246124	83,4
     41,6408	   0,0243887	82,6	   0,0245656	83,2
     41,6427	   0,0243646	82,2	   0,0246505	81,8
     41,6447	   0,0243803	81,9	   0,0246866	82,4
     41,6466	   0,0244282	82,7	   0,0247442	81,7
     41,6486	   0,0244724	82,5	   0,0248428	81,9
     41,6505	   0,0245066	82,3	   0,0249084	83,1
     41,6525	    0,024577	83,0	   0,0248724	82,9
     41,6544	   0,0246497	82,2	   0,0248735	83,4
     41,6564	   0,0247201	81,5	   0,0248998	82,8
     41,6584	   0,0246573	81,9	   0,0249653	82,1
     41,6603	   0,0246356	81,1	   0,0250267	82,3
     41,6623	   0,0247538	82,2	   0,0250172	82,6
     41,6642	   0,0248894	83,3	   0,0250433	83,9
     41,6662	   0,0249325	82,9	   0,0251639	82,9
     41,6681	   0,0249047	83,1	   0,0253282	82,3
     41,6701	   0,0248366	82,8	   0,0253238	83,0
      41,672	   0,0249927	82,8	   0,0253526	82,4
      41,674	   0,0250586	83,6	    0,025326	83,8
      41,676	   0,0251683	82,4	   0,0254058	83,6
     41,6779	    0,025202	83,1	   0,0254464	83,3
     41,6799	   0,0252491	82,7	   0,0254845	83,7
     41,6818	   0,0251324	82,7	    0,025536	81,3
     41,6838	   0,0252803	83,2	   0,0256234	82,6
     41,6857	   0,0253587	82,1	   0,0256876	83,5
     41,6877	   0,0254608	83,6	     0,02566	82,8
     41,6896	   0,0254404	83,9	    0,025697	84,3
     41,6916	   0,0254083	83,0	   0,0258163	84,1
     41,6936	   0,0254298	84,4	   0,0258886	82,5
     41,6955	   0,0254733	82,5	   0,0258885	84,0
     41,6975	   0,0255501	82,7	   0,0259501	83,3
     41,6994	   0,0256839	83,6	   0,0259356	83,8
     41,7014	   0,0257666	83,1	   0,0259175	83,4
     41,7033	   0,0258423	83,0	   0,0260318	83,4
     41,7053	   0,0258107	84,0	   0,0261999	83,3
     41,7072	   0,0258668	83,3	   0,0262966	83,5
     41,7092	   0,0258901	84,3	   0,0261975	84,8
     41,7111	   0,0259575	83,9	   0,0262336	83,6
     41,7131	   0,0260663	83,1	    0,026251	83,1
     41,7151	   0,0260789	83,3	   0,0263283	84,7
      41,717	   0,0260626	83,3	    0,026302	84,4
      41,719	   0,0261487	83,9	   0,0264684	84,1
     41,7209	   0,0261903	84,2	    0,026603	84,5
     41,7229	   0,0262375	83,7	   0,0266353	83,0
     41,7248	    0,026354	84,3	   0,0266306	83,3
     41,7268	   0,0263394	84,3	   0,0266692	83,8
     41,7287	   0,0263767	84,0	   0,0267282	84,0
     41,7307	   0,0264576	84,4	    0,026804	85,2
     41,7327	   0,0265674	84,0	    0,026816	84,0
     41,7346	    0,026542	84,6	   0,0268507	83,8
     41,7366	    0,026537	84,1	   0,0269559	84,1
     41,7385	   0,0265037	83,3	   0,0269991	83,5
     41,7405	   0,0267115	85,1	   0,0270698	85,1
     41,7424	   0,0268834	84,6	   0,0271402	85,3
     41,7444	   0,0269487	84,7	   0,0271797	84,6
     41,7463	   0,0269046	85,8	    0,027254	84,5
     41,7483	   0,0268883	83,6	   0,0273419	83,9
     41,7502	   0,0268457	83,8	   0,0273539	84,0
     41,7522	   0,0269481	83,7	   0,0273874	85,6
     41,7542	   0,0269639	84,0	   0,0273253	84,3
     41,7561	   0,0271471	85,3	    0,027429	86,1
     41,7581	   0,0271352	84,8	   0,0275903	85,7
       41,76	   0,0271229	84,6	   0,0276943	85,3
      41,762	   0,0272448	85,9	   0,0277319	85,4
     41,7639	   0,0272947	85,6	   0,0278579	84,0
     41,7659	   0,0274855	84,8	   0,0278444	85,0
     41,7678	    0,027564	84,8	    0,027895	85,7
     41,7698	   0,0275963	84,6	   0,0279278	85,2
     41,7718	   0,0275983	85,1	   0,0279752	84,8
     41,7737	   0,0276675	84,9	   0,0279957	84,8
     41,7757	   0,0276931	85,2	   0,0280217	85,0
     41,7776	   0,0277332	85,8	   0,0281005	85,9
     41,7796	   0,0278246	84,8	     0,02814	84,8
     41,7815	   0,0277866	84,8	   0,0282976	86,6
     41,7835	   0,0279277	85,8	   0,0284119	87,0
     41,7854	   0,0279586	85,0	   0,0284879	85,6
     41,7874	   0,0279204	85,6	   0,0285267	86,0
     41,7893	   0,0279978	85,6	   0,0285452	86,5
     41,7913	   0,0281314	85,5	   0,0284817	84,6
     41,7933	   0,0282093	85,9	   0,0285977	85,5
     41,7952	   0,0282407	85,6	   0,0287622	86,0
     41,7972	   0,0282881	85,5	   0,0288279	85,1
     41,7991	   0,0283108	86,0	   0,0289686	87,2
     41,8011	   0,0283323	85,6	   0,0289762	85,4
      41,803	   0,0284183	86,0	   0,0289945	86,4
      41,805	   0,0285095	87,7	   0,0290794	86,5
     41,8069	   0,0286443	85,9	   0,0291463	85,4
     41,8089	   0,0287625	85,8	    0,029186	86,1
     41,8109	   0,0287549	85,6	    0,029253	86,9
     41,8128	   0,0288145	85,4	   0,0293165	85,9
     41,8148	   0,0288183	86,5	    0,029444	87,4
     41,8167	   0,0288466	86,7	   0,0294024	87,6
     41,8187	   0,0289398	86,7	   0,0293692	86,1
     41,8206	   0,0290855	86,6	   0,0295436	86,9
     41,8226	   0,0290333	87,5	   0,0296538	86,5
     41,8245	   0,0290982	85,6	    0,029657	87,7
     41,8265	   0,0291498	87,0	    0,029781	86,9
     41,8284	   0,0291805	86,6	   0,0299288	87,2
     41,8304	   0,0293583	87,5	   0,0299116	87,9
     41,8324	   0,0294657	87,5	    0,029958	87,0
     41,8343	   0,0295074	86,7	   0,0300007	86,4
     41,8363	   0,0296153	87,3	   0,0300757	87,0
     41,8382	   0,0296876	87,1	   0,0300807	86,4
     41,8402	   0,0297503	86,1	   0,0301385	86,5
     41,8421	   0,0297727	87,4	   0,0301845	88,7
     41,8441	   0,0297332	87,7	   0,0302685	87,4
      41,846	   0,0297876	87,3	   0,0304824	87,8
      41,848	   0,0297836	87,8	   0,0306188	88,6
       41,85	   0,0298215	87,5	    0,030687	86,4
     41,8519	   0,0300764	87,6	   0,0306955	87,8
     41,8539	   0,0302481	87,5	   0,0307962	88,2
     41,8558	    0,030237	88,2	   0,0307808	86,8
     41,8578	   0,0303451	88,1	   0,0308421	89,5
     41,8597	    0,030358	88,3	   0,0309068	88,3
     41,8617	    0,030409	88,3	    0,031051	87,8
     41,8636	   0,0303749	87,4	   0,0311124	88,8
     41,8656	   0,0303677	88,2	   0,0311876	87,2
     41,8675	   0,0305598	87,6	   0,0312253	87,5
     41,8695	   0,0305605	88,1	   0,0312813	89,3
     41,8715	     0,03077	88,5	   0,0313391	88,0
     41,8734	   0,0308735	88,3	   0,0313749	89,0
     41,8754	   0,0309067	88,6	    0,031444	90,1
     41,8773	   0,0310083	88,0	   0,0316325	88,5
     41,8793	   0,0309746	88,7	   0,0316838	88,5
     41,8812	   0,0310649	89,6	   0,0317041	88,4
     41,8832	   0,0310302	87,4	   0,0318614	87,9
     41,8851	   0,0311019	88,2	   0,0319205	89,8
     41,8871	   0,0312897	89,3	   0,0320052	89,2
     41,8891	   0,0313722	88,6	   0,0321041	88,8
      41,891	   0,0315794	89,0	   0,0321172	90,1
      41,893	   0,0316016	89,1	   0,0321778	89,6
     41,8949	   0,0316052	88,8	    0,032293	88,8
     41,8969	   0,0316752	89,7	   0,0323974	89,8
     41,8988	   0,0317255	89,9	   0,0324322	89,8
     41,9008	   0,0317274	88,3	   0,0325437	89,3
     41,9027	   0,0318174	89,6	   0,0326299	89,8
     41,9047	   0,0319948	89,9	   0,0327051	89,8
     41,9066	   0,0320961	89,6	   0,0327939	89,4
     41,9086	   0,0322516	89,9	   0,0329668	90,8
     41,9106	   0,0323103	89,3	   0,0330301	89,7
     41,9125	   0,0322839	89,0	   0,0330798	89,6
     41,9145	    0,032368	89,3	   0,0331742	90,4
     41,9164	   0,0325568	89,7	    0,033242	89,4
     41,9184	   0,0326367	89,8	   0,0333569	90,0
     41,9203	   0,0326582	90,1	   0,0333697	91,0
     41,9223	   0,0326884	89,8	   0,0335492	90,5
     41,9242	   0,0328741	89,1	   0,0336636	90,7
     41,9262	   0,0328894	90,3	   0,0337883	91,2
     41,9282	   0,0329647	89,9	   0,0338165	90,5
     41,9301	   0,0330288	89,5	   0,0339242	90,9
     41,9321	   0,0331419	90,0	   0,0340304	91,5
      41,934	    0,033254	91,4	   0,0339595	90,8
      41,936	    0,033289	90,7	   0,0340094	90,4
     41,9379	   0,0333554	90,7	    0,034021	90,9
     41,9399	   0,0334134	90,0	   0,0341371	90,5
     41,9418	   0,0335115	90,1	   0,0344213	92,1
     41,9438	   0,0336638	91,6	   0,0345357	92,1
     41,9457	    0,033713	91,1	   0,0346722	91,0
     41,9477	   0,0337519	91,3	   0,0346484	92,4
     41,9497	    0,033855	91,7	   0,0348336	92,0
     41,9516	   0,0340024	91,6	   0,0349033	90,8
     41,9536	   0,0340491	91,5	   0,0349895	91,6
     41,9555	   0,0340824	92,5	   0,0349754	91,2
     41,9575	    0,034149	92,0	    0,035049	91,4
     41,9594	    0,034308	91,4	   0,0352065	93,3
     41,9614	   0,0343819	91,7	   0,0352749	92,7
     41,9633	   0,0345255	91,9	   0,0354417	93,0
     41,9653	   0,0346293	91,9	   0,0355453	93,1
     41,9673	   0,0347833	92,3	   0,0356403	91,5
     41,9692	   0,0348233	91,8	   0,0356726	91,5
     41,9712	    0,034837	92,2	   0,0358097	93,0
     41,9731	    0,034881	92,9	   0,0358213	92,6
     41,9751	   0,0349237	92,6	   0,0360074	94,4
      41,977	   0,0350587	92,4	   0,0361095	93,5
      41,979	   0,0351966	93,0	   0,0362408	93,4
     41,9809	   0,0353306	91,7	   0,0364052	93,9
     41,9829	   0,0353764	92,0	   0,0364058	94,8
     41,9848	    0,035549	93,8	   0,0364952	92,4
     41,9868	   0,0355824	93,0	   0,0365894	93,7
     41,9888	   0,0357236	93,8	   0,0367599	93,9
     41,9907	   0,0357299	94,4	   0,0368383	93,4
     41,9927	   0,0358234	93,5	    0,036927	93,2
     41,9946	   0,0359253	93,7	   0,0370192	94,3
     41,9966	   0,0361002	94,7	   0,0371218	94,1
     41,9985	   0,0362599	92,9	   0,0372605	95,3
     42,0005	   0,0363652	92,8	   0,0373867	95,2
     42,0024	   0,0364614	94,1	   0,0374688	94,8
     42,0044	   0,0365068	94,1	   0,0376169	94,6
     42,0064	    0,036561	95,0	   0,0377972	95,6
     42,0083	   0,0367225	95,3	   0,0378163	93,5
     42,0103	   0,0367751	94,4	    0,037964	94,4
     42,0122	   0,0368752	94,3	   0,0380807	95,8
     42,0142	   0,0369695	95,6	   0,0381459	95,2
     42,0161	   0,0370267	95,0	   0,0382393	95,9
     42,0181	   0,0371733	94,7	   0,0382811	96,6
       42,02	   0,0372647	95,3	   0,0383642	95,7
      42,022	   0,0373282	94,4	    0,038565	95,6
     42,0239	   0,0374531	93,9	   0,0387696	95,1
     42,0259	   0,0376064	96,0	   0,0388588	95,3
     42,0279	   0,0376582	96,1	   0,0390109	96,3
     42,0298	   0,0378062	95,8	   0,0391088	96,8
     42,0318	   0,0379536	96,3	   0,0392861	96,1
     42,0337	   0,0380872	96,6	   0,0393646	96,4
     42,0357	   0,0382857	95,1	   0,0394927	97,7
     42,0376	   0,0383137	96,1	   0,0395523	97,5
     42,0396	   0,0384589	95,5	   0,0397525	97,8
     42,0415	   0,0384721	95,7	   0,0397836	97,7
     42,0435	   0,0386623	97,8	   0,0399713	96,2
     42,0455	   0,0388085	97,0	   0,0401172	96,8
     42,0474	   0,0388724	96,1	   0,0402389	96,8
     42,0494	   0,0390678	97,6	   0,0403431	96,9
     42,0513	    0,039155	97,4	   0,0405325	98,3
     42,0533	   0,0392159	96,9	   0,0405954	98,8
     42,0552	   0,0393545	97,5	   0,0407336	97,9
     42,0572	   0,0394125	98,2	   0,0407575	98,0
     42,0591	    0,039596	96,9	   0,0409466	98,8
     42,0611	   0,0396646	97,6	   0,0410822	98,2
      42,063	   0,0397726	97,0	   0,0412505	98,0
      42,065	   0,0399421	97,7	   0,0413938	99,3
      42,067	   0,0401038	98,3	    0,041486	99,5
     42,0689	   0,0402974	98,8	   0,0415695	98,5
     42,0709	   0,0403842	98,5	   0,0417103	99,3
     42,0728	   0,0404218	99,4	    0,041837	99,7
     42,0748	    0,040536	100,0	   0,0419982	98,8
     42,0767	   0,0406581	98,2	   0,0421716	100,9
     42,0787	   0,0406877	98,7	   0,0422349	100,3
     42,0806	   0,0408811	99,0	   0,0424215	100,1
     42,0826	   0,0409974	98,1	   0,0424852	101,1
     42,0846	   0,0411494	98,8	   0,0425447	101,5
     42,0865	    0,041271	99,4	   0,0427387	100,0
     42,0885	   0,0413519	99,5	   0,0428838	100,4
     42,0904	   0,0415237	99,9	    0,043049	100,5
     42,0924	   0,0416917	99,9	   0,0432503	99,9
     42,0943	   0,0418311	100,4	   0,0434563	101,3
     42,0963	    0,041975	100,4	   0,0435869	101,3
     42,0982	   0,0421638	101,6	    0,043754	100,9
     42,1002	   0,0422827	100,9	   0,0438562	101,2
     42,1021	   0,0423089	100,3	   0,0440082	103,3
     42,1041	   0,0423983	101,3	   0,0441239	102,2
     42,1061	    0,042625	100,9	   0,0443382	102,2
      42,108	   0,0427367	101,1	   0,0444765	102,6
       42,11	   0,0429176	101,7	   0,0447199	101,2
     42,1119	   0,0429993	101,7	   0,0448308	102,5
     42,1139	   0,0431553	101,4	   0,0450582	102,3
     42,1158	   0,0432677	101,4	   0,0450917	103,0
     42,1178	   0,0434076	103,0	    0,045223	103,1
     42,1197	   0,0435552	102,1	   0,0453803	103,6
     42,1217	    0,043685	102,6	   0,0455631	103,9
     42,1237	   0,0438511	102,8	   0,0457003	103,4
     42,1256	   0,0439326	104,0	   0,0459375	105,2
     42,1276	   0,0440586	102,2	   0,0460544	105,2
     42,1295	   0,0441707	102,9	   0,0462612	104,3
     42,1315	    0,044317	103,4	    0,046347	105,5
     42,1334	   0,0444812	103,3	    0,046477	103,9
     42,1354	   0,0446819	103,6	   0,0466716	103,9
     42,1373	   0,0447796	103,8	   0,0468033	105,4
     42,1393	   0,0450503	103,6	   0,0469795	105,3
     42,1413	   0,0451791	103,0	   0,0471814	104,8
     42,1432	   0,0453367	105,2	   0,0472358	105,2
     42,1452	   0,0454498	105,2	   0,0473937	107,2
     42,1471	   0,0454754	104,8	   0,0475943	106,7
     42,1491	   0,0455092	106,3	   0,0476536	106,0
      42,151	   0,0457526	104,7	   0,0478375	107,2
      42,153	     0,04591	105,0	   0,0480096	107,8
     42,1549	   0,0461497	105,6	   0,0482531	107,1
     42,1569	   0,0462373	107,0	   0,0483479	107,7
     42,1588	   0,0464497	105,3	   0,0485928	107,4
     42,1608	   0,0466009	106,0	   0,0488278	107,9
     42,1628	   0,0467546	106,8	    0,049025	107,7
     42,1647	   0,0469583	105,8	    0,049192	108,1
     42,1667	    0,047008	105,6	   0,0492689	108,1
     42,1686	   0,0472496	108,1	   0,0493993	108,2
     42,1706	   0,0474014	107,4	   0,0496127	109,6
     42,1725	    0,047526	107,1	   0,0497148	109,5
     42,1745	   0,0476252	107,8	   0,0500241	109,8
     42,1764	   0,0478096	108,5	   0,0502112	110,5
     42,1784	   0,0479422	108,6	   0,0504058	110,5
     42,1804	   0,0480498	108,7	   0,0505023	109,8
     42,1823	   0,0482487	108,8	   0,0507781	111,0
     42,1843	   0,0484767	107,6	   0,0508766	112,2
     42,1862	   0,0486032	108,2	   0,0510963	110,3
     42,1882	   0,0489188	109,7	   0,0511257	111,0
     42,1901	   0,0489997	109,6	   0,0513994	110,9
     42,1921	   0,0492195	109,8	   0,0515257	111,8
      42,194	   0,0493255	110,9	   0,0516675	112,2
      42,196	    0,049418	110,3	   0,0517741	112,9
     42,1979	   0,0497259	110,1	   0,0519937	112,4
     42,1999	   0,0497968	110,6	   0,0521864	112,2
     42,2019	   0,0499537	111,4	   0,0522977	114,7
     42,2038	   0,0500928	111,6	   0,0524352	114,1
     42,2058	   0,0502686	112,0	   0,0526954	113,4
     42,2077	   0,0503791	112,4	   0,0528601	114,3
     42,2097	   0,0506167	111,5	   0,0530231	114,6
     42,2116	   0,0506922	111,7	   0,0530891	114,7
     42,2136	   0,0509618	113,0	   0,0535026	114,4
     42,2155	   0,0511199	112,2	   0,0536447	115,3
     42,2175	    0,051185	112,3	   0,0538336	115,9
     42,2195	   0,0513883	113,4	   0,0540356	114,5
     42,2214	   0,0514956	113,7	    0,054107	115,4
     42,2234	   0,0518598	113,7	    0,054326	115,8
     42,2253	   0,0519608	113,7	   0,0544307	116,0
     42,2273	    0,052177	115,4	   0,0546394	115,8
     42,2292	   0,0524692	114,9	   0,0548398	117,9
     42,2312	   0,0526701	114,7	   0,0549161	117,2
     42,2331	   0,0528292	115,4	   0,0550475	117,3
     42,2351	   0,0530908	117,1	   0,0553561	119,3
      42,237	   0,0532735	116,2	   0,0554147	119,0
      42,239	   0,0534532	116,7	   0,0555431	118,1
      42,241	   0,0535622	117,7	   0,0557593	118,9
     42,2429	   0,0537356	116,1	    0,055962	119,4
     42,2449	   0,0539688	116,5	   0,0560838	119,4
     42,2468	   0,0541766	118,3	   0,0562513	119,6
     42,2488	   0,0543428	118,0	   0,0564613	120,7
     42,2507	   0,0545598	117,2	    0,056542	119,5
     42,2527	   0,0546663	117,5	   0,0566974	120,1
     42,2546	    0,054807	119,3	   0,0569399	121,2
     42,2566	   0,0549216	118,8	   0,0571792	121,5
     42,2586	   0,0551964	119,8	   0,0572864	120,6
     42,2605	   0,0553635	120,4	   0,0575377	121,7
     42,2625	   0,0554625	120,3	   0,0577011	122,8
     42,2644	   0,0556741	120,4	   0,0577152	122,5
     42,2664	   0,0557993	121,4	   0,0580096	123,8
     42,2683	   0,0559071	122,2	   0,0578332	124,1
     42,2703	   0,0560683	120,9	   0,0582155	124,4
     42,2722	   0,0562615	121,4	   0,0580918	123,6
     42,2742	   0,0563911	122,7	   0,0584847	125,0
     42,2761	    0,056583	122,4	   0,0586509	125,6
     42,2781	   0,0568144	121,3	   0,0586685	124,5
     42,2801	   0,0569642	122,5	    0,058885	124,8
      42,282	   0,0571266	123,0	    0,059062	125,6
      42,284	   0,0572508	122,5	   0,0591136	125,7
     42,2859	   0,0573741	122,6	   0,0593175	125,8
     42,2879	   0,0575648	124,9	   0,0595627	126,3
     42,2898	   0,0577133	124,2	   0,0595822	126,6
     42,2918	   0,0578919	124,7	    0,059868	127,0
     42,2937	   0,0580132	124,5	   0,0598545	125,6
     42,2957	   0,0581088	126,8	   0,0601032	128,2
     42,2977	   0,0582875	126,1	   0,0602197	128,6
     42,2996	   0,0584617	126,3	   0,0603462	128,6
     42,3016	    0,058626	127,3	   0,0604017	128,1
     42,3035	   0,0588006	127,0	   0,0599727	129,9
     42,3055	   0,0589299	127,2	   0,0604203	130,2
     42,3074	   0,0590248	128,2	   0,0607929	130,2
     42,3094	   0,0591195	128,6	   0,0608311	130,6
     42,3113	   0,0592782	128,0	   0,0609782	130,7
     42,3133	   0,0593569	127,4	   0,0610536	131,1
     42,3153	   0,0595599	129,3	   0,0612315	131,8
     42,3172	   0,0597047	130,0	   0,0612842	132,3
     42,3192	   0,0599363	129,1	   0,0613622	133,3
     42,3211	   0,0600111	129,3	   0,0607017	130,5
     42,3231	   0,0601427	130,2	    0,061177	132,3
      42,325	   0,0602158	131,2	   0,0613523	132,5
      42,327	   0,0603137	131,9	   0,0616806	133,1
     42,3289	    0,060416	130,6	   0,0617645	133,6
     42,3309	   0,0602545	132,2	   0,0621574	134,1
     42,3328	    0,060401	132,3	   0,0618339	133,5
     42,3348	   0,0604982	133,0	   0,0618483	134,5
     42,3368	   0,0609092	135,0	   0,0622896	136,1
     42,3387	   0,0611309	133,4	   0,0615642	136,8
     42,3407	   0,0613192	134,4	   0,0618455	136,3
     42,3426	   0,0611757	135,0	   0,0625642	136,5
     42,3446	   0,0615092	135,1	   0,0625685	137,1
     42,3465	     0,06161	134,6	   0,0626754	137,5
     42,3485	   0,0618143	135,3	   0,0626511	137,3
     42,3504	   0,0618236	135,3	   0,0627192	138,2
     42,3524	   0,0620256	137,2	   0,0628936	139,7
     42,3544	   0,0620136	136,8	   0,0629136	138,1
     42,3563	   0,0621235	136,1	   0,0629486	138,1
     42,3583	   0,0621858	136,9	   0,0627983	139,3
     42,3602	   0,0623807	136,9	   0,0631181	140,2
     42,3622	   0,0625274	136,5	   0,0629537	140,5
     42,3641	   0,0626586	137,7	   0,0629637	139,6
     42,3661	    0,062745	138,6	   0,0632917	140,7
      42,368	   0,0628428	138,6	   0,0633048	140,3
       42,37	   0,0629305	138,2	   0,0633982	140,4
     42,3719	   0,0629696	139,4	   0,0633607	141,1
     42,3739	    0,063032	140,2	   0,0634127	142,4
     42,3759	   0,0630572	139,3	     0,06335	141,2
     42,3778	    0,063034	139,6	   0,0633963	141,0
     42,3798	    0,063146	141,3	    0,063476	143,3
     42,3817	   0,0632059	141,6	   0,0635306	143,2
     42,3837	   0,0632715	141,7	   0,0635729	142,7
     42,3856	   0,0633363	141,3	   0,0635045	143,4
     42,3876	   0,0632999	142,9	   0,0636609	144,9
     42,3895	    0,063349	143,0	   0,0637308	145,3
     42,3915	   0,0633506	143,0	   0,0634882	144,8
     42,3935	   0,0634889	143,5	   0,0635317	144,6
     42,3954	   0,0634346	143,4	   0,0637887	145,5
     42,3974	   0,0635186	144,0	   0,0637298	146,9
     42,3993	   0,0635379	144,5	   0,0638382	146,3
     42,4013	   0,0634886	145,3	   0,0638512	147,2
     42,4032	   0,0635468	145,1	   0,0637431	147,5
     42,4052	   0,0636169	145,2	   0,0638533	147,7
     42,4071	    0,063669	146,0	   0,0638404	147,5
     42,4091	   0,0636677	146,9	   0,0638743	148,5
      42,411	   0,0636865	146,5	   0,0638256	149,5
      42,413	    0,063673	146,7	   0,0638221	148,1
      42,415	   0,0637212	147,6	   0,0636066	148,7
     42,4169	   0,0636682	148,5	   0,0632984	147,7
     42,4189	   0,0636222	146,4	   0,0638374	149,7
     42,4208	   0,0638202	147,0	   0,0631711	147,8
     42,4228	   0,0638036	148,3	    0,063663	150,2
     42,4247	   0,0638389	148,6	   0,0638405	150,7
     42,4267	   0,0637951	149,3	   0,0638224	150,9
     42,4286	   0,0637825	148,5	   0,0639063	149,7
     42,4306	   0,0638644	150,5	   0,0638658	151,2
     42,4326	   0,0638252	149,8	    0,063861	152,4
     42,4345	   0,0638146	150,4	   0,0637777	152,4
     42,4365	    0,063759	150,6	   0,0637605	152,4
     42,4384	   0,0638405	152,2	   0,0635275	152,1
     42,4404	   0,0638061	152,1	   0,0625576	152,2
     42,4423	   0,0634536	151,7	    0,063613	153,0
     42,4443	    0,063646	152,4	   0,0634257	153,6
     42,4462	   0,0637492	152,6	   0,0635696	153,7
     42,4482	   0,0637589	153,0	   0,0635866	154,5
     42,4501	   0,0638426	152,9	   0,0635741	154,4
     42,4521	   0,0637148	153,3	   0,0635778	154,1
     42,4541	   0,0637851	153,8	    0,063251	154,7
      42,456	   0,0636493	153,6	   0,0634869	156,2
      42,458	   0,0635016	153,2	   0,0631969	155,3
     42,4599	    0,063635	155,0	   0,0633539	156,2
     42,4619	   0,0635677	156,2	    0,063251	157,1
     42,4638	   0,0633522	154,1	   0,0632569	157,5
     42,4658	   0,0635773	156,3	    0,063161	157,2
     42,4677	   0,0635172	156,3	    0,063125	157,9
     42,4697	   0,0635293	158,0	   0,0630903	158,1
     42,4717	   0,0631292	155,4	   0,0630169	158,4
     42,4736	   0,0634359	157,6	   0,0629271	157,8
     42,4756	   0,0633626	158,0	   0,0629546	158,1
     42,4775	   0,0633351	158,6	   0,0628317	160,0
     42,4795	   0,0631824	157,1	   0,0622079	159,3
     42,4814	   0,0632307	157,6	   0,0626142	158,8
     42,4834	   0,0630509	159,0	   0,0625799	159,4
     42,4853	   0,0630457	159,0	   0,0625254	160,8
     42,4873	   0,0630378	159,5	   0,0624302	161,3
     42,4892	   0,0629551	159,4	   0,0624155	159,8
     42,4912	    0,062914	159,9	   0,0624589	160,3
     42,4932	   0,0629852	160,8	   0,0623654	161,4
     42,4951	   0,0629831	159,7	    0,062243	162,4
     42,4971	   0,0627703	160,1	   0,0621517	161,3
      42,499	   0,0627123	160,6	   0,0617261	162,0
      42,501	   0,0626155	161,5	   0,0615087	162,8
     42,5029	   0,0625979	162,1	   0,0622163	163,2
     42,5049	   0,0624461	160,4	   0,0620145	161,6
     42,5068	   0,0624918	161,9	   0,0620046	162,6
     42,5088	   0,0625432	162,7	   0,0615279	162,6
     42,5108	   0,0623708	163,0	    0,061779	164,2
     42,5127	    0,062422	162,3	   0,0616134	162,9
     42,5147	   0,0622922	162,7	   0,0616156	163,0
     42,5166	   0,0621437	164,9	    0,061407	164,6
     42,5186	    0,062154	164,0	   0,0616126	165,3
     42,5205	   0,0618702	163,2	   0,0615389	164,8
     42,5225	   0,0618624	165,3	   0,0610699	165,4
     42,5244	   0,0615141	164,5	      0,0612	164,2
     42,5264	   0,0617677	165,6	   0,0612549	165,9
     42,5283	   0,0615372	164,2	     0,06106	165,9
     42,5303	   0,0618319	165,8	   0,0609466	165,3
     42,5323	   0,0617512	166,7	   0,0609734	165,4
     42,5342	   0,0615301	165,4	   0,0608178	167,2
     42,5362	   0,0615162	165,3	   0,0608216	167,2
     42,5381	   0,0608737	166,6	   0,0606053	166,2
     42,5401	   0,0611786	166,8	   0,0606475	166,6
      42,542	   0,0612146	168,1	    0,060482	167,9
      42,544	   0,0604303	167,9	   0,0604543	167,8
     42,5459	   0,0608376	166,3	   0,0603064	167,4
     42,5479	   0,0610783	168,8	   0,0602002	167,1
     42,5499	   0,0611429	168,3	   0,0601082	169,4
     42,5518	   0,0608769	167,6	   0,0600908	169,1
     42,5538	   0,0610772	168,4	   0,0599357	168,1
     42,5557	   0,0607244	170,1	   0,0598615	169,0
     42,5577	   0,0606401	170,1	   0,0597108	169,8
     42,5596	   0,0604478	169,4	   0,0596426	170,1
     42,5616	   0,0604038	168,5	   0,0595779	169,9
     42,5635	   0,0604147	171,3	   0,0595299	169,7
     42,5655	   0,0602617	170,1	   0,0593862	169,8
     42,5674	   0,0601333	168,8	   0,0593123	170,7
     42,5694	   0,0601481	170,8	   0,0591279	170,8
     42,5714	   0,0598985	171,7	   0,0590501	171,3
     42,5733	   0,0597642	171,2	   0,0590849	171,4
     42,5753	   0,0596467	172,1	   0,0589398	172,4
     42,5772	   0,0595298	171,9	   0,0587359	172,1
     42,5792	   0,0591047	171,2	    0,058682	172,1
     42,5811	   0,0594325	173,7	   0,0585952	172,1
     42,5831	   0,0592945	172,9	    0,058494	173,9
      42,585	   0,0592124	172,7	   0,0583775	173,0
      42,587	   0,0591959	173,3	   0,0583339	172,7
      42,589	   0,0591085	173,5	   0,0582114	173,1
     42,5909	   0,0587409	173,5	    0,058117	174,6
     42,5929	   0,0588006	173,9	   0,0580425	174,5
     42,5948	   0,0586953	174,1	   0,0578933	174,0
     42,5968	   0,0585953	173,1	   0,0578323	172,6
     42,5987	   0,0584959	174,8	   0,0576669	175,4
     42,6007	   0,0583939	175,6	   0,0576273	175,4
     42,6026	   0,0581739	175,3	   0,0574857	174,8
     42,6046	   0,0581453	175,9	   0,0574499	174,8
     42,6065	   0,0580674	174,7	   0,0573236	176,3
     42,6085	   0,0579053	175,9	   0,0572682	176,4
     42,6105	   0,0578245	176,2	   0,0572324	175,8
     42,6124	   0,0575914	175,7	    0,057139	175,2
     42,6144	   0,0576024	175,8	   0,0570054	176,6
     42,6163	   0,0574959	177,2	    0,056919	176,6
     42,6183	   0,0573752	176,4	   0,0566996	176,8
     42,6202	   0,0572478	175,9	   0,0566557	176,3
     42,6222	   0,0571454	177,2	   0,0564552	177,2
     42,6241	   0,0571325	177,6	   0,0562921	177,9
     42,6261	   0,0569425	178,0	   0,0563041	177,7
     42,6281	   0,0568527	177,7	   0,0560642	177,4
       42,63	   0,0568246	177,1	   0,0561445	177,3
      42,632	   0,0566337	179,8	   0,0560014	178,4
     42,6339	   0,0564255	178,4	   0,0559149	178,8
     42,6359	   0,0562281	177,3	   0,0557838	178,3
     42,6378	   0,0562304	179,0	   0,0556766	178,5
     42,6398	    0,056135	178,2	   0,0555787	179,4
     42,6417	   0,0560347	180,6	    0,055551	179,2
     42,6437	    0,055927	179,8	   0,0553694	179,8
     42,6456	   0,0556928	177,6	   0,0553223	179,1
     42,6476	   0,0558393	181,0	   0,0552772	178,8
     42,6496	   0,0555879	180,0	   0,0551133	179,1
     42,6515	   0,0555067	181,0	   0,0548358	180,3
     42,6535	    0,055462	179,6	   0,0547792	179,8
     42,6554	   0,0551652	179,3	    0,054583	180,5
     42,6574	   0,0550117	181,0	   0,0545106	180,1
     42,6593	   0,0549964	181,9	    0,054414	180,9
     42,6613	   0,0548547	180,5	   0,0543632	181,7
     42,6632	   0,0548139	180,1	   0,0541609	181,4
     42,6652	   0,0547366	181,6	   0,0539756	180,9
     42,6672	   0,0546063	181,9	   0,0539442	181,6
     42,6691	   0,0543782	182,0	   0,0539109	182,1
     42,6711	   0,0544158	180,9	   0,0537782	182,8
      42,673	   0,0542263	181,2	   0,0536431	181,9
      42,675	   0,0541465	182,7	   0,0536074	182,5
     42,6769	   0,0540249	183,8	   0,0534832	184,0
     42,6789	   0,0539438	181,7	   0,0534028	184,2
     42,6808	   0,0539305	183,1	    0,053307	182,5
     42,6828	   0,0536925	182,9	   0,0531242	183,3
     42,6847	   0,0534911	184,6	   0,0529342	183,5
     42,6867	   0,0533576	183,6	   0,0528675	184,3
     42,6887	   0,0534001	185,5	   0,0526551	182,8
     42,6906	   0,0531495	184,6	   0,0526173	183,4
     42,6926	   0,0529465	184,3	   0,0525152	184,3
     42,6945	   0,0529628	184,2	   0,0523475	185,7
     42,6965	   0,0529662	186,3	    0,052226	185,0
     42,6984	   0,0526051	186,7	   0,0521053	184,5
     42,7004	   0,0523941	183,5	   0,0520986	184,8
     42,7023	   0,0522429	186,1	     0,05193	185,4
     42,7043	   0,0520964	186,2	    0,051816	185,4
     42,7063	    0,052025	186,3	   0,0517075	186,3
     42,7082	   0,0519029	185,5	   0,0515301	185,8
     42,7102	   0,0518792	186,1	   0,0513534	186,1
     42,7121	   0,0519256	188,0	   0,0513399	187,0
     42,7141	    0,051789	188,4	   0,0511205	187,4
      42,716	   0,0516419	186,8	   0,0510802	187,4
      42,718	   0,0515832	187,6	   0,0509703	187,2
     42,7199	   0,0514266	188,1	   0,0509181	187,5
     42,7219	   0,0511304	188,5	   0,0507731	188,6
     42,7239	   0,0509534	188,3	   0,0506386	188,6
     42,7258	   0,0507339	187,9	   0,0504955	187,5
     42,7278	   0,0507585	188,1	   0,0504662	188,2
     42,7297	   0,0506361	189,4	   0,0503996	188,8
     42,7317	   0,0506311	190,1	   0,0501748	188,8
     42,7336	   0,0505244	190,1	   0,0500093	188,9
     42,7356	   0,0503086	188,8	   0,0498675	189,0
     42,7375	   0,0501669	188,7	   0,0497181	188,4
     42,7395	   0,0500359	189,1	   0,0495839	188,5
     42,7414	   0,0500084	189,9	   0,0495054	190,1
     42,7434	   0,0498327	188,9	   0,0494413	189,1
     42,7454	   0,0497172	189,6	   0,0492822	188,2
     42,7473	   0,0496065	190,2	   0,0491665	188,6
     42,7493	   0,0494602	191,1	   0,0490564	190,2
     42,7512	    0,049377	190,4	   0,0490899	190,3
     42,7532	   0,0491712	190,4	   0,0489615	190,2
     42,7551	   0,0490715	191,0	    0,048894	189,6
     42,7571	   0,0488052	190,6	   0,0486897	190,1
      42,759	    0,048838	191,0	   0,0485566	190,7
      42,761	   0,0488835	190,5	   0,0485728	190,3
      42,763	   0,0487057	190,4	   0,0484014	190,5
     42,7649	   0,0485756	190,8	   0,0482347	190,2
     42,7669	   0,0483564	192,6	   0,0481245	190,7
     42,7688	    0,048181	190,9	   0,0480039	191,6
     42,7708	   0,0481386	192,0	   0,0478444	192,3
     42,7727	   0,0479741	191,1	   0,0478365	190,9
     42,7747	   0,0480323	192,3	   0,0477633	191,0
     42,7766	   0,0477813	193,2	   0,0476584	191,2
     42,7786	   0,0477537	192,3	   0,0475165	192,2
     42,7805	   0,0476013	192,7	   0,0473825	191,5
     42,7825	   0,0475142	192,7	   0,0471708	191,9
     42,7845	   0,0474244	191,5	   0,0470761	191,7
     42,7864	   0,0472194	192,5	   0,0469518	192,9
     42,7884	   0,0470839	193,8	   0,0469027	193,6
     42,7903	   0,0472034	193,2	   0,0467265	193,4
     42,7923	   0,0470851	192,6	   0,0466768	192,8
     42,7942	   0,0469306	194,4	   0,0465054	193,6
     42,7962	   0,0466968	194,8	   0,0464401	193,8
     42,7981	   0,0466468	196,2	   0,0463951	194,5
     42,8001	    0,046645	194,7	   0,0462191	194,4
     42,8021	   0,0464207	194,9	   0,0461004	194,0
      42,804	    0,046246	194,4	   0,0459847	194,3
      42,806	   0,0461058	194,4	   0,0458773	194,4
     42,8079	   0,0459025	195,8	   0,0458309	193,7
     42,8099	   0,0455025	197,3	   0,0457009	194,9
     42,8118	   0,0456776	195,0	   0,0455013	194,3
     42,8138	   0,0456016	192,4	   0,0454068	194,5
     42,8157	   0,0451281	195,7	   0,0452982	195,8
     42,8177	   0,0449986	194,2	   0,0452742	195,5
     42,8196	   0,0452343	196,6	   0,0450941	195,4
     42,8216	   0,0449328	196,9	   0,0448968	194,5
     42,8236	    0,044924	196,7	   0,0449102	194,6
     42,8255	   0,0445535	196,2	   0,0448246	196,0
     42,8275	   0,0447585	197,3	   0,0447139	196,3
     42,8294	   0,0441881	197,9	   0,0445144	194,7
     42,8314	   0,0431577	-157,7	   0,0445092	197,0
     42,8333	   0,0428697	-161,2	   0,0445207	195,4
     42,8353	   0,0436994	-161,5	   0,0443177	195,8
     42,8372	   0,0440271	-162,2	   0,0442205	196,7
     42,8392	   0,0440102	-159,4	   0,0440819	197,6
     42,8412	   0,0439628	-162,0	    0,043816	195,8
     42,8431	   0,0438267	-162,1	   0,0437636	195,9
     42,8451	   0,0428876	-160,6	    0,043662	197,6
      42,847	   0,0425855	-162,4	   0,0434751	197,5
      42,849	   0,0436671	-161,3	   0,0433407	198,6
     42,8509	   0,0437756	-163,2	   0,0433044	198,3
     42,8529	   0,0429103	-162,9	   0,0432938	197,3
     42,8548	   0,0428259	-164,8	   0,0431812	197,8
     42,8568	   0,0432062	-162,6	   0,0429793	199,0
     42,8587	   0,0430979	-163,3	   0,0428729	198,7
     42,8607	   0,0432289	-160,7	   0,0428833	198,3
     42,8627	   0,0425181	-159,5	   0,0427901	197,3
     42,8646	    0,041164	-157,4	    0,042591	197,3
     42,8666	    0,041609	-158,7	   0,0424561	198,8
     42,8685	   0,0421804	-160,4	   0,0424231	198,1
     42,8705	   0,0423891	-159,6	   0,0422742	198,4
     42,8724	   0,0424889	-159,8	   0,0420724	198,5
     42,8744	   0,0423465	-161,8	   0,0420613	198,0
     42,8763	   0,0420976	-161,0	   0,0420781	198,2
     42,8783	    0,041932	-160,7	   0,0418322	198,3
     42,8803	   0,0419218	-158,6	   0,0417184	-159,9
     42,8822	   0,0418971	-160,8	    0,041604	-161,5
     42,8842	   0,0415553	-157,9	   0,0415391	-160,8
     42,8861	   0,0415598	-159,5	   0,0414669	-160,8
     42,8881	   0,0415298	-160,1	   0,0413589	-159,3
       42,89	   0,0415515	-158,2	   0,0411977	-159,9
      42,892	   0,0413753	-158,0	   0,0410805	-158,3
     42,8939	   0,0411611	-157,7	   0,0409684	-158,8
     42,8959	   0,0410298	-159,5	   0,0408434	-158,6
     42,8979	   0,0410818	-161,2	    0,040986	-160,1
     42,8998	   0,0407352	-159,3	   0,0407017	-159,8
     42,9018	     0,04076	-159,4	   0,0406464	-158,3
     42,9037	   0,0404893	-157,0	   0,0404483	-159,0
     42,9057	   0,0396084	-157,7	   0,0405152	-159,5
     42,9076	     0,04021	-159,4	   0,0402228	-158,8
     42,9096	   0,0402855	-160,0	   0,0402247	-159,0
     42,9115	   0,0402808	-159,9	   0,0401978	-158,4
     42,9135	   0,0402491	-157,6	   0,0400399	-158,3
     42,9154	   0,0395963	-159,9	   0,0399534	-159,2
     42,9174	   0,0397704	-158,2	   0,0399113	-159,0
     42,9194	   0,0398041	-159,0	   0,0397431	-158,6
     42,9213	   0,0397732	-158,6	   0,0397427	-157,2
     42,9233	   0,0396543	-156,4	   0,0395244	-157,8
     42,9252	   0,0393537	-155,0	    0,039388	-157,1
     42,9272	   0,0391991	-157,2	   0,0394077	-157,6
     42,9291	    0,039091	-158,0	   0,0391607	-158,5
     42,9311	   0,0392975	-157,5	   0,0390586	-157,3
      42,933	   0,0390202	-157,2	   0,0389552	-156,4
      42,935	   0,0388873	-157,0	   0,0387824	-157,0
      42,937	   0,0387249	-155,8	   0,0387765	-157,2
     42,9389	   0,0386716	-157,2	    0,038615	-156,9
     42,9409	   0,0388112	-158,4	   0,0385408	-157,8
     42,9428	   0,0386873	-156,9	   0,0384589	-156,1
     42,9448	   0,0387412	-156,1	   0,0383904	-156,3
     42,9467	   0,0384885	-155,9	   0,0382662	-157,5
     42,9487	    0,038307	-155,9	   0,0382732	-157,3
     42,9506	   0,0383902	-155,5	   0,0381108	-157,4
     42,9526	   0,0380711	-156,8	   0,0379624	-156,4
     42,9545	   0,0379111	-155,2	   0,0378908	-156,2
     42,9565	   0,0377471	-155,3	   0,0377965	-155,9
     42,9585	   0,0377457	-154,7	   0,0377597	-154,8
     42,9604	   0,0375372	-156,7	   0,0375772	-156,2
     42,9624	   0,0376522	-156,4	   0,0375891	-155,8
     42,9643	   0,0375687	-155,9	   0,0374108	-154,9
     42,9663	    0,037586	-157,0	   0,0372281	-154,1
     42,9682	   0,0374456	-153,6	   0,0371902	-154,7
     42,9702	   0,0373685	-155,2	   0,0371186	-154,4
     42,9721	    0,037172	-155,2	   0,0370425	-155,3
     42,9741	   0,0371947	-155,3	   0,0370275	-156,8
     42,9761	   0,0371588	-156,8	   0,0369392	-154,3
      42,978	    0,037248	-154,7	   0,0368894	-154,3
       42,98	   0,0365813	-155,0	     0,03682	-154,4
     42,9819	   0,0367673	-153,3	   0,0365789	-155,2
     42,9839	   0,0365885	-152,7	   0,0365762	-154,5
     42,9858	   0,0363857	-152,3	   0,0364033	-155,4
     42,9878	   0,0361774	-153,8	   0,0363076	-154,6
     42,9897	   0,0356819	-154,1	   0,0362524	-153,7
     42,9917	   0,0362507	-154,5	   0,0362148	-152,8
     42,9936	   0,0354273	-154,8	   0,0361227	-154,3
     42,9956	   0,0361087	-153,7	   0,0360289	-153,7
     42,9976	   0,0358691	-154,8	   0,0359487	-153,8
     42,9995	   0,0357016	-153,9	   0,0358222	-155,7
     43,0015	   0,0356609	-153,4	   0,0356936	-153,5
     43,0034	   0,0357287	-154,3	   0,0356201	-153,4
     43,0054	   0,0355923	-152,5	   0,0355641	-153,6
     43,0073	   0,0355763	-151,5	   0,0354932	-154,0
     43,0093	   0,0351824	-151,3	   0,0353672	-154,2
     43,0112	   0,0353677	-154,1	   0,0353567	-154,0
     43,0132	   0,0353389	-154,0	   0,0352053	-153,7
     43,0152	   0,0349738	-154,2	   0,0351878	-152,5
     43,0171	   0,0346038	-153,5	   0,0350209	-152,3
     43,0191	    0,034983	-151,4	   0,0348735	-153,3
      43,021	   0,0348273	-152,1	   0,0348564	-153,1
      43,023	   0,0346037	-153,8	   0,0347203	-152,4
     43,0249	   0,0345568	-152,9	   0,0346891	-152,4
     43,0269	   0,0346795	-151,7	   0,0344605	-151,9
     43,0288	   0,0343512	-150,8	   0,0345713	-152,3
     43,0308	   0,0343558	-152,5	   0,0344648	-152,6
     43,0327	   0,0342844	-152,3	   0,0344152	-153,3
     43,0347	   0,0341424	-152,1	   0,0342257	-153,2
     43,0367	   0,0341401	-152,9	   0,0341784	-152,6
     43,0386	   0,0341458	-151,4	   0,0340432	-151,7
     43,0406	   0,0339897	-150,7	   0,0339684	-150,8
     43,0425	    0,033924	-150,6	   0,0338646	-151,8
     43,0445	   0,0338893	-150,7	   0,0338708	-150,8
     43,0464	    0,033598	-150,7	   0,0337135	-152,2
     43,0484	   0,0333633	-151,6	   0,0337004	-152,2
     43,0503	   0,0337263	-150,5	   0,0336495	-149,9
     43,0523	   0,0336037	-150,5	    0,033547	-150,7
     43,0543	   0,0334329	-150,4	   0,0334042	-151,5
     43,0562	   0,0333593	-150,8	   0,0333636	-151,7
     43,0582	   0,0331915	-151,0	   0,0332659	-151,8
     43,0601	   0,0331301	-151,4	   0,0330365	-151,8
     43,0621	   0,0330787	-151,4	   0,0330009	-151,1
      43,064	   0,0330588	-149,8	    0,033101	-150,1
      43,066	   0,0329952	-149,7	   0,0329739	-150,8
     43,0679	   0,0328604	-149,9	   0,0328594	-149,9
     43,0699	   0,0327397	-148,4	   0,0327635	-150,9
     43,0718	   0,0327271	-150,0	   0,0327467	-150,5
     43,0738	   0,0326004	-150,9	   0,0325129	-150,2
     43,0758	   0,0325311	-150,2	   0,0324691	-149,4
     43,0777	   0,0325059	-150,4	    0,032451	-149,6
     43,0797	   0,0320906	-150,9	   0,0323882	-150,3
     43,0816	   0,0323317	-149,2	   0,0323209	-150,4
     43,0836	   0,0321957	-148,2	   0,0321049	-151,2
     43,0855	   0,0321346	-149,5	   0,0321011	-150,1
     43,0875	   0,0320511	-148,7	    0,031959	-151,1
     43,0894	   0,0319003	-149,0	   0,0320815	-149,4
     43,0914	   0,0317736	-147,6	   0,0318403	-148,9
     43,0934	   0,0316801	-149,3	   0,0317956	-148,4
     43,0953	   0,0315937	-147,7	   0,0317233	-148,8
     43,0973	   0,0316126	-149,6	   0,0316615	-149,2
     43,0992	   0,0315676	-150,1	   0,0316762	-149,5
     43,1012	   0,0315707	-149,8	   0,0315939	-150,2
     43,1031	   0,0316058	-148,5	   0,0315323	-149,1
     43,1051	   0,0314122	-148,9	   0,0313949	-149,3
      43,107	   0,0311805	-148,7	   0,0313134	-149,3
      43,109	   0,0311351	-148,5	   0,0311942	-147,8
     43,1109	   0,0311897	-148,4	   0,0311195	-149,1
     43,1129	   0,0310437	-149,0	   0,0310673	-149,3
     43,1149	   0,0310043	-148,3	   0,0308559	-148,0
     43,1168	   0,0308151	-146,5	    0,030813	-147,4
     43,1188	   0,0307173	-148,8	   0,0307454	-147,2
     43,1207	   0,0301088	-148,9	   0,0308834	-147,0
     43,1227	   0,0301997	-150,7	   0,0306801	-149,5
     43,1246	   0,0304333	-148,2	   0,0306508	-149,2
     43,1266	   0,0305199	-149,0	   0,0305062	-149,7
     43,1285	   0,0304575	-149,1	   0,0303886	-148,5
     43,1305	   0,0305039	-147,0	   0,0303096	-147,9
     43,1325	   0,0303044	-146,5	   0,0302252	-147,2
     43,1344	   0,0302105	-146,4	   0,0301496	-146,6
     43,1364	   0,0299859	-146,5	   0,0300666	-148,0
     43,1383	   0,0299134	-147,1	   0,0300952	-147,7
     43,1403	    0,029944	-147,1	   0,0299275	-148,0
     43,1422	    0,029703	-148,1	   0,0298033	-146,9
     43,1442	   0,0298547	-147,8	    0,029815	-147,5
     43,1461	   0,0298754	-147,8	   0,0297987	-146,9
     43,1481	   0,0299712	-147,8	   0,0297754	-147,1
       43,15	   0,0298228	-147,1	   0,0296007	-146,9
      43,152	   0,0295293	-145,4	   0,0295648	-148,4
      43,154	   0,0293897	-146,7	   0,0295004	-147,8
     43,1559	    0,029441	-144,9	   0,0294298	-146,8
     43,1579	   0,0293532	-146,1	    0,029332	-147,1
     43,1598	   0,0294099	-146,9	   0,0292421	-145,7
     43,1618	   0,0292413	-146,4	   0,0292151	-146,0
     43,1637	   0,0293296	-146,6	   0,0291645	-146,8
     43,1657	   0,0292364	-147,3	   0,0291868	-146,8
     43,1676	    0,029127	-148,1	   0,0289994	-148,4
     43,1696	    0,029137	-148,0	   0,0288997	-146,8
     43,1716	   0,0283788	-145,7	   0,0287705	-146,8
     43,1735	   0,0288271	-145,4	   0,0287517	-146,1
     43,1755	   0,0288085	-145,7	    0,028719	-146,1
     43,1774	   0,0288153	-145,1	   0,0286293	-145,5
     43,1794	   0,0286856	-145,6	   0,0285855	-145,9
     43,1813	   0,0285563	-145,9	   0,0285427	-146,6
     43,1833	   0,0283845	-146,7	   0,0284166	-146,5
     43,1852	   0,0284368	-145,6	   0,0284117	-147,2
     43,1872	   0,0283668	-147,0	   0,0282778	-146,1
     43,1891	   0,0281587	-146,6	   0,0282576	-145,2
     43,1911	   0,0280012	-146,1	   0,0282065	-145,6
     43,1931	   0,0275958	-144,3	     0,02815	-144,6
      43,195	   0,0278854	-145,7	   0,0280031	-146,0
      43,197	   0,0276632	-145,5	   0,0280062	-145,5
     43,1989	   0,0279042	-145,4	   0,0279524	-145,9
     43,2009	   0,0278501	-146,7	   0,0279073	-145,5
     43,2028	   0,0277707	-145,3	   0,0278482	-147,1
     43,2048	   0,0273138	-145,3	   0,0277412	-146,1
     43,2067	    0,027606	-143,7	   0,0275881	-145,7
     43,2087	   0,0275015	-143,9	   0,0274344	-146,0
     43,2107	   0,0274241	-144,5	   0,0274814	-145,9
     43,2126	   0,0273755	-143,4	   0,0273212	-145,5
     43,2146	   0,0271965	-144,3	   0,0273024	-144,5
     43,2165	   0,0271885	-145,7	   0,0273169	-145,3
     43,2185	   0,0271802	-144,4	   0,0272281	-143,9
     43,2204	   0,0271236	-144,2	   0,0271945	-145,3
     43,2224	   0,0273014	-145,1	   0,0270378	-145,1
     43,2243	   0,0273357	-144,0	   0,0269729	-144,7
     43,2263	   0,0271547	-143,8	   0,0270475	-145,4
     43,2282	    0,026916	-143,7	   0,0270861	-144,8
     43,2302	   0,0268478	-144,0	   0,0268724	-144,9
     43,2322	   0,0266812	-145,0	   0,0267663	-144,3
     43,2341	   0,0267675	-143,0	   0,0266521	-144,0
     43,2361	   0,0266711	-144,7	   0,0266943	-143,7
      43,238	   0,0268278	-144,4	    0,026723	-143,2
       43,24	   0,0265081	-143,0	   0,0266596	-144,3
     43,2419	    0,026098	-143,8	   0,0265636	-144,9
     43,2439	    0,026445	-143,7	   0,0264278	-144,6
     43,2458	   0,0262278	-143,1	   0,0263808	-145,1
     43,2478	   0,0262251	-144,3	   0,0263676	-144,2
     43,2498	   0,0262824	-143,7	    0,026326	-143,3
     43,2517	   0,0262921	-143,1	   0,0263701	-142,7
     43,2537	   0,0260597	-144,8	   0,0261985	-143,7
     43,2556	    0,025982	-145,5	   0,0261125	-143,4
     43,2576	   0,0262153	-142,7	   0,0260436	-144,0
     43,2595	   0,0259907	-143,1	   0,0259633	-145,0
     43,2615	    0,025716	-143,0	   0,0258999	-143,8
     43,2634	   0,0259748	-143,9	   0,0257414	-144,2
     43,2654	   0,0257335	-143,5	   0,0257893	-143,9
     43,2673	   0,0257277	-141,5	    0,025672	-143,0
     43,2693	     0,02551	-142,8	   0,0257355	-142,0
     43,2713	   0,0256387	-142,2	   0,0256372	-143,0
     43,2732	   0,0253985	-141,6	   0,0254971	-143,5
     43,2752	   0,0254607	-143,6	   0,0254584	-143,9
     43,2771	   0,0255108	-142,6	   0,0253588	-143,9
     43,2791	   0,0253785	-144,0	   0,0253587	-144,0
      43,281	   0,0252794	-142,3	   0,0252861	-142,5
      43,283	   0,0251367	-143,0	   0,0253452	-142,8
     43,2849	   0,0252423	-141,6	   0,0251868	-142,6
     43,2869	   0,0252095	-142,5	   0,0251624	-141,7
     43,2889	   0,0250667	-141,8	   0,0251291	-142,3
     43,2908	   0,0250345	-142,1	   0,0251469	-143,2
     43,2928	   0,0250758	-142,2	   0,0249525	-144,4
     43,2947	   0,0249511	-142,7	   0,0249121	-143,5
     43,2967	   0,0247728	-143,3	   0,0248168	-143,0
     43,2986	   0,0248024	-142,6	   0,0247823	-143,1
     43,3006	   0,0248297	-143,0	    0,024807	-142,1
     43,3025	   0,0247679	-141,3	   0,0246828	-141,2
     43,3045	    0,024656	-142,7	   0,0246812	-142,1
     43,3064	   0,0245824	-142,1	   0,0245993	-142,6
     43,3084	   0,0244814	-141,3	   0,0244695	-143,1
     43,3104	   0,0243951	-143,6	   0,0243978	-142,8
     43,3123	   0,0243537	-142,0	   0,0244824	-142,9
     43,3143	   0,0244246	-141,9	   0,0243336	-142,4
     43,3162	   0,0242483	-142,3	   0,0242448	-142,0
     43,3182	   0,0242811	-143,0	   0,0242256	-141,5
     43,3201	   0,0241124	-142,5	   0,0242266	-140,7
     43,3221	   0,0240185	-144,3	   0,0241701	-142,1
      43,324	   0,0239973	-142,6	   0,0240904	-141,9
      43,326	   0,0239745	-140,2	   0,0240001	-141,7
      43,328	   0,0239424	-140,8	   0,0239228	-142,0
     43,3299	   0,0238338	-140,0	    0,023874	-142,7
     43,3319	   0,0237517	-141,1	   0,0238024	-141,6
     43,3338	   0,0237916	-142,5	   0,0238234	-141,6
     43,3358	   0,0238349	-141,2	    0,023819	-141,5
     43,3377	   0,0236379	-142,2	   0,0238219	-141,7
     43,3397	   0,0236962	-140,9	   0,0237709	-141,9
     43,3416	   0,0237162	-141,1	   0,0236579	-141,7
     43,3436	   0,0234584	-140,7	   0,0235295	-141,6
     43,3456	   0,0235141	-140,0	   0,0234732	-141,5
     43,3475	   0,0232438	-140,2	   0,0233598	-141,7
     43,3495	   0,0233234	-141,2	   0,0233457	-141,9
     43,3514	   0,0233275	-142,3	   0,0232947	-141,5
     43,3534	   0,0234495	-142,4	   0,0233955	-142,2
     43,3553	   0,0234021	-141,7	   0,0233158	-141,3
     43,3573	   0,0233121	-140,1	   0,0231257	-140,9
     43,3592	   0,0231238	-139,9	   0,0231995	-141,7
     43,3612	   0,0230183	-140,4	   0,0231296	-140,8
     43,3631	   0,0230344	-139,7	   0,0230149	-140,5
     43,3651	   0,0229811	-141,9	    0,023007	-141,4
     43,3671	   0,0228848	-140,7	   0,0229228	-141,3
      43,369	   0,0228963	-140,3	   0,0228635	-142,0
      43,371	   0,0228222	-142,0	   0,0228504	-142,3
     43,3729	   0,0228545	-139,8	   0,0227936	-141,7
     43,3749	    0,022779	-139,7	   0,0227767	-140,7
     43,3768	   0,0224973	-139,3	   0,0226208	-139,9
     43,3788	   0,0225066	-141,3	   0,0226086	-139,1
     43,3807	    0,022797	-141,5	   0,0225307	-140,7
     43,3827	   0,0226791	-138,9	   0,0226116	-140,6
     43,3847	   0,0224212	-140,4	   0,0225892	-141,6
     43,3866	    0,022498	-141,3	   0,0225066	-141,5
     43,3886	   0,0224719	-140,5	    0,022394	-141,4
     43,3905	    0,022409	-140,3	   0,0224034	-140,2
     43,3925	   0,0222686	-140,4	   0,0222951	-139,6
     43,3944	   0,0221309	-140,4	   0,0222184	-139,4
     43,3964	   0,0222333	-141,2	   0,0221297	-138,8
     43,3983	   0,0221298	-140,6	   0,0221254	-139,8
     43,4003	   0,0221278	-139,5	   0,0221522	-141,0
     43,4022	   0,0220241	-139,8	   0,0220698	-139,9
     43,4042	   0,0219666	-138,3	    0,022074	-141,2
     43,4062	   0,0218649	-140,3	   0,0220459	-140,6
     43,4081	   0,0218971	-139,5	   0,0219145	-140,3
     43,4101	   0,0217724	-140,8	   0,0218305	-140,2
      43,412	   0,0218617	-140,8	   0,0218382	-140,6
      43,414	    0,021777	-140,1	   0,0217751	-140,8
     43,4159	   0,0217028	-140,1	   0,0217434	-140,2
     43,4179	   0,0216339	-139,9	   0,0215832	-139,5
     43,4198	   0,0216139	-138,6	   0,0215427	-138,9
     43,4218	   0,0215664	-140,6	   0,0215281	-138,5
     43,4238	   0,0216335	-138,8	    0,021542	-140,1
     43,4257	   0,0214678	-139,8	   0,0214839	-139,9
     43,4277	   0,0215236	-140,3	   0,0214352	-141,1
     43,4296	   0,0214164	-138,7	   0,0213827	-140,7
     43,4316	   0,0214307	-140,1	   0,0213545	-139,9
     43,4335	   0,0212912	-139,9	   0,0212185	-140,0
     43,4355	   0,0214216	-139,4	   0,0212297	-137,9
     43,4374	   0,0212588	-140,4	   0,0212636	-138,7
     43,4394	   0,0211199	-139,2	   0,0212151	-138,2
     43,4413	   0,0211277	-139,5	   0,0212133	-139,5
     43,4433	   0,0211196	-138,3	   0,0211676	-140,8
     43,4453	   0,0209044	-137,7	   0,0209046	-139,9
     43,4472	   0,0209244	-137,9	   0,0209491	-137,6
     43,4492	   0,0209259	-138,5	   0,0209842	-139,6
     43,4511	   0,0208671	-139,6	   0,0209655	-139,8
     43,4531	   0,0209252	-140,1	   0,0209142	-140,1
      43,455	   0,0209345	-140,0	   0,0208641	-139,0
      43,457	   0,0207873	-138,8	   0,0207953	-139,5
     43,4589	   0,0207004	-138,3	   0,0206965	-138,9
     43,4609	   0,0206904	-138,0	   0,0206188	-137,9
     43,4629	    0,020562	-138,0	   0,0205674	-138,1
     43,4648	   0,0207449	-138,5	   0,0206795	-138,0
     43,4668	   0,0206649	-138,7	   0,0205966	-139,2
     43,4687	   0,0206448	-137,6	   0,0206081	-139,2
     43,4707	   0,0204665	-136,8	   0,0205693	-139,0
     43,4726	   0,0203932	-137,9	   0,0205799	-139,1
     43,4746	   0,0203834	-138,2	    0,020456	-139,1
     43,4765	   0,0205396	-140,0	   0,0203172	-138,8
     43,4785	   0,0204006	-138,1	   0,0202592	-139,5
     43,4804	   0,0201787	-139,4	   0,0202198	-138,5
     43,4824	   0,0202691	-138,8	   0,0201512	-139,1
     43,4844	   0,0202371	-138,3	    0,020248	-137,7
     43,4863	   0,0200368	-138,1	   0,0200854	-137,5
     43,4883	   0,0200906	-137,7	   0,0201876	-137,2
     43,4902	    0,020087	-138,5	   0,0201729	-139,2
     43,4922	   0,0201419	-138,1	   0,0200662	-139,5
     43,4941	   0,0200395	-137,6	   0,0200164	-139,4
     43,4961	   0,0199883	-137,2	   0,0198733	-140,0
      43,498	   0,0198857	-137,6	   0,0198639	-139,9
        43,5	   0,0200309	-138,2	   0,0199661	-138,0

