X-Data [Hz]	Laser (M - Filtered) [m/s]	Phase [Deg]	Laser (M - Filtered) [m/s]	Phase [Deg]	
	003: [06-27-24 09:36]		004: [06-27-24 09:39]	
         145	  0,00705128	59,7	  0,00777998	53,7
     145,029	  0,00765435	58,3	   0,0084999	59,7
     145,059	  0,00813239	57,7	  0,00870235	58,2
     145,088	  0,00857713	59,7	  0,00877595	55,0
     145,117	  0,00862061	59,9	  0,00825672	57,6
     145,147	  0,00901884	55,3	  0,00819135	55,9
     145,176	  0,00896685	58,8	  0,00823324	59,6
     145,205	  0,00854748	59,8	  0,00865355	56,1
     145,235	  0,00859016	56,8	  0,00865369	57,4
     145,264	  0,00867933	55,9	   0,0089453	58,7
     145,293	  0,00897153	56,8	   0,0086763	55,5
     145,323	  0,00911188	57,8	  0,00860138	57,9
     145,352	  0,00878791	58,2	  0,00812567	58,7
     145,381	  0,00849426	57,9	  0,00851049	57,4
     145,411	  0,00876324	55,8	  0,00899418	56,8
      145,44	  0,00931712	54,8	  0,00878054	56,8
     145,469	  0,00934487	57,1	  0,00890505	56,8
     145,499	   0,0089064	55,4	  0,00842256	57,3
     145,528	  0,00861199	57,5	  0,00880679	55,5
     145,557	  0,00900749	55,7	  0,00917581	57,9
     145,587	  0,00936776	55,7	  0,00895816	56,4
     145,616	  0,00902732	57,9	  0,00862403	54,1
     145,645	  0,00873659	56,4	  0,00855537	59,4
     145,674	  0,00915151	56,4	  0,00893943	57,7
     145,704	  0,00952145	55,4	  0,00936207	56,3
     145,733	  0,00907826	60,8	  0,00889143	56,9
     145,762	  0,00880269	56,2	  0,00868689	55,6
     145,792	  0,00909114	56,6	  0,00884617	57,5
     145,821	  0,00946433	54,9	  0,00933214	53,3
      145,85	  0,00901547	58,4	  0,00909225	56,6
      145,88	  0,00907183	56,1	  0,00885732	55,9
     145,909	  0,00965704	57,5	  0,00918529	57,2
     145,938	   0,0091669	56,0	  0,00948362	53,4
     145,968	  0,00926802	55,8	  0,00885856	55,8
     145,997	  0,00962164	54,9	  0,00908778	56,6
     146,026	   0,0095988	57,7	  0,00961167	57,7
     146,056	  0,00909094	61,0	  0,00926082	58,5
     146,085	   0,0096299	57,3	  0,00882151	62,2
     146,114	  0,00971267	57,7	  0,00948182	55,4
     146,144	  0,00919472	60,0	  0,00930372	57,4
     146,173	  0,00931916	58,4	  0,00880994	56,6
     146,202	  0,00989408	55,3	  0,00930483	57,5
     146,232	  0,00901039	61,7	  0,00943905	60,0
     146,261	  0,00945602	58,1	  0,00895783	58,2
      146,29	  0,00972492	56,8	  0,00957965	58,4
      146,32	  0,00920704	59,9	  0,00966235	54,1
     146,349	  0,00995468	55,3	  0,00909609	60,3
     146,378	  0,00982448	54,5	  0,00949247	60,4
     146,408	  0,00935089	55,4	    0,009878	55,2
     146,437	  0,00999505	57,3	   0,0091022	60,5
     146,466	  0,00945279	59,6	  0,00964829	55,2
     146,496	   0,0100048	55,2	  0,00935977	54,2
     146,525	   0,0101282	56,6	  0,00965285	56,4
     146,554	  0,00966678	54,1	  0,00975847	59,1
     146,584	  0,00999862	56,5	  0,00929656	56,4
     146,613	  0,00954212	59,7	  0,00986889	57,5
     146,642	   0,0100259	59,5	  0,00974569	56,3
     146,672	  0,00996574	56,4	  0,00959834	59,0
     146,701	   0,0099713	56,0	  0,00988015	58,7
      146,73	   0,0104651	58,4	  0,00936801	59,5
      146,76	  0,00975057	55,9	   0,0100079	58,3
     146,789	   0,0103872	55,1	  0,00945849	57,1
     146,818	  0,00965654	60,0	   0,0102455	56,2
     146,848	  0,00997229	58,9	  0,00983306	55,5
     146,877	   0,0100186	56,3	  0,00978348	59,2
     146,906	   0,0102638	57,0	   0,0102595	57,5
     146,935	   0,0103424	58,2	  0,00975869	58,1
     146,965	   0,0101427	56,8	   0,0102959	56,1
     146,994	   0,0102746	56,7	  0,00961966	55,6
     147,023	   0,0101461	56,7	   0,0103074	58,2
     147,053	   0,0107839	59,7	  0,00987379	56,2
     147,082	   0,0101603	56,6	   0,0104407	58,5
     147,111	   0,0106905	60,0	   0,0100511	57,3
     147,141	   0,0101377	59,2	   0,0104804	56,9
      147,17	   0,0106581	58,2	    0,010095	57,0
     147,199	   0,0103541	54,9	   0,0103833	58,2
     147,229	   0,0108663	59,0	   0,0101031	58,2
     147,258	   0,0103335	57,6	   0,0104824	56,8
     147,287	   0,0106734	59,2	   0,0101718	56,6
     147,317	    0,010507	57,4	   0,0106152	57,5
     147,346	   0,0108654	56,5	   0,0102934	58,8
     147,375	   0,0108897	60,1	   0,0108072	57,2
     147,405	   0,0105613	57,9	   0,0101882	56,0
     147,434	   0,0110501	55,5	   0,0106753	56,9
     147,463	   0,0104229	58,2	    0,010248	59,0
     147,493	   0,0112177	58,1	     0,01053	58,9
     147,522	   0,0107449	57,5	   0,0106278	58,6
     147,551	   0,0112555	53,9	   0,0104846	56,0
     147,581	   0,0109045	57,1	   0,0107064	57,7
      147,61	   0,0109966	57,2	   0,0104617	55,0
     147,639	   0,0111987	55,4	   0,0108571	58,4
     147,669	   0,0106237	59,5	   0,0102811	59,8
     147,698	   0,0112365	58,2	   0,0110608	55,2
     147,727	   0,0111407	57,2	    0,010871	56,2
     147,757	   0,0110784	55,7	   0,0108773	54,5
     147,786	   0,0115053	55,8	   0,0112178	59,4
     147,815	   0,0110567	55,7	   0,0106349	57,3
     147,845	   0,0117151	51,9	   0,0110811	55,1
     147,874	   0,0115298	55,2	   0,0109796	58,1
     147,903	   0,0111393	59,3	    0,010728	57,3
     147,933	   0,0115254	59,8	   0,0114841	57,2
     147,962	   0,0112638	57,2	   0,0112546	60,0
     147,991	    0,011291	58,0	   0,0110788	55,3
     148,021	   0,0114622	58,3	   0,0114173	56,4
      148,05	   0,0112324	55,7	   0,0109447	57,7
     148,079	   0,0115147	58,9	   0,0111403	56,6
     148,109	   0,0118963	54,8	   0,0115723	59,4
     148,138	   0,0114367	56,2	   0,0111815	55,8
     148,167	   0,0114188	59,7	   0,0112999	57,9
     148,196	   0,0119773	55,1	   0,0115951	53,8
     148,226	   0,0115135	56,8	   0,0110272	59,6
     148,255	   0,0116783	56,1	   0,0114795	54,6
     148,284	   0,0120446	52,8	   0,0117516	59,6
     148,314	   0,0119901	58,1	    0,011325	56,0
     148,343	   0,0115982	58,0	   0,0114342	59,1
     148,372	   0,0119673	57,0	   0,0121728	53,1
     148,402	   0,0118481	58,8	   0,0116857	55,5
     148,431	    0,011663	55,5	   0,0111034	58,3
      148,46	    0,011794	60,0	   0,0118066	58,2
      148,49	   0,0122616	57,0	   0,0118988	59,0
     148,519	   0,0123669	52,8	   0,0116148	56,5
     148,548	   0,0118395	57,7	   0,0114744	58,2
     148,578	   0,0120165	56,3	   0,0119133	54,8
     148,607	   0,0125598	59,7	    0,011996	58,5
     148,636	   0,0123352	52,8	   0,0115591	54,6
     148,666	   0,0122337	55,1	   0,0117366	59,2
     148,695	   0,0120662	56,2	   0,0123836	55,4
     148,724	   0,0122092	59,7	   0,0121088	55,4
     148,754	   0,0123489	54,5	   0,0116213	60,7
     148,783	   0,0126079	55,2	   0,0116499	57,3
     148,812	   0,0122116	56,4	   0,0121787	57,5
     148,842	   0,0120919	61,7	   0,0126394	55,9
     148,871	   0,0127625	57,7	   0,0121507	57,4
       148,9	   0,0123935	57,7	   0,0120868	57,1
      148,93	   0,0126089	55,6	    0,012085	55,2
     148,959	   0,0124911	60,5	   0,0124782	53,5
     148,988	   0,0127252	56,6	   0,0123564	56,5
     149,018	   0,0128465	56,4	   0,0123305	58,8
     149,047	   0,0133432	57,3	   0,0125413	57,5
     149,076	   0,0129584	58,4	   0,0122369	58,1
     149,106	   0,0126365	58,0	   0,0123511	55,1
     149,135	   0,0128021	58,1	   0,0125473	55,0
     149,164	   0,0128275	54,4	   0,0127523	52,7
     149,194	   0,0133035	56,6	   0,0127297	57,1
     149,223	   0,0133332	55,1	   0,0126699	58,3
     149,252	   0,0135827	57,6	   0,0124704	58,7
     149,282	   0,0132437	56,6	   0,0124268	60,6
     149,311	   0,0131829	57,0	    0,012542	58,0
      149,34	   0,0131701	57,1	   0,0128844	58,2
      149,37	   0,0133627	56,4	   0,0129169	56,3
     149,399	   0,0132839	60,6	   0,0129193	59,4
     149,428	   0,0136869	57,1	   0,0131817	54,8
     149,457	   0,0135262	57,5	   0,0133348	54,8
     149,487	   0,0138622	55,0	   0,0131635	56,4
     149,516	   0,0137152	56,4	   0,0127428	54,4
     149,545	   0,0135526	57,8	   0,0130286	58,0
     149,575	   0,0138729	56,9	   0,0128368	54,6
     149,604	   0,0135704	56,0	    0,013188	61,2
     149,633	    0,013629	59,4	   0,0133459	55,8
     149,663	   0,0137977	54,7	     0,01309	57,3
     149,692	   0,0137669	56,1	   0,0131986	58,7
     149,721	   0,0137127	58,5	   0,0132576	56,5
     149,751	   0,0137392	55,3	   0,0134652	57,3
      149,78	   0,0140309	55,0	   0,0137024	57,8
     149,809	   0,0140119	58,0	   0,0132607	56,7
     149,839	   0,0143021	55,4	   0,0136893	56,5
     149,868	   0,0143428	56,6	   0,0137948	56,7
     149,897	   0,0143016	59,5	   0,0137377	58,4
     149,927	   0,0143052	56,1	   0,0136441	58,1
     149,956	   0,0146543	55,4	   0,0140658	56,3
     149,985	   0,0141805	60,5	   0,0136647	58,5
     150,015	   0,0146823	55,0	   0,0141939	55,0
     150,044	   0,0141554	58,6	   0,0140379	56,3
     150,073	   0,0146325	57,0	   0,0139552	54,6
     150,103	   0,0146995	55,4	   0,0141276	59,4
     150,132	   0,0146984	58,1	   0,0140824	58,6
     150,161	   0,0148711	56,8	   0,0139949	58,5
     150,191	   0,0146807	55,2	   0,0143804	57,3
      150,22	   0,0149935	55,9	   0,0143117	53,4
     150,249	   0,0148166	57,1	   0,0140461	55,6
     150,279	   0,0151193	54,2	   0,0147489	58,1
     150,308	   0,0150569	57,9	   0,0144628	57,6
     150,337	   0,0152148	59,2	   0,0147875	57,6
     150,367	   0,0152065	57,2	   0,0144963	55,8
     150,396	   0,0155186	54,5	   0,0145959	57,4
     150,425	   0,0152207	58,0	   0,0150843	56,9
     150,455	   0,0153209	58,9	   0,0147275	56,2
     150,484	   0,0152982	58,6	   0,0146438	55,7
     150,513	     0,01524	58,1	   0,0148759	56,6
     150,543	   0,0156079	56,9	    0,014977	57,8
     150,572	   0,0154327	57,2	   0,0149072	54,7
     150,601	   0,0159354	55,2	   0,0151523	58,0
      150,63	   0,0159265	56,3	   0,0151949	55,2
      150,66	   0,0163228	57,5	   0,0156083	56,1
     150,689	   0,0160152	57,4	   0,0149466	56,4
     150,718	   0,0158827	57,8	   0,0153087	57,9
     150,748	   0,0159214	58,0	   0,0150634	57,5
     150,777	   0,0156468	56,5	   0,0152628	56,7
     150,806	   0,0159382	56,8	   0,0155425	56,5
     150,836	    0,016365	57,1	   0,0156881	59,0
     150,865	   0,0164964	56,7	   0,0159789	56,1
     150,894	   0,0165145	59,3	   0,0157449	57,7
     150,924	   0,0163534	56,5	   0,0158283	58,1
     150,953	   0,0160731	56,4	   0,0153466	56,7
     150,982	    0,016398	56,6	    0,016048	55,8
     151,012	   0,0170211	58,3	   0,0158658	59,0
     151,041	   0,0170989	57,5	   0,0165498	54,4
      151,07	    0,016645	58,6	   0,0157459	59,9
       151,1	   0,0168398	58,3	   0,0161146	55,6
     151,129	   0,0166108	58,5	   0,0159475	59,7
     151,158	   0,0172745	58,7	   0,0164393	56,7
     151,188	   0,0174233	57,1	   0,0167812	57,7
     151,217	   0,0169929	55,3	   0,0161149	55,9
     151,246	   0,0167453	55,6	   0,0164203	56,0
     151,276	   0,0176741	56,2	   0,0163891	58,2
     151,305	   0,0174099	55,0	   0,0167249	57,2
     151,334	   0,0175214	54,9	   0,0171166	54,6
     151,364	   0,0174985	58,2	   0,0160823	58,3
     151,393	   0,0177604	58,0	   0,0170962	57,9
     151,422	   0,0181558	57,6	   0,0168202	58,7
     151,452	   0,0178317	55,1	   0,0173794	56,7
     151,481	   0,0176114	56,5	   0,0168445	58,5
      151,51	    0,017874	57,5	   0,0168844	58,3
      151,54	   0,0182118	56,9	   0,0177236	54,7
     151,569	    0,018116	57,7	   0,0176224	57,9
     151,598	    0,018171	57,0	    0,017184	56,2
     151,628	   0,0186075	58,1	     0,01768	56,9
     151,657	   0,0186918	55,7	   0,0178292	55,1
     151,686	   0,0185386	58,5	   0,0174866	55,4
     151,716	    0,018979	59,0	   0,0177915	55,4
     151,745	   0,0188819	55,2	   0,0183983	56,2
     151,774	   0,0184246	55,8	    0,017527	55,8
     151,804	   0,0192702	59,3	   0,0178671	57,0
     151,833	   0,0194065	57,8	   0,0182057	56,8
     151,862	   0,0189373	57,9	    0,018042	56,3
     151,891	   0,0189977	59,7	   0,0179333	54,1
     151,921	   0,0191879	54,4	    0,018724	56,7
      151,95	   0,0191108	59,0	   0,0183541	57,1
     151,979	    0,019812	56,6	   0,0185133	56,0
     152,009	   0,0196645	58,3	   0,0190199	57,1
     152,038	   0,0196183	56,7	   0,0183731	60,0
     152,067	   0,0198286	58,4	   0,0188023	56,5
     152,097	   0,0195573	57,3	   0,0192859	55,4
     152,126	   0,0202326	58,4	   0,0190143	58,3
     152,155	   0,0200704	55,0	   0,0191954	56,2
     152,185	   0,0199791	58,6	   0,0191216	56,3
     152,214	   0,0208675	57,3	   0,0187431	56,0
     152,243	   0,0204262	56,6	   0,0197575	56,7
     152,273	   0,0208054	57,3	   0,0195627	55,5
     152,302	    0,020835	55,7	   0,0195578	56,5
     152,331	   0,0203008	57,8	   0,0195329	58,4
     152,361	   0,0211119	58,6	   0,0192388	56,7
      152,39	   0,0207957	56,9	   0,0205178	55,2
     152,419	   0,0216049	55,6	   0,0199838	56,9
     152,449	   0,0207758	56,6	   0,0205846	55,0
     152,478	   0,0216315	58,9	   0,0202305	57,8
     152,507	   0,0212609	57,5	   0,0204287	57,0
     152,537	   0,0220392	57,0	   0,0206994	57,8
     152,566	   0,0216336	59,7	   0,0201518	59,1
     152,595	   0,0220524	57,9	   0,0208875	56,6
     152,625	   0,0220223	55,6	   0,0206993	55,7
     152,654	   0,0221263	57,7	   0,0215228	55,2
     152,683	   0,0225597	58,8	   0,0206628	58,8
     152,713	   0,0224869	57,2	    0,021386	57,3
     152,742	   0,0230241	55,3	   0,0210049	56,5
     152,771	   0,0225836	58,3	   0,0218477	56,2
     152,801	   0,0229304	56,6	   0,0212872	57,1
      152,83	   0,0228295	60,2	   0,0219261	57,1
     152,859	   0,0232591	56,3	   0,0215647	56,7
     152,889	   0,0232735	58,4	    0,022291	58,0
     152,918	   0,0231247	55,8	   0,0214545	59,8
     152,947	   0,0234931	59,6	   0,0218213	54,3
     152,977	   0,0234686	55,3	   0,0218665	56,1
     153,006	     0,02372	58,0	   0,0227252	54,9
     153,035	   0,0233286	58,8	   0,0222987	55,1
     153,065	   0,0238943	57,8	   0,0231487	57,5
     153,094	   0,0235314	58,8	   0,0225248	55,9
     153,123	   0,0244551	58,1	   0,0233393	55,4
     153,152	   0,0243561	56,7	   0,0228856	56,3
     153,182	   0,0247593	56,2	   0,0235682	58,5
     153,211	   0,0252015	56,1	   0,0233896	57,9
      153,24	   0,0245724	55,7	   0,0228163	61,6
      153,27	   0,0255383	55,4	   0,0236827	55,7
     153,299	   0,0254566	57,5	   0,0232295	59,0
     153,328	   0,0254516	55,7	   0,0239834	57,2
     153,358	   0,0263462	56,6	   0,0238264	56,9
     153,387	   0,0259513	58,5	   0,0244039	55,3
     153,416	   0,0263134	56,6	   0,0249761	55,4
     153,446	   0,0262081	60,9	   0,0242807	60,1
     153,475	   0,0258813	59,8	   0,0250815	55,8
     153,504	   0,0271015	55,1	    0,024855	58,1
     153,534	   0,0265147	57,5	   0,0253442	61,1
     153,563	    0,026979	58,6	   0,0255114	57,5
     153,592	   0,0276711	56,8	   0,0247294	57,9
     153,622	   0,0272961	56,2	   0,0254199	58,6
     153,651	   0,0274492	59,0	   0,0255956	57,0
      153,68	   0,0281184	57,9	   0,0255203	59,5
      153,71	   0,0275334	58,4	   0,0263339	55,7
     153,739	   0,0279568	57,4	     0,02593	60,2
     153,768	   0,0286108	58,0	    0,025828	56,5
     153,798	   0,0283627	57,1	   0,0268432	60,1
     153,827	   0,0283237	58,3	   0,0269428	55,8
     153,856	    0,029263	57,8	   0,0265105	57,8
     153,886	   0,0290634	58,9	   0,0276143	57,0
     153,915	   0,0287443	58,0	   0,0272861	56,2
     153,944	   0,0298058	59,0	   0,0273235	58,4
     153,974	    0,030069	57,7	   0,0280067	56,5
     154,003	   0,0293893	56,7	   0,0284191	59,0
     154,032	    0,030324	57,9	     0,02763	57,3
     154,062	   0,0310525	58,3	   0,0279198	59,6
     154,091	   0,0306535	57,1	   0,0290756	57,4
      154,12	   0,0308006	56,7	   0,0288412	55,5
      154,15	   0,0315045	55,8	   0,0279062	59,2
     154,179	   0,0321186	57,9	   0,0293591	60,9
     154,208	   0,0315657	58,2	   0,0299845	57,0
     154,238	   0,0308854	57,4	   0,0292242	54,3
     154,267	   0,0321518	57,1	   0,0293237	59,0
     154,296	   0,0331183	57,5	   0,0301249	59,2
     154,326	   0,0329093	58,7	    0,030951	59,4
     154,355	   0,0323827	60,0	    0,030527	56,5
     154,384	   0,0335899	56,5	   0,0298237	56,6
     154,413	   0,0341458	59,9	   0,0307142	57,6
     154,443	   0,0341068	57,3	   0,0317857	59,7
     154,472	   0,0339572	60,7	   0,0319389	57,7
     154,501	   0,0337468	58,7	   0,0313613	57,0
     154,531	   0,0349643	57,0	   0,0311012	60,4
      154,56	   0,0357193	59,3	   0,0320825	58,5
     154,589	   0,0358158	60,6	    0,032741	59,3
     154,619	   0,0356278	61,3	   0,0334877	55,6
     154,648	   0,0359428	54,3	   0,0336254	59,3
     154,677	   0,0363934	56,5	   0,0332241	57,8
     154,707	   0,0371335	56,9	   0,0331788	57,8
     154,736	   0,0379391	58,3	   0,0338167	57,6
     154,765	    0,037712	61,2	   0,0346513	61,5
     154,795	   0,0379844	59,3	    0,035185	58,9
     154,824	   0,0378951	58,7	   0,0353469	56,8
     154,853	   0,0377242	57,1	   0,0346771	57,6
     154,883	   0,0388853	57,6	   0,0354195	61,6
     154,912	   0,0397021	58,1	   0,0357095	57,8
     154,941	   0,0400964	60,2	   0,0360632	57,7
     154,971	   0,0407005	58,6	   0,0369658	60,8
         155	   0,0411236	58,1	   0,0370416	57,9
     155,029	    0,041083	62,0	   0,0374293	58,4
     155,059	   0,0411095	60,7	   0,0374143	56,8
     155,088	   0,0414529	58,6	   0,0380583	60,5
     155,117	     0,04232	58,8	   0,0381747	58,8
     155,147	   0,0423085	57,8	   0,0384304	58,2
     155,176	   0,0431671	60,6	   0,0388915	57,7
     155,205	     0,04382	58,4	   0,0395592	58,7
     155,235	   0,0439932	58,2	   0,0400348	58,6
     155,264	   0,0448777	58,2	   0,0402444	60,0
     155,293	   0,0448157	59,0	   0,0406748	60,3
     155,323	   0,0460834	59,1	   0,0416526	58,0
     155,352	   0,0466432	59,9	   0,0420188	56,7
     155,381	   0,0469616	61,3	   0,0422478	60,3
     155,411	   0,0475294	58,6	   0,0423606	57,7
      155,44	   0,0472949	62,5	   0,0430579	59,2
     155,469	   0,0481519	60,1	   0,0430811	58,4
     155,499	   0,0485564	60,5	   0,0436113	61,1
     155,528	   0,0493275	59,9	   0,0443177	60,1
     155,557	   0,0502914	62,9	   0,0445702	57,8
     155,587	   0,0500039	62,0	    0,045268	58,0
     155,616	   0,0509412	59,8	   0,0458277	59,7
     155,645	   0,0515915	63,0	   0,0461876	57,5
     155,674	   0,0521587	60,0	   0,0465107	60,4
     155,704	   0,0525512	60,0	   0,0474883	60,3
     155,733	   0,0536511	62,3	   0,0476366	58,9
     155,762	   0,0541824	60,7	   0,0482222	60,5
     155,792	   0,0554151	62,2	   0,0489835	58,3
     155,821	    0,056179	59,4	   0,0497462	62,0
      155,85	    0,056327	60,6	   0,0498743	59,9
      155,88	   0,0569633	59,4	   0,0509154	58,0
     155,909	   0,0583454	62,5	   0,0508216	59,2
     155,938	    0,059298	63,5	    0,052897	58,3
     155,968	   0,0602923	60,0	   0,0523751	60,9
     155,997	   0,0613571	60,4	   0,0543444	59,1
     156,026	   0,0617868	61,8	   0,0546701	58,5
     156,056	   0,0635432	60,7	   0,0561296	58,3
     156,085	   0,0635725	59,2	   0,0557277	58,5
     156,114	   0,0647943	61,6	   0,0580074	60,5
     156,144	   0,0643563	60,2	   0,0570613	59,2
     156,173	   0,0661215	64,5	   0,0584808	61,8
     156,202	    0,066746	63,2	     0,05926	61,7
     156,232	   0,0681538	62,4	      0,0595	61,1
     156,261	   0,0698441	61,4	   0,0605815	63,6
      156,29	   0,0699314	60,1	   0,0608013	58,8
      156,32	    0,071824	62,3	   0,0623776	58,4
     156,349	   0,0738847	61,7	   0,0636778	58,4
     156,378	   0,0739696	62,2	   0,0638134	62,0
     156,408	   0,0753046	61,7	   0,0657514	60,0
     156,437	   0,0755458	63,9	   0,0666787	62,0
     156,466	   0,0774805	65,1	   0,0670518	60,9
     156,496	   0,0787897	62,8	   0,0689792	63,5
     156,525	    0,080208	61,5	    0,070069	64,7
     156,554	   0,0816035	64,6	   0,0700225	59,7
     156,584	   0,0821657	60,5	   0,0729017	59,3
     156,613	   0,0833427	64,4	   0,0731946	59,4
     156,642	    0,085405	63,3	   0,0752996	59,5
     156,672	   0,0870419	62,4	   0,0751859	61,9
     156,701	   0,0883264	63,6	   0,0772018	63,3
      156,73	   0,0896278	62,4	   0,0774498	61,3
      156,76	   0,0914615	66,4	   0,0792209	61,7
     156,789	   0,0927575	65,7	   0,0804048	62,2
     156,818	    0,094883	65,5	   0,0821744	59,9
     156,848	   0,0959357	65,5	   0,0829982	62,4
     156,877	    0,096981	63,7	   0,0843638	62,4
     156,906	   0,0993565	66,0	    0,086355	62,9
     156,935	    0,100951	63,3	   0,0871684	63,1
     156,965	    0,102888	63,2	   0,0881655	64,0
     156,994	    0,104055	66,2	   0,0900964	64,0
     157,023	    0,105858	67,7	   0,0916207	63,2
     157,053	    0,108151	67,1	   0,0937869	60,7
     157,082	    0,109209	67,3	    0,095562	63,3
     157,111	    0,111682	65,5	   0,0959987	65,2
     157,141	    0,112813	67,2	   0,0980541	63,8
      157,17	    0,114749	67,3	    0,100732	63,5
     157,199	    0,116701	66,6	     0,10193	65,7
     157,229	    0,117917	67,1	    0,103237	66,6
     157,258	    0,119903	64,6	    0,105037	65,8
     157,287	    0,121943	66,4	    0,107142	66,5
     157,317	    0,124528	66,9	    0,108752	66,5
     157,346	     0,12568	67,0	     0,11074	67,3
     157,375	    0,127665	70,1	    0,112632	63,3
     157,405	    0,130489	69,5	    0,114065	65,2
     157,434	    0,131286	69,0	     0,11602	67,3
     157,463	    0,133901	70,1	    0,117568	61,9
     157,493	    0,135468	68,7	      0,1209	65,3
     157,522	    0,137373	65,4	    0,121659	69,1
     157,551	    0,139417	69,8	    0,123169	67,6
     157,581	    0,141364	70,3	    0,124755	68,8
      157,61	    0,143362	71,1	    0,126561	68,9
     157,639	    0,144517	72,9	     0,12859	66,6
     157,669	    0,146997	66,0	     0,13122	67,6
     157,698	    0,149065	67,8	     0,13284	68,4
     157,727	    0,150173	71,3	    0,134549	65,7
     157,757	    0,153988	69,9	     0,13547	66,8
     157,786	    0,154628	72,3	    0,138804	65,5
     157,815	    0,156703	72,8	    0,141083	67,5
     157,845	    0,159211	72,4	    0,142031	68,6
     157,874	      0,1605	72,6	    0,144391	64,0
     157,903	    0,163173	69,4	    0,147429	67,8
     157,933	    0,164468	71,2	    0,147466	69,5
     157,962	    0,165502	72,9	    0,148644	67,4
     157,991	    0,169225	72,0	     0,15155	68,9
     158,021	    0,169364	74,8	    0,153945	69,3
      158,05	    0,171767	72,1	    0,155929	68,6
     158,079	    0,174418	74,8	    0,157184	70,8
     158,109	    0,175196	73,1	    0,159848	70,0
     158,138	     0,17686	74,6	    0,162344	70,9
     158,167	    0,178986	72,3	    0,163071	70,6
     158,196	    0,181402	74,4	    0,164107	70,2
     158,226	    0,183494	75,5	    0,166744	72,7
     158,255	     0,18413	72,2	    0,169328	69,2
     158,284	    0,186899	73,1	    0,169942	69,7
     158,314	    0,188752	74,1	    0,173596	69,7
     158,343	    0,189416	74,8	    0,174499	73,2
     158,372	    0,192537	74,6	     0,17702	68,1
     158,402	    0,193863	75,9	    0,177813	72,5
     158,431	     0,19597	72,4	    0,179185	71,5
      158,46	    0,196139	77,1	    0,182185	73,0
      158,49	    0,200341	72,4	    0,183072	73,2
     158,519	    0,200014	76,0	    0,186047	73,2
     158,548	    0,203664	74,0	    0,187314	73,2
     158,578	    0,204204	73,4	    0,188613	71,5
     158,607	      0,2063	75,5	    0,190828	72,5
     158,636	    0,207829	76,3	    0,191773	75,4
     158,666	    0,209548	73,8	      0,1939	74,8
     158,695	    0,210951	78,1	    0,196106	75,2
     158,724	    0,212884	77,7	     0,19823	72,3
     158,754	    0,214172	77,5	    0,198767	73,4
     158,783	    0,215642	75,0	    0,201319	72,4
     158,812	     0,21766	77,7	    0,202587	74,8
     158,842	    0,218934	77,5	      0,2046	75,4
     158,871	    0,221684	75,5	    0,206172	72,2
       158,9	    0,222475	77,5	    0,208194	75,4
      158,93	    0,224335	76,5	    0,209713	73,8
     158,959	    0,224989	81,4	     0,21084	75,1
     158,988	    0,227372	76,2	    0,213012	72,8
     159,018	    0,228541	75,8	    0,214167	75,6
     159,047	    0,230162	77,9	    0,216735	74,3
     159,076	    0,231976	75,1	    0,217284	75,2
     159,106	    0,233573	76,7	    0,219662	76,3
     159,135	    0,234468	79,5	    0,220214	77,1
     159,164	    0,236487	77,8	    0,223443	76,4
     159,194	    0,237481	80,2	     0,22174	78,4
     159,223	     0,23968	78,8	    0,227899	74,1
     159,252	    0,240926	77,8	    0,218514	111,2
     159,282	    0,242114	79,2	    0,190015	170,3
     159,311	    0,244302	79,6	    0,170964	199,1
      159,34	     0,24513	81,5	    0,161807	-149,1
      159,37	    0,247218	80,8	    0,154802	-146,7
     159,399	    0,248404	76,8	     0,14849	-146,2
     159,428	    0,250541	78,4	    0,141763	-142,4
     159,457	    0,250879	82,6	     0,13557	-139,5
     159,487	    0,252554	79,1	     0,13001	-137,8
     159,516	    0,254361	80,3	     0,12435	-142,9
     159,545	    0,255317	82,4	    0,119296	-136,3
     159,575	    0,257351	79,8	    0,114589	-139,2
     159,604	      0,2584	83,6	     0,11082	-137,6
     159,633	    0,260526	84,1	    0,107077	-133,7
     159,663	    0,261677	80,6	    0,103458	-133,4
     159,692	    0,263221	79,1	     0,10061	-136,5
     159,721	    0,264998	82,1	   0,0984319	-131,4
     159,751	    0,265831	81,0	   0,0949702	-138,8
      159,78	     0,26778	78,9	    0,091798	-133,4
     159,809	    0,269326	81,6	   0,0889545	-136,9
     159,839	    0,269953	82,1	   0,0873045	-134,2
     159,868	    0,270946	83,6	   0,0847474	-132,8
     159,897	    0,273331	79,5	    0,082597	-135,7
     159,927	    0,274273	80,4	   0,0809049	-131,3
     159,956	    0,275604	83,5	   0,0797453	-132,2
     159,985	    0,276413	84,2	   0,0786081	-132,2
     160,015	    0,278069	81,8	   0,0774708	-134,3
     160,044	    0,279295	85,1	   0,0754384	-133,0
     160,073	    0,281249	81,4	   0,0737581	-133,1
     160,103	    0,281487	83,2	   0,0720936	-132,3
     160,132	    0,283608	84,5	   0,0709465	-131,5
     160,161	    0,284862	82,4	   0,0706236	-131,6
     160,191	    0,286833	82,3	   0,0697386	-129,6
      160,22	    0,287251	87,1	   0,0675309	-130,7
     160,249	    0,289553	86,0	   0,0653097	-134,6
     160,279	     0,29023	83,5	    0,064492	-130,4
     160,308	    0,292049	86,6	   0,0644654	-130,5
     160,337	    0,293298	82,4	   0,0639267	-130,0
     160,367	    0,294135	82,9	    0,063051	-129,3
     160,396	    0,296445	86,0	   0,0608745	-131,0
     160,425	    0,296946	86,4	   0,0592792	-134,4
     160,455	     0,29858	86,7	   0,0595701	-132,7
     160,484	     0,29967	84,4	   0,0600282	-129,0
     160,513	    0,301226	85,5	   0,0587493	-129,3
     160,543	    0,302709	86,6	   0,0575534	-128,3
     160,572	    0,303749	85,3	   0,0568483	-130,5
     160,601	    0,305279	84,3	   0,0568446	-132,7
      160,63	    0,306595	85,2	    0,055815	-133,2
      160,66	    0,306795	86,1	   0,0544131	-128,7
     160,689	    0,308993	87,3	   0,0536272	-128,7
     160,718	    0,309603	86,2	   0,0532849	-128,7
     160,748	     0,31181	87,1	   0,0532198	-129,0
     160,777	    0,312834	82,6	   0,0519059	-131,9
     160,806	    0,314201	84,6	   0,0508954	-134,3
     160,836	    0,315922	85,8	   0,0495894	-133,3
     160,865	    0,316434	86,3	    0,050234	-133,5
     160,894	    0,317847	83,4	   0,0500183	-130,8
     160,924	    0,318872	87,5	    0,049133	-129,8
     160,953	    0,320489	85,9	   0,0490163	-128,0
     160,982	    0,321383	88,1	   0,0485257	-129,3
     161,012	    0,322898	87,9	   0,0476245	-127,9
     161,041	    0,323381	88,4	   0,0470994	-127,3
      161,07	    0,325485	87,8	   0,0472024	-129,3
       161,1	    0,326492	89,3	   0,0456895	-130,2
     161,129	    0,327587	88,7	   0,0456912	-129,4
     161,158	    0,328532	89,9	   0,0452018	-129,2
     161,188	     0,33002	89,9	     0,04432	-132,3
     161,217	    0,331799	87,5	   0,0442389	-131,0
     161,246	    0,332893	89,7	   0,0437138	-131,3
     161,276	    0,333638	89,7	   0,0426714	-132,1
     161,305	    0,335166	91,0	   0,0430199	-130,9
     161,334	    0,336111	89,2	    0,042384	-133,1
     161,364	    0,337931	89,7	   0,0417796	-130,2
     161,393	    0,337885	91,1	   0,0418838	-129,7
     161,422	    0,340173	93,3	   0,0408845	-130,3
     161,452	    0,340674	89,8	    0,041302	-131,3
     161,481	     0,34252	89,8	   0,0407599	-131,8
      161,51	    0,343042	90,7	   0,0401986	-131,5
      161,54	    0,344747	93,1	   0,0399238	-128,1
     161,569	    0,345821	90,7	   0,0391145	-130,7
     161,598	    0,346315	91,3	   0,0390365	-128,2
     161,628	    0,347587	91,5	   0,0396593	-128,5
     161,657	    0,349206	92,5	   0,0381505	-128,1
     161,686	    0,350483	92,5	    0,038642	-130,0
     161,716	    0,352136	89,8	   0,0381815	-130,1
     161,745	    0,353158	86,9	    0,037589	-127,8
     161,774	    0,353901	89,3	   0,0378026	-127,5
     161,804	    0,356298	90,3	   0,0377578	-128,5
     161,833	    0,356386	88,8	   0,0368508	-129,3
     161,862	    0,357599	88,7	   0,0364586	-129,2
     161,891	    0,359193	94,0	   0,0359301	-133,0
     161,921	    0,359983	92,1	   0,0354938	-128,4
      161,95	    0,360819	92,6	   0,0365767	-131,6
     161,979	    0,362579	94,7	   0,0349109	-130,9
     162,009	    0,364082	89,8	   0,0356053	-127,0
     162,038	    0,364687	90,5	   0,0346877	-127,7
     162,067	    0,366158	87,0	   0,0342235	-127,4
     162,097	    0,367365	93,5	   0,0344612	-129,2
     162,126	    0,367845	93,4	   0,0343805	-129,1
     162,155	    0,368903	91,7	   0,0342794	-128,6
     162,185	    0,370123	90,6	   0,0334901	-129,0
     162,214	    0,370684	90,8	    0,033219	-130,3
     162,243	    0,372607	89,8	   0,0334292	-125,7
     162,273	    0,372987	92,0	   0,0326484	-129,3
     162,302	    0,374881	94,1	   0,0331303	-127,2
     162,331	    0,375704	94,2	   0,0319958	-129,5
     162,361	    0,376467	92,9	   0,0319669	-130,7
      162,39	    0,378266	91,9	   0,0320027	-129,6
     162,419	     0,37873	91,7	   0,0316899	-131,9
     162,449	    0,379206	93,1	   0,0320881	-127,0
     162,478	    0,381029	94,9	   0,0314264	-128,3
     162,507	    0,381511	94,3	   0,0316755	-129,2
     162,537	    0,383081	91,8	   0,0310272	-128,3
     162,566	    0,384325	92,8	   0,0307115	-128,8
     162,595	    0,385133	94,0	   0,0303057	-127,5
     162,625	    0,385883	95,1	   0,0302261	-123,5
     162,654	    0,387157	95,1	   0,0302487	-130,2
     162,683	    0,388055	96,1	   0,0292468	-128,0
     162,713	     0,38952	92,0	   0,0298019	-127,4
     162,742	    0,389929	96,7	   0,0298992	-127,4
     162,771	    0,391065	95,4	   0,0295822	-128,2
     162,801	    0,392538	94,7	    0,029315	-128,4
      162,83	    0,393419	94,4	    0,029306	-127,1
     162,859	    0,394697	96,9	   0,0291771	-130,7
     162,889	    0,395511	93,3	   0,0284384	-130,1
     162,918	    0,396486	96,4	    0,028531	-126,6
     162,947	    0,397113	96,3	   0,0283767	-125,9
     162,977	    0,398792	95,0	   0,0284865	-128,2
     163,006	    0,400082	95,1	   0,0275096	-130,4
     163,035	    0,400334	97,1	   0,0285427	-126,7
     163,065	    0,401754	95,6	   0,0275018	-128,1
     163,094	    0,402621	96,1	   0,0277959	-130,8
     163,123	    0,403787	97,4	   0,0274785	-124,4
     163,152	    0,404907	95,1	    0,027393	-126,6
     163,182	    0,406181	95,1	   0,0268671	-129,3
     163,211	    0,406511	96,7	   0,0262564	-130,0
      163,24	    0,407828	99,1	   0,0272581	-124,7
      163,27	    0,408975	93,8	   0,0267257	-127,8
     163,299	     0,40921	94,8	   0,0262629	-127,2
     163,328	    0,411305	97,4	   0,0266702	-128,0
     163,358	    0,412037	97,6	   0,0264824	-127,9
     163,387	    0,412247	95,5	   0,0257425	-128,1
     163,416	    0,414167	93,9	   0,0260651	-126,5
     163,446	    0,414402	96,6	     0,02571	-131,7
     163,475	    0,416227	98,4	   0,0259161	-130,2
     163,504	    0,417509	95,6	   0,0255815	-128,7
     163,534	      0,4177	98,5	   0,0256536	-132,9
     163,563	    0,419204	95,4	   0,0255656	-127,1
     163,592	     0,41959	99,7	   0,0246051	-126,1
     163,622	    0,420488	98,6	   0,0247048	-131,0
     163,651	     0,42152	96,5	   0,0251825	-125,9
      163,68	    0,423055	96,8	   0,0246063	-129,7
      163,71	    0,423728	100,0	   0,0250798	-129,3
     163,739	    0,424668	96,4	   0,0244681	-127,8
     163,768	    0,424947	98,0	   0,0238233	-127,2
     163,798	    0,426974	96,0	    0,024053	-125,0
     163,827	    0,427613	100,7	   0,0240583	-130,8
     163,856	    0,428183	99,9	   0,0242194	-125,2
     163,886	    0,429181	99,4	   0,0238143	-126,8
     163,915	    0,430401	96,9	   0,0241205	-124,4
     163,944	    0,431935	98,9	   0,0233346	-129,1
     163,974	    0,432617	96,5	   0,0237091	-126,0
     164,003	    0,433392	99,0	   0,0237859	-129,4
     164,032	    0,433845	97,7	   0,0238483	-127,6
     164,062	    0,435193	98,3	   0,0231544	-127,2
     164,091	    0,436254	100,5	   0,0232095	-128,3
      164,12	     0,43742	98,1	    0,023187	-130,8
      164,15	    0,438018	99,8	   0,0228473	-128,2
     164,179	    0,439382	96,8	   0,0225604	-126,8
     164,208	    0,439583	101,0	   0,0221476	-128,6
     164,238	    0,440773	100,9	   0,0224943	-125,5
     164,267	    0,442012	98,1	   0,0223391	-127,7
     164,296	    0,443014	99,4	   0,0221987	-130,0
     164,326	    0,443484	99,0	   0,0222571	-129,1
     164,355	    0,444765	102,2	   0,0223576	-130,1
     164,384	     0,44623	98,8	   0,0224857	-126,3
     164,413	    0,447211	101,4	   0,0225005	-126,9
     164,443	    0,447823	98,6	   0,0221511	-128,1
     164,472	    0,448398	98,8	   0,0217102	-129,7
     164,501	    0,449372	102,4	   0,0221927	-126,5
     164,531	     0,45039	99,4	   0,0220709	-129,1
      164,56	    0,451695	101,0	   0,0217816	-129,9
     164,589	    0,452348	101,0	   0,0215902	-123,0
     164,619	    0,453457	102,1	   0,0215625	-128,2
     164,648	    0,454803	99,5	   0,0212065	-125,3
     164,677	    0,455536	100,5	   0,0210396	-130,2
     164,707	    0,456901	100,7	   0,0212639	-127,1
     164,736	    0,457865	100,3	    0,020684	-126,0
     164,765	     0,45788	106,3	   0,0208705	-127,2
     164,795	    0,458807	99,6	   0,0210335	-125,7
     164,824	    0,460242	100,2	   0,0209007	-130,0
     164,853	    0,460459	100,0	   0,0210746	-127,4
     164,883	    0,461854	103,5	   0,0205482	-124,3
     164,912	    0,462863	101,2	   0,0203057	-132,4
     164,941	    0,463989	103,4	   0,0203274	-128,8
     164,971	    0,465139	102,0	   0,0199347	-129,7
         165	    0,465791	103,6	   0,0200312	-124,2
     165,029	    0,466369	105,7	   0,0198347	-121,6
     165,059	    0,467207	105,6	   0,0200632	-128,4
     165,088	    0,468972	103,9	   0,0198383	-127,4
     165,117	     0,46896	104,3	   0,0199347	-125,5
     165,147	    0,470411	102,9	    0,019418	-130,7
     165,176	    0,471068	105,0	   0,0193903	-125,9
     165,205	     0,47179	104,6	   0,0194737	-127,0
     165,235	    0,473558	102,0	    0,019418	-129,5
     165,264	    0,473876	106,6	   0,0195138	-125,3
     165,293	    0,474475	105,5	   0,0198657	-128,4
     165,323	    0,475535	102,9	   0,0193852	-127,2
     165,352	    0,476016	103,2	   0,0194987	-125,5
     165,381	     0,47758	103,9	   0,0194744	-127,2
     165,411	    0,478541	102,5	   0,0191858	-128,5
      165,44	     0,47958	103,9	   0,0189789	-129,6
     165,469	    0,480332	103,0	   0,0191773	-124,4
     165,499	    0,480951	105,9	    0,018666	-127,7
     165,528	    0,481774	99,0	    0,018587	-127,3
     165,557	    0,482765	103,8	   0,0189549	-127,3
     165,587	    0,484052	103,8	   0,0188877	-125,2
     165,616	    0,483947	110,2	   0,0189022	-128,2
     165,645	    0,485017	104,5	    0,018999	-129,5
     165,674	      0,4858	105,7	   0,0183565	-125,0
     165,704	    0,487001	102,4	   0,0184685	-127,0
     165,733	    0,488354	107,1	    0,018063	-129,0
     165,762	    0,489741	105,3	   0,0179466	-129,3
     165,792	    0,490106	106,0	   0,0180607	-127,7
     165,821	    0,490779	104,8	   0,0185595	-124,2
      165,85	     0,49163	107,4	   0,0185628	-128,3
      165,88	     0,49306	104,1	   0,0182485	-132,8
     165,909	    0,493807	107,7	   0,0177229	-127,9
     165,938	    0,494499	105,3	   0,0176086	-126,2
     165,968	    0,495615	103,3	   0,0178083	-127,8
     165,997	    0,496289	105,6	   0,0178292	-126,2
     166,026	    0,497491	105,5	   0,0180342	-131,6
     166,056	    0,497944	109,2	   0,0173596	-128,5
     166,085	    0,498933	106,9	   0,0175724	-131,6
     166,114	    0,499721	105,2	   0,0176561	-126,5
     166,144	    0,501133	106,6	   0,0176689	-125,3
     166,173	    0,500895	106,1	    0,016955	-128,8
     166,202	    0,502494	108,3	   0,0171166	-125,7
     166,232	    0,503014	106,6	   0,0174963	-131,3
     166,261	    0,504245	109,1	   0,0175646	-125,3
      166,29	    0,504535	110,0	   0,0172925	-125,8
      166,32	    0,505895	108,3	   0,0166764	-126,0
     166,349	    0,506658	108,6	   0,0171607	-125,3
     166,378	    0,507366	103,6	   0,0170153	-128,4
     166,408	    0,508686	107,7	   0,0163875	-128,0
     166,437	    0,509361	106,9	    0,016804	-129,2
     166,466	    0,510057	110,3	   0,0169923	-127,4
     166,496	    0,510999	106,6	   0,0166421	-131,2
     166,525	    0,511569	112,1	   0,0163138	-126,6
     166,554	    0,512634	111,1	   0,0165684	-126,8
     166,584	    0,513213	108,6	   0,0172163	-127,7
     166,613	     0,51436	105,9	   0,0165561	-128,5
     166,642	    0,515668	107,2	   0,0160238	-124,5
     166,672	     0,51633	107,5	   0,0169197	-126,7
     166,701	    0,517304	109,1	   0,0162088	-129,4
      166,73	    0,517959	106,8	   0,0161759	-128,7
      166,76	    0,518812	108,0	   0,0165206	-129,9
     166,789	    0,519421	106,0	   0,0160995	-128,7
     166,818	    0,520209	108,9	   0,0165173	-126,5
     166,848	     0,52144	108,3	   0,0164322	-129,0
     166,877	    0,521949	107,2	   0,0158821	-129,8
     166,906	    0,523158	108,8	   0,0160971	-128,1
     166,935	    0,524353	108,0	   0,0160922	-130,4
     166,965	    0,524984	107,4	   0,0157711	-126,9
     166,994	    0,526052	108,0	   0,0158224	-127,4
     167,023	    0,527059	109,1	   0,0157988	-127,4
     167,053	      0,5274	107,5	   0,0156025	-130,2
     167,082	    0,528244	108,8	   0,0158407	-127,8
     167,111	    0,529267	111,2	   0,0160651	-126,1
     167,141	    0,529492	111,0	   0,0152243	-127,9
      167,17	     0,53069	111,5	   0,0155332	-124,5
     167,199	    0,531411	109,0	   0,0157425	-123,4
     167,229	    0,532098	109,7	   0,0156912	-122,2
     167,258	    0,533462	109,3	   0,0151043	-130,0
     167,287	    0,534185	111,4	   0,0155373	-128,0
     167,317	     0,53538	107,7	   0,0153419	-128,5
     167,346	    0,536221	110,6	   0,0151494	-130,3
     167,375	    0,536153	114,9	   0,0151887	-129,6
     167,405	    0,537199	112,4	   0,0151919	-128,3
     167,434	    0,538444	112,8	   0,0151317	-130,0
     167,463	    0,538842	112,8	   0,0148388	-129,2
     167,493	    0,539528	115,5	   0,0148565	-129,0
     167,522	    0,541033	110,2	   0,0147951	-122,7
     167,551	    0,541873	109,4	   0,0148024	-127,9
     167,581	     0,54238	108,8	   0,0146214	-126,9
      167,61	    0,543252	108,0	   0,0150044	-123,7
     167,639	    0,543606	112,6	   0,0149319	-129,2
     167,669	     0,54466	110,4	   0,0147205	-124,2
     167,698	    0,545336	111,6	   0,0147381	-132,5
     167,727	    0,546529	110,1	   0,0143294	-131,9
     167,757	    0,546764	114,8	   0,0148598	-130,4
     167,786	    0,547849	113,2	   0,0143805	-128,9
     167,815	    0,548849	111,3	   0,0152505	-127,6
     167,845	    0,550395	109,6	   0,0147102	-124,2
     167,874	     0,55067	110,7	   0,0147991	-128,0
     167,903	    0,552073	111,6	   0,0142327	-127,2
     167,933	    0,552587	115,0	   0,0145822	-126,7
     167,962	    0,553345	112,2	   0,0144702	-130,1
     167,991	    0,554398	112,2	   0,0148331	-122,9
     168,021	      0,5549	114,1	   0,0139591	-128,0
      168,05	    0,556004	111,5	   0,0146014	-126,3
     168,079	    0,556559	113,4	   0,0139825	-129,0
     168,109	    0,556671	114,8	   0,0146944	-129,0
     168,138	      0,5578	116,8	    0,013969	-130,3
     168,167	      0,5595	112,2	   0,0143555	-121,7
     168,196	    0,559624	114,4	   0,0138659	-124,2
     168,226	    0,560582	114,5	   0,0141552	-125,7
     168,255	    0,561705	115,9	   0,0141616	-126,3
     168,284	    0,562525	113,4	   0,0137903	-132,1
     168,314	    0,563309	113,0	    0,014037	-128,0
     168,343	     0,56409	109,9	   0,0136926	-126,1
     168,372	    0,564626	110,5	   0,0137819	-128,2
     168,402	    0,565296	114,8	   0,0135402	-126,5
     168,431	    0,565962	112,4	   0,0139176	-125,7
      168,46	     0,56727	116,2	   0,0137558	-124,4
      168,49	    0,567617	116,7	    0,013796	-126,4
     168,519	    0,568321	118,6	   0,0137835	-128,9
     168,548	     0,56935	116,3	   0,0139037	-127,3
     168,578	    0,570064	111,4	   0,0133914	-126,2
     168,607	    0,571174	117,9	   0,0135208	-122,0
     168,636	    0,572131	115,6	   0,0135515	-127,0
     168,666	    0,572472	116,1	   0,0133003	-123,8
     168,695	    0,572698	119,9	   0,0138399	-124,1
     168,724	    0,574345	116,6	   0,0132186	-129,3
     168,754	    0,575568	114,1	   0,0133679	-132,0
     168,783	    0,576735	112,1	   0,0132267	-126,4
     168,812	    0,577149	114,1	   0,0133986	-125,9
     168,842	    0,577443	115,9	   0,0134773	-129,0
     168,871	    0,577876	121,4	   0,0128754	-127,5
       168,9	    0,578961	118,8	   0,0130152	-128,3
      168,93	    0,580161	114,6	   0,0133216	-127,7
     168,959	    0,581014	115,5	   0,0133234	-122,7
     168,988	    0,581043	121,6	   0,0131411	-124,3
     169,018	    0,582313	120,3	   0,0129937	-129,0
     169,047	    0,582946	118,0	   0,0130998	-127,7
     169,076	    0,583915	118,7	   0,0130972	-123,0
     169,106	    0,584789	115,7	   0,0133451	-123,6
     169,135	    0,585329	115,4	   0,0128194	-126,5
     169,164	    0,586039	118,7	   0,0128558	-127,2
     169,194	    0,587279	115,3	   0,0131155	-129,3
     169,223	    0,588185	118,1	   0,0128484	-128,8
     169,252	    0,589024	120,1	   0,0127335	-123,6
     169,282	    0,590051	118,6	   0,0129326	-130,2
     169,311	    0,590461	120,6	   0,0127436	-126,3
      169,34	    0,591022	119,1	   0,0125181	-128,3
      169,37	    0,591808	123,1	   0,0124574	-126,3
     169,399	    0,592751	117,9	   0,0125633	-129,9
     169,428	    0,592985	120,1	   0,0127023	-130,5
     169,457	    0,594071	118,4	    0,012825	-124,0
     169,487	    0,594709	119,1	   0,0121419	-128,3
     169,516	    0,595443	123,5	   0,0125843	-129,1
     169,545	     0,59647	121,5	   0,0126133	-125,3
     169,575	    0,597546	121,4	   0,0125066	-130,1
     169,604	    0,598314	117,9	   0,0125525	-123,2
     169,633	    0,598756	123,5	   0,0125374	-128,0
     169,663	    0,600106	120,6	   0,0124086	-126,7
     169,692	    0,601114	119,8	   0,0123364	-132,2
     169,721	    0,601682	122,6	   0,0125821	-127,3
     169,751	    0,602554	120,6	   0,0120976	-132,1
      169,78	    0,603515	121,0	   0,0121477	-126,3
     169,809	    0,603868	118,5	   0,0123859	-125,9
     169,839	    0,605175	121,9	   0,0122329	-120,3
     169,868	    0,606194	122,4	   0,0122068	-129,6
     169,897	    0,606958	119,4	   0,0118617	-127,4
     169,927	    0,607033	119,3	   0,0120092	-131,3
     169,956	    0,607724	125,7	   0,0122986	-125,4
     169,985	      0,6087	124,7	   0,0122673	-131,1
     170,015	    0,609389	124,2	   0,0119248	-124,7
     170,044	    0,610221	122,1	   0,0119867	-130,6
     170,073	    0,610906	124,6	   0,0119908	-124,6
     170,103	    0,611718	122,2	   0,0121192	-129,8
     170,132	      0,6127	122,5	   0,0120603	-123,2
     170,161	    0,613862	125,9	   0,0123324	-127,1
     170,191	    0,614107	124,2	   0,0122993	-125,6
      170,22	    0,615126	125,2	   0,0120841	-128,1
     170,249	    0,616161	118,6	   0,0117552	-125,0
     170,279	    0,617018	125,7	   0,0118952	-131,8
     170,308	    0,617345	124,8	   0,0119615	-129,7
     170,337	    0,618324	123,3	    0,011755	-125,8
     170,367	    0,619059	123,1	   0,0116393	-128,3
     170,396	    0,619993	126,5	   0,0115735	-126,1
     170,425	    0,620448	125,5	   0,0117668	-127,7
     170,455	    0,621058	124,7	   0,0115961	-130,7
     170,484	    0,622248	127,0	   0,0112434	-127,3
     170,513	    0,623271	126,5	   0,0115393	-128,6
     170,543	    0,623882	125,1	   0,0116691	-125,4
     170,572	    0,624532	125,8	   0,0120295	-128,0
     170,601	    0,624971	128,1	   0,0120919	-129,5
      170,63	    0,625569	132,1	   0,0119305	-124,5
      170,66	    0,626433	128,4	   0,0119361	-127,7
     170,689	     0,62736	127,0	   0,0116047	-125,6
     170,718	    0,628725	127,7	   0,0113831	-121,9
     170,748	    0,629568	125,7	   0,0112283	-130,8
     170,777	    0,630043	127,9	   0,0111371	-130,7
     170,806	    0,631293	126,4	   0,0110533	-126,8
     170,836	     0,63216	127,2	   0,0111647	-130,6
     170,865	    0,632186	133,2	    0,011202	-125,7
     170,894	    0,632879	129,6	   0,0110764	-130,2
     170,924	    0,633752	128,9	   0,0111801	-134,1
     170,953	    0,634617	129,6	   0,0111912	-126,6
     170,982	    0,635685	131,9	   0,0114265	-124,2
     171,012	    0,637138	127,8	   0,0113389	-125,0
     171,041	    0,637528	130,7	   0,0112177	-125,3
      171,07	    0,637726	129,6	   0,0111807	-122,1
       171,1	    0,638488	133,4	   0,0111696	-128,4
     171,129	    0,639355	133,8	   0,0111823	-129,8
     171,158	    0,639689	130,2	   0,0109296	-123,1
     171,188	    0,640795	135,0	   0,0108798	-131,3
     171,217	    0,641407	131,6	   0,0112545	-124,6
     171,246	     0,64275	131,1	   0,0113699	-125,4
     171,276	    0,643361	137,0	   0,0112319	-124,3
     171,305	    0,643926	134,1	   0,0111214	-129,0
     171,334	    0,644439	136,7	   0,0107873	-130,9
     171,364	    0,645536	133,8	   0,0111047	-130,3
     171,393	    0,646071	134,1	   0,0107873	-124,6
     171,422	    0,647222	134,1	   0,0111739	-122,5
     171,452	    0,648122	134,8	   0,0109866	-128,2
     171,481	    0,648537	131,3	   0,0108959	-128,6
      171,51	     0,64924	134,7	    0,010843	-126,8
      171,54	    0,650469	140,7	   0,0105569	-128,0
     171,569	    0,650867	135,9	   0,0106141	-131,0
     171,598	    0,651987	135,8	   0,0106364	-128,2
     171,628	    0,652248	135,8	   0,0109053	-126,4
     171,657	    0,653617	139,1	   0,0108714	-125,2
     171,686	     0,65404	137,3	   0,0105661	-128,9
     171,716	     0,65472	136,9	   0,0109057	-129,4
     171,745	    0,655111	136,3	   0,0108132	-128,3
     171,774	    0,656192	137,1	   0,0105579	-131,2
     171,804	    0,656924	142,7	   0,0105357	-124,5
     171,833	    0,657424	138,7	   0,0106711	-125,7
     171,862	    0,657987	141,0	   0,0108131	-124,1
     171,891	    0,658654	144,3	   0,0107066	-127,7
     171,921	    0,659053	148,8	   0,0104907	-129,5
      171,95	    0,659435	148,9	   0,0105117	-129,9
     171,979	    0,659146	152,1	   0,0104424	-133,3
     172,009	    0,659027	160,4	   0,0104879	-128,3
     172,038	    0,658111	171,7	    0,010842	-124,8
     172,067	    0,653998	190,4	   0,0104249	-127,5
     172,097	  0,00996173	-132,8	    0,010566	-129,4
     172,126	   0,0101517	-127,3	   0,0104339	-121,9
     172,155	   0,0105402	-122,5	   0,0101886	-126,5
     172,185	   0,0104376	-124,5	   0,0107136	-124,1
     172,214	   0,0103138	-127,5	   0,0109074	-130,3
     172,243	   0,0104051	-124,5	   0,0105243	-129,1
     172,273	   0,0102248	-126,8	   0,0100367	-128,1
     172,302	   0,0105535	-124,0	   0,0103682	-125,5
     172,331	   0,0105068	-127,7	   0,0106343	-122,7
     172,361	   0,0100586	-130,6	   0,0103246	-128,0
      172,39	   0,0104019	-125,4	   0,0104173	-125,3
     172,419	   0,0102308	-130,3	   0,0102861	-123,1
     172,449	   0,0104626	-127,5	   0,0101218	-127,7
     172,478	   0,0105775	-123,2	   0,0104438	-129,5
     172,507	    0,010061	-128,4	   0,0102421	-119,7
     172,537	   0,0100914	-130,5	   0,0102234	-129,1
     172,566	   0,0102717	-130,4	    0,010015	-127,7
     172,595	   0,0105051	-129,0	  0,00986695	-121,7
     172,625	   0,0102009	-126,3	   0,0102149	-127,5
     172,654	   0,0101709	-131,3	  0,00999296	-127,8
     172,683	   0,0103425	-126,1	   0,0103014	-125,9
     172,713	   0,0101109	-129,5	   0,0100571	-129,1
     172,742	   0,0099517	-129,3	   0,0103999	-127,2
     172,771	   0,0097408	-130,3	  0,00983248	-131,5
     172,801	   0,0100512	-129,5	   0,0102571	-127,0
      172,83	  0,00992164	-128,6	  0,00971601	-131,0
     172,859	   0,0100423	-130,6	   0,0099095	-128,8
     172,889	   0,0101684	-127,1	   0,0104947	-124,8
     172,918	   0,0101046	-130,3	  0,00984266	-131,7
     172,947	   0,0100573	-122,7	    0,010174	-129,5
     172,977	  0,00996623	-125,9	  0,00959047	-129,8
     173,006	  0,00983073	-123,4	  0,00997955	-123,5
     173,035	  0,00976932	-125,6	   0,0100878	-128,3
     173,065	   0,0099323	-126,1	  0,00984349	-125,1
     173,094	  0,00976653	-122,9	    0,010172	-128,0
     173,123	  0,00949734	-127,4	  0,00989141	-126,9
     173,152	   0,0101045	-124,2	  0,00987211	-125,2
     173,182	  0,00960799	-124,5	   0,0097341	-125,3
     173,211	  0,00980778	-123,3	  0,00964481	-124,0
      173,24	  0,00976202	-124,1	  0,00983003	-124,6
      173,27	  0,00988313	-128,9	  0,00956822	-125,9
     173,299	  0,00988667	-132,1	  0,00988648	-128,9
     173,328	  0,00983748	-127,7	   0,0100251	-131,7
     173,358	   0,0096866	-127,4	  0,00982816	-129,0
     173,387	  0,00962302	-126,7	  0,00989325	-124,5
     173,416	  0,00981142	-125,9	  0,00964283	-125,1
     173,446	  0,00978052	-126,6	  0,00956838	-125,2
     173,475	   0,0100991	-128,6	  0,00970674	-125,5
     173,504	  0,00978757	-130,1	  0,00965572	-124,7
     173,534	  0,00995101	-128,1	   0,0100512	-122,8
     173,563	   0,0098113	-130,9	    0,009678	-127,7
     173,592	  0,00949148	-125,9	   0,0096501	-125,7
     173,622	  0,00954922	-128,8	  0,00989436	-126,5
     173,651	  0,00952223	-131,6	   0,0094846	-128,2
      173,68	  0,00981115	-121,9	  0,00928232	-122,4
      173,71	  0,00964081	-125,9	  0,00960783	-124,3
     173,739	  0,00982105	-124,4	  0,00946475	-122,9
     173,768	  0,00962203	-123,8	  0,00972207	-126,1
     173,798	  0,00961822	-125,5	  0,00945659	-130,9
     173,827	  0,00951644	-129,2	  0,00980497	-129,8
     173,856	  0,00948336	-126,4	  0,00949319	-129,6
     173,886	  0,00963294	-128,7	  0,00955661	-124,8
     173,915	   0,0092077	-122,7	  0,00949677	-131,1
     173,944	  0,00921664	-128,9	  0,00950134	-127,2
     173,974	  0,00897886	-127,3	  0,00968289	-128,7
     174,003	  0,00963404	-127,1	  0,00964472	-126,2
     174,032	  0,00950002	-130,6	    0,009665	-128,1
     174,062	  0,00974402	-124,1	  0,00947649	-127,7
     174,091	  0,00963181	-127,9	  0,00944331	-127,1
      174,12	  0,00922328	-129,1	  0,00941477	-126,2
      174,15	  0,00955748	-126,2	  0,00952898	-124,6
     174,179	  0,00917051	-125,9	  0,00921777	-129,8
     174,208	  0,00924899	-131,0	  0,00961726	-128,0
     174,238	   0,0093259	-126,9	  0,00928464	-127,4
     174,267	  0,00947647	-127,5	  0,00944609	-121,9
     174,296	  0,00946266	-128,7	   0,0092672	-126,0
     174,326	  0,00940709	-126,4	  0,00942796	-131,4
     174,355	   0,0092208	-127,6	  0,00923911	-128,2
     174,384	  0,00937447	-124,4	  0,00913492	-124,2
     174,413	   0,0092223	-132,8	  0,00931245	-123,7
     174,443	  0,00930142	-125,3	  0,00946799	-127,6
     174,472	  0,00901021	-128,9	  0,00936849	-128,6
     174,501	  0,00923317	-124,1	  0,00958839	-126,8
     174,531	  0,00932213	-127,5	   0,0090918	-126,0
      174,56	  0,00897696	-130,1	  0,00903371	-120,0
     174,589	  0,00942516	-127,6	  0,00934218	-124,3
     174,619	  0,00889722	-128,0	  0,00914005	-127,6
     174,648	  0,00894895	-125,4	  0,00885982	-125,1
     174,677	  0,00930925	-124,8	  0,00922842	-124,9
     174,707	  0,00930153	-129,8	  0,00923439	-134,6
     174,736	  0,00887586	-125,5	  0,00919861	-123,0
     174,765	  0,00916482	-130,4	  0,00908558	-127,2
     174,795	  0,00910981	-123,3	   0,0090744	-126,0
     174,824	  0,00893218	-122,8	   0,0090077	-130,1
     174,853	  0,00908349	-127,6	   0,0088672	-127,1
     174,883	  0,00921938	-128,2	  0,00878218	-124,2
     174,912	  0,00898005	-127,5	  0,00902294	-131,1
     174,941	  0,00895298	-121,7	   0,0092374	-125,8
     174,971	  0,00888812	-126,6	  0,00897264	-122,4
         175	  0,00900914	-122,5	  0,00895829	-132,9

