X-Data [Hz]	Laser (M - Filtered) [m/s]	Phase [Deg]	Laser (M - Filtered) [m/s]	Phase [Deg]	
	002: [07-10-24 13:20]		003: [07-10-24 13:23]	
          41	    0,063795	77,1	   0,0739313	76,1
      41,002	   0,0665554	77,0	   0,0739857	76,2
     41,0039	   0,0689043	77,5	   0,0740366	76,1
     41,0059	    0,071012	76,8	   0,0740298	76,0
     41,0078	   0,0723735	76,0	   0,0740935	75,8
     41,0098	   0,0724801	75,8	   0,0743799	76,3
     41,0117	    0,073084	76,2	    0,074505	76,0
     41,0137	   0,0734698	76,1	   0,0745347	76,2
     41,0156	   0,0737719	75,9	   0,0745032	76,0
     41,0176	    0,073872	76,3	   0,0747088	76,4
     41,0196	   0,0740548	75,8	    0,074762	76,0
     41,0215	   0,0741568	76,0	   0,0749383	76,0
     41,0235	   0,0743986	76,2	   0,0750371	76,2
     41,0254	   0,0745061	76,3	   0,0750675	76,5
     41,0274	   0,0745203	76,2	   0,0752254	76,1
     41,0293	   0,0746744	76,0	   0,0754137	76,1
     41,0313	   0,0748454	76,2	    0,075468	76,3
     41,0332	    0,074928	76,4	   0,0755767	76,4
     41,0352	   0,0751234	75,9	    0,075689	76,1
     41,0371	   0,0751553	76,2	    0,075701	76,4
     41,0391	   0,0751918	76,1	   0,0758101	76,3
     41,0411	   0,0752558	76,5	   0,0760182	76,6
      41,043	    0,075417	76,4	   0,0761667	76,2
      41,045	   0,0755546	76,5	   0,0763037	76,5
     41,0469	   0,0756375	76,4	   0,0762953	76,4
     41,0489	   0,0757883	76,8	   0,0763418	76,6
     41,0508	   0,0759396	76,3	   0,0766029	76,1
     41,0528	   0,0760322	76,4	   0,0767332	76,5
     41,0547	   0,0758993	76,3	   0,0767582	76,6
     41,0567	   0,0760586	76,6	   0,0768989	76,6
     41,0587	    0,076352	76,6	   0,0769988	76,4
     41,0606	    0,076523	76,8	   0,0770864	76,7
     41,0626	   0,0765817	76,6	   0,0772683	76,5
     41,0645	   0,0765856	76,7	   0,0773214	76,7
     41,0665	   0,0767919	76,6	   0,0774736	76,6
     41,0684	   0,0769418	76,9	   0,0775798	77,0
     41,0704	   0,0769572	76,8	    0,077718	76,6
     41,0723	   0,0770733	76,5	   0,0777828	76,7
     41,0743	   0,0771653	76,6	   0,0778746	76,6
     41,0762	    0,077405	77,0	   0,0780213	76,9
     41,0782	   0,0774358	76,9	   0,0781538	76,7
     41,0802	   0,0776254	76,8	   0,0781354	76,8
     41,0821	   0,0776761	76,7	   0,0783247	76,7
     41,0841	   0,0777824	76,9	   0,0785192	77,0
      41,086	   0,0778131	76,7	   0,0786753	76,8
      41,088	   0,0779991	77,0	   0,0787774	76,9
     41,0899	   0,0781226	76,9	   0,0788648	76,8
     41,0919	   0,0782671	77,1	   0,0789129	77,1
     41,0938	   0,0783639	76,8	    0,079013	76,9
     41,0958	    0,078475	77,0	   0,0792008	76,8
     41,0978	   0,0785239	77,1	   0,0794411	76,9
     41,0997	   0,0786995	77,0	   0,0795418	77,1
     41,1017	   0,0788362	76,8	   0,0796549	76,9
     41,1036	   0,0789048	76,7	   0,0798309	76,8
     41,1056	    0,079046	77,1	   0,0799691	77,2
     41,1075	   0,0791257	77,2	   0,0800763	77,3
     41,1095	   0,0793345	77,0	   0,0801313	77,0
     41,1114	   0,0793938	76,7	   0,0801926	77,1
     41,1134	   0,0795738	77,2	   0,0804198	77,3
     41,1153	   0,0797049	77,1	   0,0806056	77,3
     41,1173	   0,0798388	76,9	    0,080675	77,6
     41,1193	   0,0798775	77,0	   0,0808298	77,2
     41,1212	   0,0799769	77,1	   0,0810466	77,4
     41,1232	   0,0801554	77,3	   0,0812378	77,2
     41,1251	   0,0803613	77,2	   0,0812649	77,3
     41,1271	   0,0804776	77,2	   0,0814088	77,3
      41,129	    0,080653	77,3	   0,0814147	77,6
      41,131	   0,0806508	77,3	   0,0816029	77,5
     41,1329	   0,0807337	77,2	   0,0817484	77,6
     41,1349	   0,0808317	77,2	   0,0818859	77,2
     41,1369	   0,0810365	77,7	   0,0819426	77,6
     41,1388	   0,0811964	77,4	   0,0821897	77,5
     41,1408	   0,0813012	77,5	   0,0822919	77,8
     41,1427	   0,0814251	77,3	   0,0824496	77,3
     41,1447	   0,0815601	77,8	   0,0825639	77,7
     41,1466	   0,0817033	77,4	   0,0827143	77,7
     41,1486	   0,0819035	77,4	   0,0828221	77,9
     41,1505	   0,0818979	77,4	   0,0829963	77,8
     41,1525	    0,082058	77,8	   0,0831763	77,9
     41,1544	   0,0821084	77,6	   0,0833515	78,0
     41,1564	   0,0823137	77,8	   0,0834077	77,9
     41,1584	   0,0824956	77,6	   0,0835364	78,0
     41,1603	    0,082648	77,9	   0,0836377	77,9
     41,1623	   0,0827419	77,4	   0,0837677	78,2
     41,1642	   0,0828705	77,7	   0,0839016	78,2
     41,1662	    0,083023	77,8	   0,0841751	77,8
     41,1681	   0,0831504	78,0	   0,0843703	78,2
     41,1701	   0,0832802	77,8	     0,08447	78,2
      41,172	   0,0834465	77,9	   0,0846607	78,1
      41,174	   0,0836539	77,9	   0,0846345	78,1
      41,176	   0,0836546	78,1	   0,0849012	78,3
     41,1779	   0,0838157	77,8	   0,0851171	78,5
     41,1799	   0,0840736	78,0	   0,0851831	78,2
     41,1818	   0,0842809	78,0	   0,0854464	78,3
     41,1838	   0,0843595	78,3	   0,0854652	78,0
     41,1857	   0,0845059	78,3	   0,0855952	78,6
     41,1877	   0,0844867	77,8	   0,0856629	78,4
     41,1896	   0,0846265	78,2	    0,085991	78,3
     41,1916	   0,0849801	78,3	   0,0860777	78,2
     41,1936	   0,0851227	78,5	   0,0863032	78,6
     41,1955	   0,0852157	78,0	   0,0864314	78,6
     41,1975	   0,0853044	78,2	   0,0865912	78,6
     41,1994	   0,0853984	78,4	   0,0866878	78,4
     41,2014	   0,0856188	78,5	    0,086817	78,5
     41,2033	   0,0857293	78,2	   0,0870157	78,7
     41,2053	   0,0860233	78,4	   0,0872718	78,6
     41,2072	   0,0862056	78,4	   0,0873616	78,5
     41,2092	   0,0862845	78,6	   0,0875383	78,5
     41,2111	   0,0863982	78,1	   0,0877183	78,8
     41,2131	    0,086463	78,2	   0,0878999	78,7
     41,2151	   0,0867757	78,6	   0,0881119	78,6
      41,217	    0,086799	78,8	   0,0882097	78,5
      41,219	   0,0870365	78,3	   0,0884238	79,1
     41,2209	   0,0871767	78,6	   0,0886221	78,9
     41,2229	   0,0872979	78,7	   0,0887395	78,8
     41,2248	   0,0874082	78,9	   0,0888648	78,8
     41,2268	    0,087617	79,2	   0,0891911	79,2
     41,2287	    0,087856	78,8	   0,0893186	79,0
     41,2307	   0,0879552	78,8	   0,0893487	79,1
     41,2327	   0,0881485	78,9	   0,0894563	79,0
     41,2346	   0,0882739	79,2	   0,0899028	79,3
     41,2366	   0,0884508	78,7	   0,0899998	79,3
     41,2385	   0,0886998	79,1	   0,0901878	79,3
     41,2405	     0,08887	79,3	   0,0903644	79,2
     41,2424	   0,0888406	79,2	   0,0904381	79,4
     41,2444	     0,08903	78,8	    0,090638	79,5
     41,2463	   0,0892955	79,2	   0,0909489	79,4
     41,2483	   0,0894399	79,1	   0,0911641	79,3
     41,2502	   0,0896835	79,3	    0,091309	79,1
     41,2522	   0,0897383	78,9	   0,0914549	79,7
     41,2542	   0,0900502	79,1	   0,0916265	79,6
     41,2561	    0,090317	79,3	   0,0918234	79,5
     41,2581	   0,0904846	79,5	   0,0919747	79,2
       41,26	   0,0904795	79,6	   0,0920464	79,6
      41,262	   0,0905872	79,3	   0,0924647	79,6
     41,2639	   0,0909044	79,4	   0,0925919	80,0
     41,2659	    0,091175	79,6	   0,0927848	79,8
     41,2678	    0,091339	79,7	   0,0930211	79,9
     41,2698	   0,0915204	79,2	   0,0932279	79,9
     41,2718	   0,0915684	79,3	   0,0934681	80,3
     41,2737	    0,091748	79,6	   0,0936805	80,4
     41,2757	   0,0919933	79,6	   0,0937816	79,8
     41,2776	   0,0922398	79,6	   0,0938281	80,1
     41,2796	   0,0924384	79,6	   0,0941131	80,0
     41,2815	   0,0926707	79,8	   0,0943399	80,2
     41,2835	   0,0927713	79,7	   0,0945248	80,3
     41,2854	     0,09278	79,7	   0,0948203	79,9
     41,2874	   0,0930339	79,7	   0,0949973	80,4
     41,2893	   0,0932284	80,0	   0,0950261	80,4
     41,2913	   0,0935808	79,9	   0,0953258	80,4
     41,2933	   0,0935334	80,2	   0,0956215	80,5
     41,2952	   0,0937646	79,9	   0,0960108	80,6
     41,2972	   0,0942447	80,3	   0,0961749	80,6
     41,2991	   0,0944203	80,1	   0,0963101	81,0
     41,3011	   0,0944887	80,6	    0,096492	80,9
      41,303	    0,094716	80,3	   0,0969408	80,8
      41,305	   0,0950798	80,3	   0,0969749	80,6
     41,3069	   0,0953452	80,4	   0,0972105	81,4
     41,3089	   0,0952099	80,3	   0,0975474	81,2
     41,3109	     0,09536	80,4	   0,0977032	81,4
     41,3128	    0,095647	80,3	    0,097904	81,1
     41,3148	   0,0958339	81,0	   0,0979967	81,0
     41,3167	   0,0959789	80,9	   0,0981917	81,5
     41,3187	   0,0964168	81,0	   0,0983584	81,3
     41,3206	   0,0966141	81,0	   0,0986801	81,5
     41,3226	   0,0968725	80,7	   0,0989522	81,3
     41,3245	   0,0971789	81,0	   0,0994704	82,1
     41,3265	   0,0973426	81,2	   0,0998041	81,8
     41,3284	   0,0975751	80,6	   0,0998181	82,0
     41,3304	   0,0975908	80,8	    0,100181	81,8
     41,3324	    0,098033	81,5	    0,100407	82,1
     41,3343	   0,0982096	81,4	    0,100767	82,1
     41,3363	   0,0985216	81,6	    0,100912	81,7
     41,3382	    0,098705	81,3	    0,101073	82,1
     41,3402	    0,099123	81,1	    0,101615	82,1
     41,3421	   0,0991005	81,0	    0,101807	82,5
     41,3441	   0,0992787	82,0	    0,102053	81,7
      41,346	   0,0993513	81,5	    0,102354	82,0
      41,348	   0,0997633	81,8	    0,102532	82,1
       41,35	   0,0998473	81,8	    0,103016	82,4
     41,3519	     0,10033	81,5	    0,103274	82,7
     41,3539	    0,100488	82,1	     0,10383	82,1
     41,3558	    0,100455	81,7	    0,104073	82,3
     41,3578	    0,100939	82,0	    0,104304	82,3
     41,3597	    0,101244	81,4	    0,104359	82,8
     41,3617	    0,101695	81,9	    0,105154	82,6
     41,3636	    0,101773	82,4	    0,105471	82,6
     41,3656	    0,101512	82,1	    0,105832	82,4
     41,3675	    0,102057	82,5	    0,106318	82,5
     41,3695	    0,102582	81,8	    0,106521	83,4
     41,3715	    0,102668	82,5	     0,10712	83,0
     41,3734	    0,102931	82,4	    0,107495	83,0
     41,3754	    0,103218	82,0	    0,107818	82,9
     41,3773	    0,103694	82,0	     0,10821	83,7
     41,3793	    0,104179	82,7	    0,108343	83,7
     41,3812	    0,104229	82,4	    0,109002	83,3
     41,3832	    0,104296	82,6	    0,110236	82,7
     41,3851	    0,104557	82,5	    0,113935	82,5
     41,3871	    0,104932	82,3	    0,118692	82,3
     41,3891	    0,105455	83,0	    0,125137	82,3
      41,391	    0,105682	82,8	    0,135613	84,4
      41,393	    0,105714	83,4	    0,145466	86,0
     41,3949	    0,105797	83,1	    0,158602	89,4
     41,3969	    0,106523	82,9	    0,168075	91,9
     41,3988	    0,107022	83,0	    0,179423	96,3
     41,4008	    0,106986	83,7	    0,186827	99,3
     41,4027	    0,107421	83,8	     0,19533	103,2
     41,4047	    0,107785	82,8	    0,200556	106,1
     41,4066	    0,108116	83,3	    0,206769	109,4
     41,4086	    0,108538	83,5	    0,210811	112,2
     41,4106	    0,108669	84,0	    0,216049	114,5
     41,4125	    0,109211	83,4	    0,219231	116,8
     41,4145	    0,109405	83,5	    0,222916	119,2
     41,4164	    0,109849	83,6	    0,224731	121,0
     41,4184	    0,110145	83,9	     0,22696	122,6
     41,4203	    0,110604	83,6	    0,228995	124,4
     41,4223	    0,110694	83,7	    0,230218	125,7
     41,4242	    0,110843	83,8	    0,231742	127,1
     41,4262	    0,111532	83,8	    0,232776	128,3
     41,4282	    0,111775	84,2	    0,233662	130,1
     41,4301	    0,112136	84,1	    0,234731	131,2
     41,4321	    0,112337	84,4	    0,234319	131,9
      41,434	     0,11294	84,1	    0,235979	132,8
      41,436	    0,113318	84,2	    0,236602	134,3
     41,4379	    0,113663	84,9	    0,237211	134,9
     41,4399	    0,114101	84,7	    0,238577	135,9
     41,4418	    0,114544	84,8	    0,238903	136,4
     41,4438	    0,114889	84,6	    0,239026	137,5
     41,4457	     0,11503	85,6	    0,239372	138,0
     41,4477	    0,115308	85,4	     0,23898	138,5
     41,4497	     0,11616	85,1	    0,240497	139,5
     41,4516	    0,116361	85,4	    0,241063	139,9
     41,4536	     0,11681	85,6	    0,240517	140,8
     41,4555	    0,117253	85,6	    0,240004	141,4
     41,4575	    0,117259	85,9	    0,239886	142,0
     41,4594	    0,117679	86,2	    0,241499	142,6
     41,4614	    0,118353	85,4	    0,241368	142,8
     41,4633	    0,119054	85,7	    0,240922	143,1
     41,4653	    0,119221	86,4	    0,240137	143,6
     41,4673	     0,11985	86,5	    0,240607	144,3
     41,4692	    0,120224	86,2	    0,240643	144,4
     41,4712	    0,120362	86,2	    0,241883	145,0
     41,4731	    0,121561	86,9	    0,241851	145,3
     41,4751	    0,121637	86,9	    0,240915	146,0
      41,477	    0,122082	87,4	    0,240799	146,1
      41,479	    0,122148	87,7	    0,240673	146,4
     41,4809	    0,123268	87,0	    0,242017	147,2
     41,4829	    0,123773	87,5	    0,242637	147,4
     41,4848	    0,123643	88,0	    0,241076	148,0
     41,4868	    0,124037	88,1	    0,241307	148,1
     41,4888	    0,125164	87,6	    0,241638	148,5
     41,4907	    0,125122	88,2	    0,240665	148,6
     41,4927	    0,126503	88,2	    0,241419	149,6
     41,4946	    0,127103	88,7	    0,241029	150,2
     41,4966	    0,127333	89,0	    0,239478	150,0
     41,4985	    0,127506	89,1	    0,240024	150,6
     41,5005	    0,128371	89,2	    0,241364	150,6
     41,5024	    0,128926	89,0	    0,240772	151,2
     41,5044	    0,130772	89,3	    0,240311	151,3
     41,5064	    0,130963	89,7	    0,239794	151,9
     41,5083	    0,131108	90,1	    0,239934	152,3
     41,5103	    0,131481	90,5	    0,240489	151,6
     41,5122	    0,132227	90,2	    0,240475	152,0
     41,5142	    0,133095	90,5	    0,240549	152,7
     41,5161	    0,133901	90,8	    0,239916	152,7
     41,5181	    0,134425	91,0	    0,239083	153,2
       41,52	    0,135433	91,2	    0,239261	153,1
      41,522	    0,136401	91,3	    0,239821	153,7
     41,5239	    0,137821	91,4	    0,239732	153,9
     41,5259	    0,138639	91,4	    0,239627	155,0
     41,5279	    0,139719	92,5	    0,238869	155,0
     41,5298	    0,140257	92,7	     0,23897	154,7
     41,5318	     0,14155	92,6	     0,23929	155,0
     41,5337	    0,142438	92,9	    0,238653	155,7
     41,5357	    0,144064	93,2	    0,239302	156,2
     41,5376	    0,144992	93,8	    0,238701	156,3
     41,5396	    0,145891	93,8	      0,2395	156,2
     41,5415	    0,147146	94,8	     0,23904	156,5
     41,5435	    0,148285	94,7	    0,238533	156,6
     41,5455	      0,1498	95,1	     0,23836	156,9
     41,5474	    0,151185	95,6	    0,237549	157,3
     41,5494	    0,152652	96,3	     0,23756	157,2
     41,5513	    0,153158	97,0	    0,238565	157,2
     41,5533	    0,155051	96,9	    0,238511	157,5
     41,5552	    0,156583	97,6	    0,236653	158,2
     41,5572	    0,159149	98,4	    0,237069	158,2
     41,5591	    0,160437	98,8	    0,237381	158,6
     41,5611	    0,162617	100,0	     0,23727	158,7
      41,563	    0,164288	100,5	    0,236804	158,9
      41,565	     0,16729	101,6	    0,236667	159,0
      41,567	    0,169268	102,3	    0,236539	159,5
     41,5689	    0,171937	103,6	    0,236395	159,8
     41,5709	    0,174184	104,9	    0,237134	159,8
     41,5728	    0,177186	106,0	    0,236752	159,9
     41,5748	    0,179676	107,3	    0,236244	159,8
     41,5767	    0,183083	109,2	    0,236215	159,7
     41,5787	    0,185922	110,7	    0,236035	160,6
     41,5806	    0,190087	113,1	     0,23624	160,5
     41,5826	    0,193417	114,9	    0,235832	160,9
     41,5846	    0,198634	117,9	    0,236411	161,1
     41,5865	    0,203122	119,7	    0,235714	161,1
     41,5885	    0,207279	122,3	    0,235227	161,2
     41,5904	     0,21241	126,5	    0,235334	162,1
     41,5924	    0,216283	129,5	    0,235864	161,6
     41,5943	    0,219663	133,5	    0,235551	161,5
     41,5963	    0,223762	137,1	    0,234829	162,0
     41,5982	    0,228291	142,4	    0,234629	162,2
     41,6002	    0,230997	145,8	    0,234159	162,3
     41,6021	    0,233493	149,6	    0,234655	163,1
     41,6041	    0,234338	152,6	    0,233878	163,1
     41,6061	    0,235793	156,5	    0,234643	163,2
      41,608	    0,235894	159,1	    0,233687	163,2
       41,61	    0,237281	160,7	    0,233366	163,0
     41,6119	    0,237166	161,7	    0,233212	163,9
     41,6139	    0,236424	163,0	    0,233034	163,9
     41,6158	    0,235737	163,6	    0,233782	164,0
     41,6178	    0,235553	164,7	    0,233072	164,3
     41,6197	     0,23505	164,6	    0,233077	164,2
     41,6217	    0,234612	164,4	    0,233074	164,5
     41,6237	    0,233834	164,3	    0,233133	164,5
     41,6256	    0,233508	164,2	     0,23292	165,2
     41,6276	    0,233529	164,9	    0,232486	164,8
     41,6295	    0,233666	165,2	     0,23294	165,1
     41,6315	      0,2335	165,5	    0,232812	165,1
     41,6334	    0,233146	165,4	     0,23264	165,2
     41,6354	    0,232718	164,7	     0,23233	165,8
     41,6373	    0,231962	165,5	    0,232541	166,0
     41,6393	    0,231382	166,1	     0,23106	166,4
     41,6413	    0,231322	166,1	    0,231226	166,5
     41,6432	    0,230905	166,3	    0,231435	166,2
     41,6452	    0,231408	166,1	    0,230459	166,3
     41,6471	    0,231143	166,5	    0,232608	166,8
     41,6491	    0,231602	166,3	    0,232427	167,1
      41,651	    0,231262	166,0	    0,232048	167,0
      41,653	    0,230468	167,6	    0,231946	166,9
     41,6549	     0,23022	167,3	    0,231973	167,4
     41,6569	    0,230209	167,5	    0,230514	167,1
     41,6588	    0,230475	167,3	    0,228966	168,1
     41,6608	    0,231138	167,4	    0,229562	168,0
     41,6628	    0,230717	167,6	    0,229856	167,9
     41,6647	    0,230099	167,9	    0,230099	168,4
     41,6667	     0,23008	168,2	    0,228871	167,9
     41,6686	    0,229324	168,0	    0,228914	168,1
     41,6706	    0,229187	168,2	    0,229421	169,0
     41,6725	    0,230891	168,3	    0,228845	168,9
     41,6745	    0,230277	168,2	    0,229634	168,8
     41,6764	    0,228119	169,3	    0,228961	168,7
     41,6784	     0,22832	169,4	    0,228631	168,8
     41,6804	    0,228157	168,9	    0,228494	169,0
     41,6823	    0,227441	169,6	    0,228045	169,0
     41,6843	    0,228952	168,9	    0,228094	170,1
     41,6862	    0,228375	169,0	    0,228726	170,2
     41,6882	    0,228886	169,6	    0,228456	169,7
     41,6901	      0,2268	170,2	    0,227955	170,2
     41,6921	    0,226965	170,5	    0,227548	169,9
      41,694	    0,226479	169,8	    0,227843	170,1
      41,696	    0,226565	170,0	    0,227361	170,6
     41,6979	    0,227207	170,1	    0,226907	170,7
     41,6999	    0,226919	170,3	    0,227123	170,7
     41,7019	    0,225757	171,2	    0,226276	170,6
     41,7038	    0,225828	171,4	    0,225685	171,1
     41,7058	     0,22524	170,9	    0,226048	170,9
     41,7077	    0,225143	171,2	    0,225482	171,7
     41,7097	     0,22463	171,5	    0,224736	172,3
     41,7116	    0,226391	171,5	    0,225314	171,6
     41,7136	    0,225491	171,4	    0,225322	171,7
     41,7155	    0,224136	172,1	     0,22494	171,8
     41,7175	    0,223866	172,4	    0,224751	171,7
     41,7195	    0,223493	171,2	    0,224363	172,4
     41,7214	    0,223567	171,7	    0,224265	172,4
     41,7234	    0,223598	172,1	    0,223896	172,9
     41,7253	    0,224552	172,1	    0,224286	172,8
     41,7273	    0,224229	172,1	    0,224162	172,2
     41,7292	    0,224131	173,1	    0,224165	172,6
     41,7312	    0,222932	173,3	    0,222844	173,0
     41,7331	    0,222342	173,1	    0,222521	173,1
     41,7351	    0,223255	173,1	    0,223764	173,7
      41,737	    0,223401	172,9	    0,222823	173,9
      41,739	    0,223742	173,4	    0,222964	174,0
      41,741	      0,2236	173,7	    0,223829	173,6
     41,7429	    0,223023	174,0	    0,223372	173,6
     41,7449	     0,22197	174,3	     0,22249	174,1
     41,7468	    0,222191	173,8	    0,221648	174,0
     41,7488	    0,220941	173,4	     0,22135	174,6
     41,7507	    0,221706	173,5	    0,222287	175,0
     41,7527	    0,222407	174,8	    0,222245	174,4
     41,7546	    0,221637	174,4	    0,222901	174,9
     41,7566	    0,221496	174,8	    0,220882	174,3
     41,7586	    0,221343	175,3	    0,221438	174,4
     41,7605	    0,220377	174,2	     0,22329	175,5
     41,7625	    0,220126	174,5	    0,222427	175,5
     41,7644	    0,219418	174,8	    0,221508	175,6
     41,7664	    0,219635	175,4	    0,222044	175,5
     41,7683	    0,220502	175,2	    0,220894	175,7
     41,7703	      0,2198	175,9	    0,219605	175,5
     41,7722	    0,218531	175,8	    0,220529	175,7
     41,7742	    0,218184	175,5	    0,220288	176,4
     41,7761	    0,218021	176,0	    0,220859	176,2
     41,7781	    0,220287	175,7	    0,220128	176,2
     41,7801	    0,219448	176,1	    0,220691	176,7
      41,782	    0,218404	176,9	    0,218521	175,9
      41,784	    0,218902	176,6	    0,218919	176,1
     41,7859	    0,218708	176,7	    0,218971	176,8
     41,7879	    0,217759	176,4	    0,219037	176,7
     41,7898	    0,217793	176,3	    0,219697	177,3
     41,7918	     0,21722	176,3	    0,220052	177,3
     41,7937	    0,217731	177,0	    0,219798	177,2
     41,7957	    0,217121	177,2	    0,219828	177,6
     41,7977	    0,216642	177,8	    0,218734	177,8
     41,7996	    0,216827	177,5	    0,217697	177,4
     41,8016	    0,217437	177,6	    0,218568	177,8
     41,8035	    0,214687	177,3	    0,218939	177,7
     41,8055	    0,217068	178,0	    0,218326	178,0
     41,8074	    0,216854	177,6	    0,218417	178,5
     41,8094	    0,216692	178,4	    0,218728	178,5
     41,8113	    0,215491	178,4	    0,217132	178,0
     41,8133	    0,214565	178,1	    0,216963	178,4
     41,8153	    0,214855	178,4	    0,216788	178,4
     41,8172	      0,2145	178,5	     0,21697	178,6
     41,8192	    0,214594	178,1	    0,217041	178,9
     41,8211	    0,214337	178,1	    0,216754	179,2
     41,8231	    0,215138	179,0	    0,216715	179,0
      41,825	    0,214407	178,8	    0,216711	179,1
      41,827	    0,214343	179,4	    0,214703	179,3
     41,8289	    0,214207	179,8	    0,214702	179,2
     41,8309	    0,213715	178,8	    0,215156	179,6
     41,8328	    0,213064	179,4	    0,215566	180,0
     41,8348	    0,212837	179,3	     0,21404	180,1
     41,8368	    0,212757	179,6	    0,215208	180,2
     41,8387	     0,21356	180,3	    0,214566	180,2
     41,8407	    0,212764	180,3	    0,213399	179,4
     41,8426	    0,213461	180,4	    0,213208	179,7
     41,8446	    0,213223	180,8	    0,213571	180,5
     41,8465	    0,212385	179,8	    0,212666	180,2
     41,8485	    0,211242	180,0	    0,212894	181,1
     41,8504	    0,212424	180,3	    0,213092	181,5
     41,8524	    0,212296	180,7	    0,213036	180,7
     41,8544	    0,211998	180,8	    0,213314	180,9
     41,8563	    0,211511	181,1	    0,212736	181,2
     41,8583	    0,210883	181,2	    0,212496	180,8
     41,8602	     0,21148	181,2	    0,211893	180,8
     41,8622	     0,21162	180,9	    0,212373	181,5
     41,8641	     0,21081	181,1	    0,212537	181,5
     41,8661	     0,21103	181,5	    0,212269	182,2
      41,868	    0,210626	181,5	    0,212518	182,0
       41,87	    0,209729	182,0	    0,211623	181,6
     41,8719	    0,209683	181,7	    0,211397	181,7
     41,8739	     0,20872	181,6	    0,211314	181,6
     41,8759	    0,208314	181,9	     0,21076	182,1
     41,8778	    0,208792	181,6	    0,210776	182,5
     41,8798	    0,210364	182,0	    0,210696	182,5
     41,8817	    0,209416	182,3	    0,210803	182,7
     41,8837	    0,209112	182,5	    0,210425	182,4
     41,8856	    0,208294	182,9	    0,210094	182,6
     41,8876	    0,207983	182,9	    0,210039	182,9
     41,8895	    0,206188	182,3	    0,209874	182,5
     41,8915	    0,207226	182,7	    0,209134	183,3
     41,8935	    0,207328	182,8	    0,209032	183,4
     41,8954	    0,207934	183,1	    0,209017	183,4
     41,8974	    0,207808	183,0	    0,208544	183,7
     41,8993	    0,207754	183,4	    0,208759	183,1
     41,9013	    0,207163	183,8	    0,208361	183,5
     41,9032	    0,206437	183,5	    0,207668	183,3
     41,9052	    0,206078	183,3	    0,207588	183,3
     41,9071	    0,204776	183,3	    0,207505	183,4
     41,9091	    0,205117	183,4	     0,20695	184,2
      41,911	    0,206044	183,8	    0,206992	184,3
      41,913	    0,205301	183,8	    0,206759	184,5
      41,915	    0,205902	184,1	    0,206944	184,7
     41,9169	    0,205668	184,3	    0,206634	184,1
     41,9189	     0,20461	184,3	    0,206338	184,1
     41,9208	    0,204388	184,4	     0,20556	184,3
     41,9228	    0,203448	184,1	    0,205968	184,2
     41,9247	    0,203343	184,4	    0,205421	185,1
     41,9267	     0,20404	184,6	    0,205401	185,3
     41,9286	    0,203454	184,7	    0,205423	185,0
     41,9306	    0,204278	185,4	    0,204787	185,4
     41,9326	      0,2042	185,2	    0,205248	184,9
     41,9345	    0,203519	185,6	    0,204544	184,8
     41,9365	    0,202829	185,4	    0,204576	185,2
     41,9384	    0,203116	185,5	    0,203147	185,1
     41,9404	    0,202112	185,3	    0,202953	185,1
     41,9423	    0,201578	185,4	    0,203363	186,2
     41,9443	    0,201764	185,4	    0,203273	186,2
     41,9462	    0,202308	185,6	    0,203189	186,2
     41,9482	    0,202531	186,0	    0,203074	186,6
     41,9501	    0,202655	185,8	    0,202909	185,8
     41,9521	    0,201706	186,7	    0,202992	185,9
     41,9541	    0,201264	186,6	    0,202467	186,0
      41,956	    0,200396	186,2	     0,20155	186,0
      41,958	    0,200945	186,3	    0,201092	186,0
     41,9599	    0,200837	186,1	    0,201193	187,0
     41,9619	    0,200628	186,2	    0,201122	186,8
     41,9638	    0,200546	187,0	    0,200847	187,4
     41,9658	    0,200496	186,8	    0,201035	187,4
     41,9677	    0,199832	187,2	    0,201076	186,7
     41,9697	    0,199741	187,4	    0,201031	186,9
     41,9717	    0,199106	186,7	    0,199791	186,6
     41,9736	     0,19886	187,3	     0,19989	186,8
     41,9756	    0,198845	187,1	    0,199277	187,7
     41,9775	    0,199078	187,2	    0,199539	187,6
     41,9795	    0,199097	187,3	    0,199371	188,1
     41,9814	    0,198761	187,9	    0,199423	188,2
     41,9834	    0,198698	187,7	     0,19916	187,5
     41,9853	     0,19771	188,7	    0,199325	187,7
     41,9873	    0,197707	188,4	    0,198756	187,9
     41,9892	    0,197791	188,4	    0,198465	187,9
     41,9912	    0,197004	188,2	    0,197568	187,9
     41,9932	    0,196313	188,0	    0,197259	188,1
     41,9951	    0,196977	188,0	    0,197309	188,6
     41,9971	    0,197046	188,2	    0,197735	188,8
      41,999	    0,196684	188,6	      0,1978	189,0
      42,001	    0,196759	188,3	    0,197402	188,5
     42,0029	    0,196167	189,3	    0,197464	188,7
     42,0049	    0,195857	189,4	    0,196919	188,7
     42,0068	    0,195221	189,2	    0,196729	188,7
     42,0088	    0,195214	189,3	    0,194237	188,9
     42,0108	    0,194338	188,8	    0,194904	189,3
     42,0127	    0,194893	188,7	    0,194662	189,0
     42,0147	    0,194822	189,4	    0,195108	189,8
     42,0166	    0,194267	189,1	    0,193749	189,8
     42,0186	    0,194102	189,8	    0,194753	189,7
     42,0205	    0,194304	189,6	    0,195203	189,7
     42,0225	    0,193488	189,9	    0,195208	189,5
     42,0244	    0,192911	190,2	    0,195102	189,8
     42,0264	    0,192423	189,8	    0,194336	189,7
     42,0283	    0,192317	189,9	    0,193908	190,0
     42,0303	    0,192689	189,7	    0,193329	190,0
     42,0323	    0,192399	189,9	    0,193498	189,8
     42,0342	    0,192604	190,2	    0,193329	190,4
     42,0362	    0,192508	190,0	     0,19291	190,3
     42,0381	    0,191813	191,0	    0,193004	190,7
     42,0401	    0,191925	190,8	     0,19307	190,6
      42,042	    0,191177	190,9	    0,192616	190,3
      42,044	    0,190733	190,8	    0,192704	190,5
     42,0459	    0,190554	190,6	    0,192062	190,6
     42,0479	    0,190733	190,7	    0,191958	190,7
     42,0499	    0,190471	190,7	    0,191454	191,4
     42,0518	    0,190126	190,7	    0,191498	191,2
     42,0538	    0,190475	191,1	    0,191385	191,4
     42,0557	    0,190277	191,2	    0,191253	191,7
     42,0577	    0,189211	191,9	    0,191175	191,1
     42,0596	    0,188934	191,9	    0,190989	191,5
     42,0616	    0,188649	192,1	    0,190724	191,7
     42,0635	    0,187851	192,3	    0,190523	191,5
     42,0655	    0,188129	191,4	    0,189976	191,6
     42,0674	    0,187992	191,7	    0,189917	191,7
     42,0694	    0,188456	191,5	    0,189298	192,1
     42,0714	    0,188054	191,7	    0,188983	191,8
     42,0733	    0,188148	192,2	    0,189134	192,7
     42,0753	    0,187807	191,9	    0,189031	192,9
     42,0772	    0,187585	191,9	    0,188995	192,4
     42,0792	    0,186704	193,1	     0,18863	192,7
     42,0811	    0,186936	192,7	    0,188587	192,2
     42,0831	    0,186373	192,6	    0,188427	192,1
      42,085	    0,185831	193,4	     0,18775	192,6
      42,087	    0,185715	192,4	    0,187419	192,7
      42,089	    0,185619	192,6	    0,187005	193,1
     42,0909	    0,185415	192,7	    0,186508	193,2
     42,0929	    0,185304	192,7	    0,186633	193,4
     42,0948	    0,185521	192,8	    0,186218	193,6
     42,0968	    0,185367	193,0	    0,186715	193,4
     42,0987	     0,18494	193,3	    0,186421	193,5
     42,1007	    0,184721	193,3	    0,186182	193,7
     42,1026	    0,184058	193,9	     0,18586	193,2
     42,1046	    0,183628	194,1	    0,185775	193,5
     42,1065	    0,183799	193,4	    0,184968	193,0
     42,1085	    0,183634	193,9	    0,185233	193,4
     42,1105	    0,183629	193,2	    0,184824	193,8
     42,1124	    0,183108	193,6	    0,184761	193,6
     42,1144	    0,182825	193,6	    0,184001	194,4
     42,1163	    0,182866	193,5	    0,183932	194,6
     42,1183	      0,1827	193,5	    0,183967	194,3
     42,1202	    0,182197	194,8	     0,18377	194,5
     42,1222	    0,182212	194,5	    0,183812	194,4
     42,1241	    0,181141	194,9	    0,183556	194,3
     42,1261	    0,181255	194,8	    0,183206	194,3
     42,1281	    0,181032	194,7	    0,183057	194,3
       42,13	    0,180777	194,9	    0,182182	194,3
      42,132	    0,180491	194,4	    0,182294	194,3
     42,1339	    0,180677	194,6	    0,182043	195,2
     42,1359	      0,1805	194,4	    0,182079	195,0
     42,1378	    0,180384	194,5	    0,181328	195,4
     42,1398	    0,179766	194,4	    0,181432	195,5
     42,1417	    0,179946	194,9	    0,181268	195,6
     42,1437	    0,179512	194,6	    0,181258	195,3
     42,1456	    0,179196	195,7	    0,180738	195,1
     42,1476	    0,178999	195,5	    0,180553	195,1
     42,1496	    0,178376	195,8	     0,18052	195,2
     42,1515	    0,178146	195,2	    0,180385	195,2
     42,1535	    0,178044	195,3	    0,179841	195,6
     42,1554	    0,178294	195,3	     0,17957	195,4
     42,1574	    0,177771	195,5	    0,179258	196,4
     42,1593	     0,17743	195,6	    0,179149	196,0
     42,1613	    0,177753	195,3	    0,178595	196,2
     42,1632	    0,177404	195,7	    0,178675	196,1
     42,1652	    0,177001	195,9	    0,178031	196,5
     42,1672	    0,176997	195,5	    0,177628	196,4
     42,1691	    0,176244	196,6	    0,177912	196,0
     42,1711	    0,175513	197,2	    0,177602	196,5
      42,173	    0,175388	196,7	    0,177806	196,0
      42,175	    0,175996	196,5	    0,177633	195,8
     42,1769	    0,174797	196,3	    0,177316	196,0
     42,1789	    0,174897	196,7	    0,176837	196,3
     42,1808	    0,175448	196,7	    0,176853	196,2
     42,1828	    0,175065	196,6	    0,176366	197,1
     42,1847	    0,174285	195,8	    0,176374	196,7
     42,1867	     0,17447	196,5	    0,175644	197,5
     42,1887	    0,173813	197,7	    0,176006	197,3
     42,1906	    0,173759	196,8	    0,175676	197,4
     42,1926	    0,173398	197,6	    0,175138	197,3
     42,1945	    0,173368	197,9	    0,174901	196,7
     42,1965	    0,173629	197,3	    0,174739	197,2
     42,1984	    0,173175	197,8	     0,17488	197,6
     42,2004	    0,172927	197,8	     0,17464	197,0
     42,2023	    0,172452	198,0	    0,174408	197,6
     42,2043	    0,172144	198,1	    0,174206	197,5
     42,2063	    0,172098	197,6	    0,173452	197,0
     42,2082	     0,17173	197,8	    0,173512	197,8
     42,2102	    0,172032	197,6	    0,173337	197,7
     42,2121	    0,171727	197,8	    0,172523	198,5
     42,2141	    0,171196	197,7	    0,172748	198,0
      42,216	    0,170964	198,3	    0,172018	198,8
      42,218	    0,170707	197,7	    0,172319	198,6
     42,2199	    0,170117	198,5	    0,171835	198,1
     42,2219	    0,170114	198,5	    0,171478	199,1
     42,2239	    0,169744	198,5	    0,171506	198,1
     42,2258	    0,169598	198,9	    0,171003	198,7
     42,2278	    0,169829	198,5	    0,171151	198,2
     42,2297	    0,169693	198,6	    0,171247	198,4
     42,2317	    0,169179	198,6	    0,170975	198,5
     42,2336	     0,16929	198,7	    0,170942	198,5
     42,2356	    0,169088	198,8	     0,17051	199,0
     42,2375	    0,168959	198,7	     0,17027	198,9
     42,2395	    0,168692	199,0	    0,169975	199,3
     42,2414	    0,168187	198,7	    0,169975	199,1
     42,2434	    0,167722	198,3	    0,169165	199,3
     42,2454	    0,167512	199,4	    0,169185	199,3
     42,2473	    0,167477	199,1	    0,168663	199,5
     42,2493	    0,166684	199,8	    0,168674	199,9
     42,2512	    0,166628	199,3	    0,168599	199,1
     42,2532	     0,16629	199,9	    0,167945	199,2
     42,2551	    0,165891	-159,9	     0,16816	199,1
     42,2571	    0,165925	-160,0	    0,167866	199,2
      42,259	    0,165781	-159,8	    0,167364	199,1
      42,261	    0,165542	-159,8	    0,167311	199,5
      42,263	    0,165487	-160,4	    0,167692	199,8
     42,2649	    0,165348	-160,1	    0,167348	199,9
     42,2669	    0,164812	-160,5	    0,166679	-159,6
     42,2688	    0,165203	-160,2	    0,166628	-159,7
     42,2708	    0,164643	-160,3	    0,166651	-160,0
     42,2727	     0,16445	-160,2	    0,166122	-159,4
     42,2747	    0,163997	-160,1	    0,165588	-159,3
     42,2766	    0,163793	-160,3	    0,165072	-159,8
     42,2786	     0,16364	-160,1	    0,165311	-159,5
     42,2805	    0,162979	-159,4	    0,164823	-159,4
     42,2825	    0,163031	-159,8	    0,164634	-159,2
     42,2845	    0,162774	-158,7	    0,164788	-159,7
     42,2864	    0,162463	-159,0	     0,16419	-159,4
     42,2884	    0,162612	-159,2	    0,164187	-159,6
     42,2903	    0,162073	-159,1	    0,163963	-159,4
     42,2923	    0,162014	-159,2	    0,163997	-159,5
     42,2942	    0,162018	-158,6	    0,163636	-159,3
     42,2962	    0,161556	-159,7	    0,163501	-159,0
     42,2981	    0,161816	-159,0	    0,163146	-159,0
     42,3001	    0,161231	-159,5	    0,162829	-158,5
     42,3021	    0,161024	-159,5	    0,162994	-158,5
      42,304	    0,160771	-158,9	    0,162426	-158,3
      42,306	    0,159904	-159,1	    0,162344	-158,6
     42,3079	    0,160627	-158,6	    0,161767	-157,7
     42,3099	    0,159906	-158,8	    0,161932	-158,2
     42,3118	    0,159494	-157,5	      0,1615	-158,2
     42,3138	    0,159091	-157,4	    0,161392	-157,9
     42,3157	    0,158923	-157,5	    0,160772	-157,9
     42,3177	    0,158879	-157,7	    0,160843	-157,7
     42,3196	    0,158843	-157,5	    0,160129	-158,5
     42,3216	    0,158463	-157,5	    0,160055	-157,4
     42,3236	    0,158376	-157,3	    0,160321	-158,4
     42,3255	    0,158229	-157,4	    0,159826	-158,3
     42,3275	    0,157992	-157,5	    0,159863	-158,0
     42,3294	    0,158105	-157,8	    0,159595	-158,0
     42,3314	    0,157748	-157,6	    0,159402	-157,8
     42,3333	    0,157861	-157,5	     0,15894	-158,3
     42,3353	     0,15756	-157,4	    0,159029	-157,3
     42,3372	    0,157015	-158,0	    0,159189	-157,5
     42,3392	     0,15717	-157,4	    0,158504	-157,0
     42,3412	    0,156531	-157,6	    0,158686	-157,1
     42,3431	    0,156229	-157,7	    0,158272	-157,6
     42,3451	    0,156198	-157,7	    0,157789	-157,0
      42,347	    0,155455	-157,4	    0,157676	-157,0
      42,349	    0,155353	-156,6	    0,157375	-156,4
     42,3509	    0,154793	-157,0	    0,157225	-156,4
     42,3529	    0,154944	-156,0	    0,156706	-156,9
     42,3548	    0,154422	-156,1	    0,156538	-156,5
     42,3568	    0,154114	-155,9	    0,156373	-156,7
     42,3587	    0,154143	-155,8	    0,156259	-156,5
     42,3607	    0,153889	-155,9	    0,155975	-156,7
     42,3627	    0,153933	-156,0	    0,155578	-156,6
     42,3646	    0,153602	-155,7	    0,155419	-157,0
     42,3666	    0,153669	-156,0	    0,155491	-156,9
     42,3685	     0,15326	-155,9	    0,155051	-156,8
     42,3705	    0,153269	-156,9	    0,154792	-156,4
     42,3724	    0,152664	-156,4	    0,154744	-156,5
     42,3744	    0,152535	-156,7	    0,154666	-156,2
     42,3763	    0,152411	-156,5	    0,154379	-156,3
     42,3783	     0,15235	-156,6	    0,154336	-156,1
     42,3803	    0,152293	-156,4	     0,15384	-156,2
     42,3822	     0,15193	-156,0	    0,153658	-156,5
     42,3842	     0,15152	-156,1	    0,153534	-155,4
     42,3861	    0,151084	-155,7	    0,153099	-155,3
     42,3881	    0,150981	-156,0	    0,153144	-155,6
       42,39	    0,150709	-155,8	     0,15269	-155,1
      42,392	    0,150569	-155,9	    0,152881	-154,9
     42,3939	    0,150327	-155,1	      0,1524	-155,6
     42,3959	    0,150181	-155,4	    0,152061	-155,6
     42,3979	    0,149888	-154,8	    0,151892	-155,1
     42,3998	    0,149681	-155,4	    0,151275	-155,1
     42,4018	    0,149564	-155,5	    0,151399	-155,0
     42,4037	    0,149542	-154,7	    0,151243	-155,1
     42,4057	    0,148866	-154,7	    0,151097	-155,0
     42,4076	    0,148868	-154,5	    0,150823	-155,0
     42,4096	    0,148632	-154,2	    0,150553	-155,3
     42,4115	     0,14844	-155,0	    0,150204	-154,9
     42,4135	    0,148224	-154,2	    0,150183	-155,3
     42,4154	    0,147827	-155,3	    0,149893	-155,0
     42,4174	    0,148119	-154,6	    0,149671	-154,9
     42,4194	    0,148015	-155,3	    0,149485	-154,6
     42,4213	    0,147396	-154,7	    0,149337	-154,6
     42,4233	    0,147176	-155,0	    0,148982	-155,0
     42,4252	    0,146812	-154,8	    0,149062	-155,0
     42,4272	    0,146804	-154,7	    0,148762	-154,1
     42,4291	    0,146772	-154,6	    0,148391	-154,8
     42,4311	    0,146533	-153,9	    0,147978	-154,5
      42,433	    0,146422	-154,6	    0,147929	-154,6
      42,435	    0,146141	-154,1	    0,147748	-154,2
      42,437	    0,145941	-154,3	    0,147354	-154,6
     42,4389	    0,145616	-153,7	    0,147353	-154,0
     42,4409	    0,145498	-154,1	    0,147183	-153,9
     42,4428	    0,144735	-153,5	    0,146984	-153,8
     42,4448	    0,144976	-153,8	    0,146635	-153,4
     42,4467	    0,144874	-153,6	    0,146382	-153,1
     42,4487	    0,144637	-153,9	    0,146303	-152,4
     42,4506	    0,144511	-153,5	    0,146197	-153,7
     42,4526	    0,144083	-153,2	    0,145994	-153,8
     42,4545	    0,143953	-153,3	    0,145719	-153,5
     42,4565	    0,143676	-153,4	    0,145503	-153,2
     42,4585	    0,143588	-153,6	     0,14509	-153,2
     42,4604	     0,14333	-152,6	     0,14505	-153,3
     42,4624	    0,142974	-152,3	    0,145032	-152,8
     42,4643	    0,142535	-153,0	    0,144669	-153,1
     42,4663	    0,142463	-152,6	    0,144437	-153,1
     42,4682	    0,142255	-153,3	    0,144305	-153,1
     42,4702	    0,142213	-152,8	     0,14402	-152,6
     42,4721	    0,141783	-153,3	    0,143841	-152,8
     42,4741	    0,141784	-152,5	    0,143574	-153,0
     42,4761	    0,141518	-153,0	    0,143528	-152,7
      42,478	    0,141414	-153,2	    0,142988	-152,8
       42,48	    0,141359	-153,0	    0,143113	-152,6
     42,4819	     0,14097	-153,0	    0,142618	-153,0
     42,4839	    0,140988	-152,7	    0,142688	-152,4
     42,4858	    0,140741	-152,8	    0,142047	-152,9
     42,4878	    0,140456	-152,8	    0,142071	-152,5
     42,4897	     0,14022	-152,4	    0,141842	-152,7
     42,4917	     0,13998	-152,5	    0,141537	-152,6
     42,4936	    0,139953	-152,5	     0,14156	-152,2
     42,4956	    0,139715	-152,7	    0,140952	-152,6
     42,4976	    0,139663	-151,8	    0,140994	-152,5
     42,4995	    0,139223	-152,3	    0,140485	-152,3
     42,5015	    0,139212	-151,9	    0,140396	-152,1
     42,5034	    0,139037	-152,0	    0,140017	-151,9
     42,5054	    0,138888	-151,2	    0,139997	-152,3
     42,5073	    0,138603	-151,6	    0,139775	-151,7
     42,5093	    0,138513	-151,4	    0,139599	-151,5
     42,5112	    0,138215	-151,9	    0,139442	-151,9
     42,5132	    0,138112	-150,9	    0,139154	-151,2
     42,5152	    0,137836	-151,0	     0,13906	-152,0
     42,5171	     0,13771	-151,2	    0,139031	-151,5
     42,5191	    0,137525	-151,4	    0,138733	-151,2
      42,521	    0,137381	-150,8	    0,138538	-151,4
      42,523	    0,137131	-150,8	    0,138475	-151,5
     42,5249	    0,136949	-150,8	    0,138089	-150,8
     42,5269	    0,136667	-150,9	    0,137937	-151,2
     42,5288	    0,136456	-150,7	     0,13754	-150,6
     42,5308	    0,136334	-150,5	    0,137411	-150,3
     42,5327	    0,135791	-150,4	    0,137163	-150,4
     42,5347	    0,135717	-150,6	    0,136896	-150,3
     42,5367	    0,135328	-150,3	    0,136781	-150,5
     42,5386	    0,135325	-150,4	    0,136631	-150,4
     42,5406	    0,135252	-150,7	    0,136683	-150,3
     42,5425	    0,135187	-150,4	    0,136283	-150,1
     42,5445	    0,134791	-150,3	    0,136352	-150,7
     42,5464	    0,134614	-150,2	    0,136185	-150,0
     42,5484	     0,13434	-150,3	    0,135881	-150,1
     42,5503	    0,134325	-150,2	    0,135522	-150,2
     42,5523	    0,134087	-150,0	    0,135509	-150,0
     42,5543	      0,1339	-149,7	    0,135259	-150,0
     42,5562	    0,133731	-150,0	    0,135168	-149,8
     42,5582	    0,133465	-149,9	    0,134962	-149,5
     42,5601	    0,133351	-149,6	    0,134723	-149,7
     42,5621	    0,133013	-149,4	    0,134551	-149,5
      42,564	     0,13286	-149,6	    0,134249	-149,7
      42,566	    0,132539	-149,3	    0,134062	-149,6
     42,5679	    0,132284	-148,9	    0,133809	-150,0
     42,5699	    0,132116	-149,2	    0,133681	-149,5
     42,5718	    0,132156	-149,5	     0,13339	-149,5
     42,5738	    0,131938	-149,4	     0,13325	-149,4
     42,5758	    0,131616	-148,8	     0,13313	-149,2
     42,5777	    0,131331	-148,9	      0,1329	-149,2
     42,5797	    0,131243	-149,0	      0,1327	-148,9
     42,5816	    0,131026	-149,1	    0,132543	-149,3
     42,5836	    0,130946	-148,7	    0,132321	-149,1
     42,5855	    0,130721	-148,9	    0,132102	-149,0
     42,5875	    0,130523	-148,7	     0,13183	-149,1
     42,5894	    0,130283	-149,0	    0,131586	-148,8
     42,5914	      0,1301	-148,8	    0,131439	-148,7
     42,5934	    0,129894	-148,9	    0,131217	-148,7
     42,5953	    0,129721	-148,7	    0,131109	-148,5
     42,5973	    0,129586	-148,7	    0,130825	-148,8
     42,5992	     0,12939	-148,7	    0,130672	-148,5
     42,6012	     0,12919	-148,4	    0,130443	-148,6
     42,6031	    0,128845	-148,5	     0,13031	-148,3
     42,6051	    0,128648	-148,4	    0,130062	-148,5
      42,607	    0,128498	-148,4	    0,129756	-148,5
      42,609	    0,128309	-148,2	    0,129547	-148,5
     42,6109	    0,128058	-148,3	    0,129373	-148,2
     42,6129	     0,12791	-148,2	    0,129237	-147,9
     42,6149	    0,127703	-148,2	     0,12899	-148,4
     42,6168	    0,127608	-148,0	    0,128826	-148,2
     42,6188	    0,127267	-148,1	    0,128595	-148,0
     42,6207	    0,127104	-148,0	    0,128384	-148,0
     42,6227	    0,126873	-148,1	    0,128223	-148,1
     42,6246	    0,126764	-147,9	    0,128027	-148,1
     42,6266	    0,126552	-147,8	    0,127754	-147,9
     42,6285	    0,126344	-147,5	    0,127579	-147,9
     42,6305	    0,126065	-147,9	    0,127376	-147,7
     42,6325	    0,125877	-147,5	    0,127175	-147,5
     42,6344	    0,125734	-147,5	    0,126914	-147,8
     42,6364	    0,125598	-147,5	    0,126738	-147,6
     42,6383	    0,125374	-147,5	    0,126641	-147,5
     42,6403	    0,125238	-147,3	    0,126358	-147,4
     42,6422	     0,12498	-147,3	    0,126175	-147,4
     42,6442	    0,124761	-146,9	     0,12593	-147,4
     42,6461	    0,124597	-147,5	    0,125753	-147,2
     42,6481	    0,124426	-147,3	    0,125631	-147,0
       42,65	    0,124316	-147,3	    0,125359	-147,4
      42,652	    0,124162	-146,8	    0,125165	-147,2
      42,654	    0,123826	-147,3	    0,124997	-146,8
     42,6559	    0,123664	-147,1	    0,124844	-147,2
     42,6579	    0,123427	-146,8	    0,124549	-147,2
     42,6598	    0,123246	-146,8	    0,124273	-147,0
     42,6618	    0,123078	-146,6	    0,124115	-146,9
     42,6637	    0,122977	-146,9	    0,123929	-146,8
     42,6657	    0,122745	-146,6	    0,123745	-146,8
     42,6676	    0,122448	-146,5	    0,123611	-146,7
     42,6696	    0,122269	-146,1	    0,123298	-146,6
     42,6716	    0,122126	-146,6	    0,123139	-146,1
     42,6735	    0,121937	-146,5	    0,123014	-146,3
     42,6755	    0,121768	-146,4	    0,122841	-146,6
     42,6774	     0,12161	-146,2	    0,122615	-146,5
     42,6794	     0,12139	-146,2	    0,122307	-146,3
     42,6813	    0,121183	-146,2	    0,122184	-146,1
     42,6833	    0,120879	-146,1	    0,121948	-146,4
     42,6852	    0,120728	-145,9	    0,121765	-146,2
     42,6872	    0,120505	-146,1	    0,121549	-146,1
     42,6891	    0,120367	-146,0	    0,121375	-145,8
     42,6911	    0,120216	-146,0	    0,121155	-146,2
     42,6931	    0,120076	-145,8	    0,120956	-145,9
      42,695	    0,119827	-145,6	    0,120731	-145,8
      42,697	    0,119747	-145,6	    0,120497	-145,6
     42,6989	     0,11941	-145,7	    0,120373	-145,6
     42,7009	    0,119201	-145,7	    0,120154	-145,7
     42,7028	    0,119033	-145,6	    0,120053	-145,8
     42,7048	    0,119014	-145,4	    0,119944	-145,4
     42,7067	    0,118683	-145,4	    0,119727	-145,5
     42,7087	    0,118451	-145,5	    0,119318	-145,7
     42,7107	    0,118331	-145,1	     0,11911	-145,8
     42,7126	    0,118178	-145,3	    0,118943	-145,4
     42,7146	    0,117904	-145,3	    0,118722	-145,2
     42,7165	    0,117774	-145,4	    0,118534	-145,2
     42,7185	    0,117653	-145,4	    0,118401	-145,5
     42,7204	    0,117347	-145,1	    0,118163	-145,3
     42,7224	    0,117215	-145,0	    0,118033	-145,3
     42,7243	    0,116962	-145,1	     0,11777	-145,1
     42,7263	    0,116836	-145,3	    0,117551	-145,2
     42,7282	    0,116596	-144,7	    0,117367	-145,2
     42,7302	    0,116415	-144,9	    0,117238	-145,0
     42,7322	     0,11613	-144,8	    0,117072	-145,2
     42,7341	    0,116035	-145,2	    0,116848	-144,9
     42,7361	    0,115863	-144,9	    0,116655	-145,1
      42,738	    0,115749	-144,9	     0,11641	-145,1
       42,74	    0,115382	-144,6	    0,116223	-145,0
     42,7419	    0,115204	-144,8	    0,116049	-144,8
     42,7439	    0,115008	-144,7	    0,115868	-144,7
     42,7458	    0,114895	-144,8	    0,115716	-145,0
     42,7478	    0,114771	-144,6	    0,115594	-144,9
     42,7498	    0,114605	-144,6	    0,115379	-144,9
     42,7517	    0,114415	-144,7	    0,115149	-144,5
     42,7537	    0,114319	-144,7	    0,114959	-144,7
     42,7556	    0,113969	-144,3	    0,114732	-144,7
     42,7576	    0,113717	-144,4	    0,114485	-144,7
     42,7595	    0,113544	-144,5	     0,11427	-144,6
     42,7615	    0,113427	-144,5	     0,11416	-144,5
     42,7634	    0,113215	-144,4	    0,113942	-144,5
     42,7654	    0,113129	-144,2	    0,113747	-144,4
     42,7673	    0,112975	-144,3	    0,113608	-144,3
     42,7693	    0,112741	-144,1	    0,112391	-143,9
     42,7713	     0,11249	-144,3	     0,11329	-144,1
     42,7732	    0,112365	-144,0	    0,112814	-143,9
     42,7752	    0,112167	-143,7	    0,112831	-144,3
     42,7771	    0,111976	-143,7	    0,112621	-144,0
     42,7791	    0,111735	-144,0	    0,112436	-143,7
      42,781	    0,111584	-143,8	    0,112337	-143,5
      42,783	    0,111418	-143,7	    0,112125	-143,9
     42,7849	    0,111197	-143,5	    0,111919	-143,8
     42,7869	    0,110971	-143,6	     0,11166	-143,6
     42,7889	    0,110875	-143,4	    0,111555	-143,4
     42,7908	    0,110677	-143,6	    0,111425	-143,3
     42,7928	    0,110476	-143,3	    0,111341	-143,5
     42,7947	    0,110321	-143,0	    0,110981	-143,6
     42,7967	     0,11008	-143,2	    0,110742	-143,4
     42,7986	    0,109853	-143,3	    0,110514	-143,1
     42,8006	    0,109727	-143,3	    0,110389	-143,2
     42,8025	    0,109538	-143,0	    0,110145	-143,3
     42,8045	    0,109409	-142,9	     0,11004	-143,4
     42,8064	    0,109259	-143,1	    0,109894	-142,9
     42,8084	    0,109001	-143,3	    0,109795	-143,0
     42,8104	    0,108784	-142,9	    0,109513	-143,2
     42,8123	    0,108662	-143,1	    0,109399	-143,2
     42,8143	    0,108581	-142,9	    0,109143	-142,9
     42,8162	    0,108373	-142,9	     0,10902	-143,1
     42,8182	    0,108101	-142,7	    0,108857	-143,1
     42,8201	    0,107978	-143,0	    0,108591	-143,3
     42,8221	    0,107891	-142,9	    0,108448	-143,0
      42,824	    0,107593	-142,7	    0,108354	-143,1
      42,826	    0,107476	-142,8	    0,108096	-142,8
      42,828	    0,107336	-143,2	    0,107918	-142,8
     42,8299	    0,107201	-142,8	    0,107641	-143,1
     42,8319	    0,106979	-142,7	    0,107507	-142,9
     42,8338	    0,106763	-142,8	    0,107285	-142,7
     42,8358	    0,106649	-142,8	    0,107096	-142,5
     42,8377	    0,106427	-142,4	    0,106961	-142,4
     42,8397	     0,10616	-142,6	    0,106829	-142,4
     42,8416	     0,10608	-142,2	    0,106695	-142,6
     42,8436	    0,105921	-142,3	    0,106499	-142,4
     42,8456	    0,105732	-142,2	    0,106216	-142,3
     42,8475	    0,105528	-142,3	    0,106066	-142,2
     42,8495	    0,105329	-142,1	    0,105845	-142,0
     42,8514	    0,105145	-142,1	    0,105684	-142,4
     42,8534	    0,105012	-141,8	    0,105495	-142,2
     42,8553	     0,10486	-141,9	    0,105353	-141,9
     42,8573	    0,104621	-142,0	    0,105204	-141,9
     42,8592	    0,104515	-141,8	    0,104966	-142,0
     42,8612	    0,104416	-141,5	    0,104805	-141,9
     42,8631	    0,104251	-141,7	    0,104652	-141,8
     42,8651	    0,103898	-141,7	    0,104438	-142,0
     42,8671	    0,103792	-141,9	    0,104315	-141,8
      42,869	    0,103616	-141,8	    0,104141	-142,0
      42,871	    0,103454	-141,4	    0,103943	-141,9
     42,8729	    0,103248	-141,6	    0,103776	-142,1
     42,8749	    0,103112	-141,8	    0,103591	-141,6
     42,8768	    0,103062	-142,0	    0,103489	-141,6
     42,8788	    0,102798	-141,6	     0,10334	-141,8
     42,8807	    0,102699	-141,5	    0,103043	-142,0
     42,8827	    0,102445	-141,4	    0,102875	-141,9
     42,8847	    0,102244	-141,7	    0,102724	-141,4
     42,8866	    0,102083	-141,7	    0,102485	-141,3
     42,8886	    0,101919	-141,5	    0,102353	-141,6
     42,8905	     0,10177	-141,3	    0,102249	-141,4
     42,8925	    0,101645	-141,3	    0,102086	-141,3
     42,8944	    0,101434	-141,3	    0,101842	-141,2
     42,8964	    0,101317	-141,0	    0,101636	-141,0
     42,8983	     0,10114	-141,0	    0,101544	-141,1
     42,9003	    0,100944	-141,0	    0,101369	-141,2
     42,9022	    0,100776	-140,6	    0,101142	-141,0
     42,9042	    0,100615	-140,6	    0,100959	-141,2
     42,9062	    0,100402	-140,9	    0,100771	-140,7
     42,9081	    0,100326	-140,9	     0,10074	-140,8
     42,9101	      0,1001	-140,7	    0,100394	-141,0
      42,912	   0,0999393	-140,7	    0,100304	-141,0
      42,914	   0,0997422	-140,7	    0,100173	-141,1
     42,9159	   0,0995684	-140,8	    0,099959	-140,8
     42,9179	   0,0994158	-140,6	   0,0997463	-140,8
     42,9198	   0,0993044	-140,9	   0,0996985	-140,8
     42,9218	   0,0991183	-140,2	   0,0994646	-140,9
     42,9238	   0,0990079	-140,5	   0,0992805	-141,1
     42,9257	   0,0988035	-140,8	   0,0990884	-140,8
     42,9277	   0,0986838	-140,7	   0,0988854	-140,6
     42,9296	   0,0984919	-140,7	   0,0987692	-140,3
     42,9316	    0,098326	-140,5	   0,0985968	-140,8
     42,9335	   0,0980735	-140,4	   0,0983134	-140,7
     42,9355	   0,0979631	-140,4	    0,098138	-140,4
     42,9374	   0,0977666	-140,5	   0,0979898	-140,3
     42,9394	   0,0977549	-140,4	   0,0979131	-140,0
     42,9413	   0,0976096	-140,2	    0,097791	-140,2
     42,9433	   0,0974607	-139,8	   0,0975633	-140,2
     42,9453	   0,0971272	-139,9	   0,0974171	-140,5
     42,9472	   0,0969159	-139,8	   0,0972049	-139,9
     42,9492	   0,0967872	-140,0	   0,0970509	-140,1
     42,9511	    0,096662	-140,1	   0,0969317	-140,0
     42,9531	    0,096546	-139,6	   0,0966806	-140,3
      42,955	   0,0964382	-139,9	   0,0965439	-140,2
      42,957	   0,0962573	-140,0	   0,0964271	-140,4
     42,9589	   0,0961497	-140,1	   0,0962479	-139,9
     42,9609	   0,0959746	-140,0	   0,0961687	-139,9
     42,9629	   0,0957333	-140,0	   0,0959468	-140,1
     42,9648	   0,0955081	-139,7	   0,0957689	-140,0
     42,9668	   0,0954192	-139,8	   0,0955802	-140,0
     42,9687	   0,0951962	-139,5	   0,0953816	-139,7
     42,9707	   0,0950912	-139,9	   0,0951698	-139,6
     42,9726	    0,095025	-139,6	   0,0949832	-139,3
     42,9746	     0,09491	-139,4	   0,0948429	-139,7
     42,9765	   0,0946808	-139,2	   0,0947468	-139,6
     42,9785	   0,0944484	-139,2	   0,0945945	-139,7
     42,9804	   0,0943291	-139,2	   0,0943956	-139,4
     42,9824	   0,0941957	-139,2	   0,0943166	-139,5
     42,9844	   0,0940595	-139,2	   0,0940581	-139,4
     42,9863	   0,0938836	-139,1	   0,0939275	-139,6
     42,9883	   0,0937922	-139,1	   0,0937397	-139,7
     42,9902	   0,0935471	-139,2	   0,0936087	-139,8
     42,9922	   0,0933762	-139,4	   0,0934745	-139,4
     42,9941	   0,0931628	-139,4	   0,0931277	-139,5
     42,9961	   0,0930295	-139,5	   0,0928906	-139,5
      42,998	   0,0929966	-139,1	   0,0928538	-139,3
          43	   0,0929401	-138,9	   0,0927775	-139,2

