X-Data [Hz]	Laser (M - Filtered) [m/s]	Phase [Deg]	
	002: [07-01-24 16:57]	
        33,5	   0,0206196	85,9
      33,502	   0,0217013	84,3
     33,5039	   0,0221348	83,7
     33,5059	   0,0222192	82,6
     33,5078	   0,0221218	83,5
     33,5098	   0,0223415	85,1
     33,5117	     0,02239	85,1
     33,5137	   0,0221415	85,0
     33,5156	   0,0222922	83,9
     33,5176	   0,0223104	85,8
     33,5196	   0,0222728	85,7
     33,5215	   0,0224487	84,4
     33,5235	    0,022591	84,8
     33,5254	   0,0224077	84,5
     33,5274	   0,0221888	87,2
     33,5293	   0,0223472	85,8
     33,5313	   0,0227611	83,7
     33,5332	   0,0229821	84,6
     33,5352	   0,0227082	85,7
     33,5371	   0,0228463	85,6
     33,5391	    0,022605	84,7
     33,5411	   0,0228173	85,2
      33,543	   0,0227994	86,3
      33,545	   0,0225622	84,6
     33,5469	   0,0226943	84,3
     33,5489	    0,022857	85,3
     33,5508	   0,0226446	86,1
     33,5528	   0,0229577	85,2
     33,5547	    0,023125	84,6
     33,5567	   0,0232378	86,4
     33,5587	   0,0235207	87,5
     33,5606	   0,0227205	86,1
     33,5626	   0,0229951	86,8
     33,5645	   0,0231417	88,9
     33,5665	   0,0233587	85,2
     33,5684	   0,0230726	87,3
     33,5704	   0,0227124	86,5
     33,5723	   0,0230183	87,0
     33,5743	   0,0233416	86,5
     33,5762	   0,0235232	87,0
     33,5782	    0,023341	86,8
     33,5802	   0,0231789	87,6
     33,5821	    0,023397	87,9
     33,5841	   0,0233723	88,5
      33,586	    0,023526	86,7
      33,588	   0,0232726	89,2
     33,5899	   0,0233237	88,3
     33,5919	   0,0235906	87,3
     33,5938	   0,0236029	87,9
     33,5958	   0,0231314	87,3
     33,5978	   0,0230111	90,6
     33,5997	   0,0232635	88,3
     33,6017	   0,0235744	88,8
     33,6036	   0,0238695	88,2
     33,6056	   0,0237266	87,5
     33,6075	   0,0238038	88,6
     33,6095	   0,0236111	89,4
     33,6114	   0,0234669	89,8
     33,6134	   0,0241452	90,0
     33,6153	   0,0238729	89,5
     33,6173	   0,0241425	91,2
     33,6193	   0,0242111	89,8
     33,6212	   0,0240951	89,4
     33,6232	   0,0243275	91,2
     33,6251	   0,0244191	89,6
     33,6271	   0,0246305	90,6
      33,629	   0,0244151	90,0
      33,631	   0,0242042	90,1
     33,6329	   0,0244729	90,6
     33,6349	   0,0238267	90,4
     33,6369	   0,0244118	91,2
     33,6388	    0,024522	91,4
     33,6408	   0,0245942	91,0
     33,6427	   0,0248428	91,8
     33,6447	   0,0245883	91,8
     33,6466	   0,0245545	90,8
     33,6486	   0,0243667	91,2
     33,6505	   0,0247467	92,1
     33,6525	   0,0249619	92,1
     33,6544	   0,0249417	91,6
     33,6564	   0,0249975	90,1
     33,6584	   0,0254014	90,8
     33,6603	   0,0248127	93,1
     33,6623	   0,0250245	91,6
     33,6642	   0,0253689	93,4
     33,6662	   0,0252111	92,1
     33,6681	   0,0251788	92,7
     33,6701	   0,0251517	93,6
      33,672	   0,0249875	92,1
      33,674	   0,0254459	93,4
      33,676	   0,0250777	92,3
     33,6779	   0,0254125	91,9
     33,6799	   0,0252981	94,4
     33,6818	   0,0252723	93,5
     33,6838	   0,0255111	93,2
     33,6857	   0,0256306	93,3
     33,6877	   0,0253966	94,4
     33,6896	   0,0259331	93,9
     33,6916	   0,0258235	92,9
     33,6936	   0,0260923	94,5
     33,6955	   0,0254052	94,9
     33,6975	    0,026181	93,7
     33,6994	   0,0262304	95,6
     33,7014	   0,0261663	93,6
     33,7033	   0,0261044	94,6
     33,7053	   0,0259445	94,7
     33,7072	   0,0258329	94,5
     33,7092	   0,0263282	95,7
     33,7111	   0,0260832	96,1
     33,7131	   0,0259879	95,9
     33,7151	    0,026077	94,7
      33,717	   0,0263456	95,7
      33,719	   0,0265179	96,4
     33,7209	   0,0261808	96,6
     33,7229	   0,0265668	95,9
     33,7248	   0,0268698	96,0
     33,7268	    0,026557	96,2
     33,7287	   0,0269687	96,7
     33,7307	   0,0268681	96,0
     33,7327	   0,0272349	96,6
     33,7346	    0,026659	96,4
     33,7366	    0,027027	97,1
     33,7385	   0,0272309	96,2
     33,7405	   0,0270225	97,6
     33,7424	   0,0270453	98,4
     33,7444	   0,0272769	97,2
     33,7463	   0,0272318	97,5
     33,7483	   0,0271809	97,4
     33,7502	    0,027428	97,4
     33,7522	   0,0277546	97,5
     33,7542	   0,0272858	97,5
     33,7561	    0,027126	97,6
     33,7581	   0,0277409	98,5
       33,76	   0,0277442	98,3
      33,762	    0,027547	98,4
     33,7639	   0,0278246	98,3
     33,7659	   0,0278716	98,7
     33,7678	   0,0275848	99,0
     33,7698	   0,0280635	99,2
     33,7718	   0,0281546	98,5
     33,7737	   0,0276373	99,5
     33,7757	   0,0277475	99,4
     33,7776	   0,0283275	99,7
     33,7796	   0,0282844	99,5
     33,7815	   0,0286104	99,8
     33,7835	   0,0287762	99,2
     33,7854	   0,0286986	99,0
     33,7874	   0,0283681	99,4
     33,7893	   0,0283358	101,4
     33,7913	    0,028728	100,8
     33,7933	   0,0283494	100,0
     33,7952	   0,0287053	101,2
     33,7972	   0,0283518	101,3
     33,7991	   0,0285804	101,1
     33,8011	   0,0284905	100,8
      33,803	   0,0289537	100,2
      33,805	   0,0282797	102,3
     33,8069	   0,0289231	102,2
     33,8089	   0,0291004	102,2
     33,8109	   0,0293535	101,9
     33,8128	   0,0294856	101,7
     33,8148	    0,028802	102,1
     33,8167	   0,0293714	102,7
     33,8187	    0,029191	103,2
     33,8206	   0,0294148	102,5
     33,8226	    0,030026	101,9
     33,8245	   0,0292121	102,8
     33,8265	   0,0296221	103,2
     33,8284	   0,0300923	103,5
     33,8304	   0,0299997	102,8
     33,8324	   0,0300387	104,3
     33,8343	   0,0297596	104,3
     33,8363	   0,0305488	102,8
     33,8382	   0,0295409	104,0
     33,8402	   0,0301907	104,8
     33,8421	   0,0301625	104,5
     33,8441	   0,0303008	104,4
      33,846	   0,0298874	104,7
      33,848	   0,0303487	103,5
       33,85	   0,0302357	104,2
     33,8519	   0,0301544	105,0
     33,8539	   0,0304244	104,7
     33,8558	   0,0305714	104,6
     33,8578	   0,0307564	105,6
     33,8597	   0,0304426	106,1
     33,8617	   0,0309896	105,3
     33,8636	     0,03101	104,6
     33,8656	   0,0308951	105,5
     33,8675	   0,0313708	106,2
     33,8695	   0,0313093	105,4
     33,8715	   0,0305976	107,5
     33,8734	   0,0314152	105,8
     33,8754	   0,0311498	106,7
     33,8773	   0,0309844	107,3
     33,8793	   0,0312992	107,1
     33,8812	   0,0313809	106,7
     33,8832	   0,0313909	107,3
     33,8851	   0,0316295	107,7
     33,8871	   0,0313653	107,2
     33,8891	   0,0317454	107,3
      33,891	   0,0317593	109,1
      33,893	   0,0319827	107,4
     33,8949	   0,0320702	107,9
     33,8969	   0,0318827	109,4
     33,8988	   0,0320551	107,7
     33,9008	    0,032274	109,0
     33,9027	   0,0324464	108,6
     33,9047	   0,0323042	108,7
     33,9066	   0,0322307	109,6
     33,9086	   0,0318521	110,4
     33,9106	   0,0321104	110,5
     33,9125	   0,0323794	110,7
     33,9145	   0,0321225	110,1
     33,9164	   0,0324837	109,9
     33,9184	   0,0323977	111,8
     33,9203	    0,032928	109,6
     33,9223	   0,0328948	111,1
     33,9242	   0,0324927	113,6
     33,9262	   0,0329012	112,1
     33,9282	   0,0325801	113,5
     33,9301	   0,0327901	112,2
     33,9321	   0,0329169	111,8
      33,934	    0,032592	111,4
      33,936	   0,0330444	113,9
     33,9379	   0,0329288	111,8
     33,9399	   0,0332259	113,0
     33,9418	   0,0329454	113,1
     33,9438	    0,033408	114,0
     33,9457	   0,0331792	115,2
     33,9477	   0,0330873	114,6
     33,9497	   0,0330456	114,7
     33,9516	   0,0336739	114,0
     33,9536	   0,0333275	117,6
     33,9555	   0,0333427	116,6
     33,9575	   0,0332251	117,6
     33,9594	    0,033411	116,2
     33,9614	   0,0334681	116,7
     33,9633	   0,0333144	118,0
     33,9653	   0,0339325	116,9
     33,9673	   0,0337895	118,0
     33,9692	   0,0337306	119,0
     33,9712	   0,0338546	117,5
     33,9731	   0,0335828	118,7
     33,9751	    0,034478	115,0
      33,977	   0,0339071	119,6
      33,979	   0,0338704	118,9
     33,9809	    0,034268	119,5
     33,9829	   0,0338815	119,7
     33,9848	   0,0342256	118,8
     33,9868	    0,033924	120,1
     33,9888	   0,0344237	117,4
     33,9907	   0,0343041	120,3
     33,9927	    0,034266	119,2
     33,9946	   0,0343625	118,1
     33,9966	   0,0340901	121,1
     33,9985	   0,0345035	119,1
     34,0005	   0,0346239	121,8
     34,0024	   0,0345666	119,5
     34,0044	   0,0347752	119,6
     34,0064	   0,0346501	118,8
     34,0083	   0,0351621	120,3
     34,0103	   0,0352971	120,2
     34,0122	   0,0349974	120,9
     34,0142	    0,034727	120,0
     34,0161	   0,0352241	121,4
     34,0181	   0,0357564	120,2
       34,02	   0,0353575	120,4
      34,022	   0,0355942	121,6
     34,0239	   0,0357364	122,3
     34,0259	   0,0353209	124,4
     34,0279	   0,0353081	121,6
     34,0298	   0,0357324	122,6
     34,0318	   0,0351726	121,8
     34,0337	   0,0356282	122,5
     34,0357	   0,0356826	122,7
     34,0376	   0,0356988	123,4
     34,0396	   0,0356394	123,1
     34,0415	   0,0356965	123,2
     34,0435	   0,0364411	124,2
     34,0455	   0,0359931	124,4
     34,0474	   0,0358714	123,7
     34,0494	   0,0359655	123,1
     34,0513	   0,0355857	124,7
     34,0533	   0,0362535	124,7
     34,0552	   0,0361546	125,2
     34,0572	   0,0364339	123,8
     34,0591	   0,0364356	124,2
     34,0611	   0,0365142	125,7
      34,063	   0,0364425	125,5
      34,065	   0,0368721	125,4
      34,067	   0,0370218	126,3
     34,0689	   0,0372988	125,8
     34,0709	   0,0365548	126,9
     34,0728	   0,0373781	124,9
     34,0748	   0,0374878	126,1
     34,0767	   0,0373925	125,8
     34,0787	   0,0369481	127,1
     34,0806	   0,0372131	126,7
     34,0826	   0,0372695	127,1
     34,0846	   0,0375944	128,2
     34,0865	   0,0378769	128,6
     34,0885	   0,0377476	129,1
     34,0904	   0,0372427	128,4
     34,0924	   0,0374736	128,7
     34,0943	    0,037978	128,6
     34,0963	    0,038179	129,8
     34,0982	   0,0377573	128,0
     34,1002	   0,0377533	129,8
     34,1021	   0,0383181	128,6
     34,1041	   0,0382742	130,2
     34,1061	   0,0385527	129,4
      34,108	   0,0385154	131,2
       34,11	    0,038576	130,8
     34,1119	   0,0384514	131,0
     34,1139	   0,0382005	130,9
     34,1158	   0,0386014	132,3
     34,1178	   0,0386479	132,4
     34,1197	   0,0385217	131,1
     34,1217	   0,0386534	131,6
     34,1237	   0,0390929	132,1
     34,1256	   0,0389622	132,3
     34,1276	   0,0385968	132,8
     34,1295	   0,0391794	132,9
     34,1315	   0,0390305	132,1
     34,1334	   0,0388626	134,0
     34,1354	   0,0391424	134,4
     34,1373	   0,0392433	135,0
     34,1393	    0,039275	135,1
     34,1413	    0,039164	134,3
     34,1432	    0,039342	135,1
     34,1452	   0,0395009	135,9
     34,1471	   0,0401152	135,1
     34,1491	   0,0399068	135,5
      34,151	   0,0395092	136,4
      34,153	   0,0397824	137,2
     34,1549	   0,0399389	137,0
     34,1569	   0,0402408	137,7
     34,1588	   0,0400279	137,7
     34,1608	   0,0406996	136,2
     34,1628	   0,0404286	137,5
     34,1647	   0,0403836	138,3
     34,1667	    0,040658	138,1
     34,1686	    0,041143	137,8
     34,1706	   0,0401285	138,4
     34,1725	   0,0405939	138,6
     34,1745	   0,0406422	138,5
     34,1764	   0,0407621	139,7
     34,1784	   0,0405236	139,6
     34,1804	   0,0407112	139,4
     34,1823	    0,040681	140,4
     34,1843	   0,0411129	141,4
     34,1862	   0,0407186	142,4
     34,1882	   0,0406959	141,7
     34,1901	    0,040778	141,9
     34,1921	   0,0404704	142,4
      34,194	   0,0405957	142,7
      34,196	   0,0410342	142,5
     34,1979	   0,0406957	143,3
     34,1999	   0,0408687	143,3
     34,2019	   0,0410053	143,6
     34,2038	   0,0412601	143,8
     34,2058	   0,0405003	145,1
     34,2077	   0,0409077	144,8
     34,2097	    0,041125	144,7
     34,2116	   0,0405228	143,6
     34,2136	   0,0407856	145,2
     34,2155	   0,0415079	145,4
     34,2175	   0,0409153	145,3
     34,2195	    0,041186	146,1
     34,2214	   0,0419072	145,9
     34,2234	    0,041592	146,9
     34,2253	   0,0419679	147,8
     34,2273	   0,0417354	147,0
     34,2292	   0,0415376	149,5
     34,2312	   0,0414779	148,7
     34,2331	   0,0418761	148,7
     34,2351	   0,0414321	149,6
      34,237	   0,0417101	150,2
      34,239	   0,0415664	150,2
      34,241	    0,041473	150,6
     34,2429	   0,0414131	149,0
     34,2449	   0,0413939	149,6
     34,2468	   0,0411133	149,9
     34,2488	   0,0416474	150,7
     34,2507	   0,0416005	150,0
     34,2527	   0,0416734	151,0
     34,2546	   0,0416628	151,8
     34,2566	   0,0416265	152,2
     34,2586	   0,0412823	152,7
     34,2605	   0,0415829	152,0
     34,2625	    0,041617	152,7
     34,2644	   0,0417874	153,3
     34,2664	   0,0414477	153,0
     34,2683	    0,041782	153,6
     34,2703	   0,0414281	155,4
     34,2722	   0,0413079	155,0
     34,2742	   0,0416438	155,2
     34,2761	   0,0410445	155,5
     34,2781	    0,041193	156,5
     34,2801	   0,0414036	156,0
      34,282	   0,0418923	156,4
      34,284	   0,0418738	156,7
     34,2859	   0,0411799	157,1
     34,2879	   0,0415918	157,4
     34,2898	   0,0419926	157,3
     34,2918	   0,0418155	156,6
     34,2937	    0,041671	157,2
     34,2957	    0,040993	158,4
     34,2977	   0,0413812	158,1
     34,2996	   0,0418775	159,1
     34,3016	   0,0417172	158,9
     34,3035	   0,0413352	160,5
     34,3055	   0,0416751	160,4
     34,3074	   0,0412276	160,9
     34,3094	   0,0415044	161,0
     34,3113	   0,0413141	160,9
     34,3133	   0,0412357	160,9
     34,3153	   0,0415751	162,1
     34,3172	   0,0415732	161,8
     34,3192	   0,0408841	162,8
     34,3211	    0,040929	161,9
     34,3231	   0,0414768	162,2
      34,325	   0,0415332	161,9
      34,327	   0,0409279	163,4
     34,3289	   0,0413926	163,4
     34,3309	   0,0412245	163,4
     34,3328	   0,0411454	164,5
     34,3348	   0,0411324	164,3
     34,3368	   0,0413755	164,3
     34,3387	   0,0411616	164,8
     34,3407	   0,0409696	166,0
     34,3426	    0,041018	165,9
     34,3446	   0,0407555	166,7
     34,3465	   0,0409786	166,7
     34,3485	   0,0410773	167,3
     34,3504	   0,0406762	166,8
     34,3524	    0,040697	166,8
     34,3544	   0,0403305	167,4
     34,3563	   0,0405455	167,1
     34,3583	   0,0404183	168,1
     34,3602	   0,0406397	168,0
     34,3622	   0,0401999	169,0
     34,3641	   0,0402288	170,1
     34,3661	   0,0402929	168,3
      34,368	   0,0405636	168,2
       34,37	   0,0400131	170,2
     34,3719	   0,0400434	170,8
     34,3739	   0,0399773	169,7
     34,3759	   0,0402379	169,6
     34,3778	   0,0400261	170,9
     34,3798	   0,0397574	171,4
     34,3817	   0,0398391	171,2
     34,3837	   0,0392569	172,3
     34,3856	   0,0392955	171,9
     34,3876	   0,0395717	172,2
     34,3895	   0,0397829	172,1
     34,3915	   0,0393266	172,0
     34,3935	   0,0392891	172,8
     34,3954	   0,0392446	173,1
     34,3974	    0,039477	173,0
     34,3993	   0,0394576	173,8
     34,4013	   0,0392751	172,5
     34,4032	   0,0390934	173,9
     34,4052	   0,0393614	174,2
     34,4071	    0,039039	174,2
     34,4091	   0,0391907	174,2
      34,411	   0,0391039	174,1
      34,413	   0,0383033	175,0
      34,415	   0,0382668	174,8
     34,4169	    0,038472	176,0
     34,4189	   0,0386058	176,0
     34,4208	   0,0379809	176,9
     34,4228	   0,0384477	177,0
     34,4247	   0,0382857	177,6
     34,4267	   0,0379482	177,3
     34,4286	   0,0383999	177,1
     34,4306	   0,0376877	178,5
     34,4326	   0,0375969	179,4
     34,4345	   0,0377308	178,9
     34,4365	   0,0373697	178,7
     34,4384	   0,0376998	179,4
     34,4404	   0,0375306	178,4
     34,4423	    0,037287	179,3
     34,4443	   0,0372463	179,4
     34,4462	   0,0377168	179,5
     34,4482	   0,0378714	179,6
     34,4501	   0,0376313	180,3
     34,4521	   0,0373264	179,5
     34,4541	   0,0368382	181,0
      34,456	   0,0369969	181,8
      34,458	   0,0370935	181,3
     34,4599	   0,0368743	181,4
     34,4619	   0,0371873	180,9
     34,4638	   0,0366195	182,2
     34,4658	   0,0365877	183,5
     34,4677	   0,0363509	183,1
     34,4697	   0,0361834	182,1
     34,4717	   0,0361537	184,1
     34,4736	   0,0361397	184,3
     34,4756	   0,0357756	183,5
     34,4775	   0,0360951	183,6
     34,4795	   0,0362291	184,2
     34,4814	   0,0359473	184,6
     34,4834	   0,0356469	184,4
     34,4853	   0,0356223	185,2
     34,4873	    0,035689	185,8
     34,4892	   0,0356475	185,6
     34,4912	   0,0352683	185,4
     34,4932	   0,0355215	185,6
     34,4951	   0,0354322	185,8
     34,4971	   0,0352534	185,1
      34,499	   0,0350726	184,7
      34,501	   0,0345121	185,2
     34,5029	   0,0348732	185,5
     34,5049	   0,0347132	185,9
     34,5068	   0,0347128	186,3
     34,5088	   0,0348298	186,4
     34,5108	    0,034734	186,7
     34,5127	   0,0346556	187,8
     34,5147	   0,0342035	187,6
     34,5166	   0,0342914	187,4
     34,5186	   0,0341448	187,5
     34,5205	    0,033883	188,1
     34,5225	   0,0341884	188,1
     34,5244	   0,0341256	188,5
     34,5264	   0,0341068	189,0
     34,5283	   0,0339789	189,2
     34,5303	   0,0342791	189,6
     34,5323	   0,0338191	189,2
     34,5342	   0,0335716	188,5
     34,5362	   0,0332108	190,3
     34,5381	   0,0333345	190,4
     34,5401	   0,0330175	190,3
      34,542	   0,0332132	189,6
      34,544	   0,0334748	190,0
     34,5459	   0,0332977	190,2
     34,5479	   0,0330192	190,5
     34,5499	   0,0329286	190,3
     34,5518	   0,0324447	191,1
     34,5538	   0,0326689	191,3
     34,5557	   0,0328871	191,7
     34,5577	   0,0327375	192,4
     34,5596	    0,032031	192,0
     34,5616	    0,032109	192,3
     34,5635	   0,0321523	191,6
     34,5655	   0,0322825	192,1
     34,5674	   0,0323023	192,0
     34,5694	   0,0321712	191,4
     34,5714	   0,0320231	192,3
     34,5733	   0,0319736	192,3
     34,5753	   0,0315531	192,8
     34,5772	   0,0316734	191,8
     34,5792	   0,0316853	192,2
     34,5811	    0,031546	193,8
     34,5831	   0,0311259	193,9
      34,585	   0,0311622	192,7
      34,587	   0,0315029	194,2
      34,589	   0,0309298	193,8
     34,5909	   0,0305737	195,5
     34,5929	   0,0306485	194,9
     34,5948	   0,0303966	195,3
     34,5968	   0,0304191	195,6
     34,5987	   0,0305255	194,5
     34,6007	   0,0307738	195,0
     34,6026	   0,0302415	194,7
     34,6046	   0,0303511	194,4
     34,6065	   0,0305516	195,6
     34,6085	   0,0302058	194,6
     34,6105	   0,0301904	195,4
     34,6124	   0,0300926	196,6
     34,6144	   0,0296899	196,6
     34,6163	   0,0299656	195,7
     34,6183	    0,029947	195,6
     34,6202	   0,0300682	195,8
     34,6222	   0,0296422	196,0
     34,6241	   0,0293178	196,1
     34,6261	    0,029549	196,6
     34,6281	   0,0293951	196,1
       34,63	      0,0292	198,2
      34,632	   0,0293549	197,3
     34,6339	   0,0296744	197,2
     34,6359	   0,0290184	197,7
     34,6378	    0,029182	197,5
     34,6398	    0,028891	197,5
     34,6417	   0,0289443	197,5
     34,6437	   0,0287402	197,8
     34,6456	   0,0287806	198,6
     34,6476	   0,0282498	199,0
     34,6496	   0,0286192	199,9
     34,6515	   0,0282335	199,0
     34,6535	   0,0281831	198,7
     34,6554	   0,0282565	198,8
     34,6574	   0,0283277	198,7
     34,6593	   0,0280387	198,9
     34,6613	   0,0276847	198,9
     34,6632	   0,0278196	198,9
     34,6652	   0,0276891	198,1
     34,6672	    0,027875	-159,9
     34,6691	   0,0274263	-159,1
     34,6711	   0,0275074	-159,9
      34,673	   0,0274936	-160,0
      34,675	   0,0274406	-159,5
     34,6769	   0,0272585	-159,6
     34,6789	   0,0271737	-158,9
     34,6808	   0,0273618	-159,4
     34,6828	   0,0271647	-160,0
     34,6847	   0,0272208	-159,5
     34,6867	   0,0269614	-159,9
     34,6887	   0,0270697	-158,0
     34,6906	   0,0271157	-158,5
     34,6926	   0,0266838	-159,1
     34,6945	   0,0271614	-159,1
     34,6965	   0,0267111	-157,8
     34,6984	   0,0268275	-157,5
     34,7004	   0,0266089	-159,0
     34,7023	   0,0267206	-159,4
     34,7043	   0,0265936	-158,9
     34,7063	   0,0263091	-157,7
     34,7082	   0,0261301	-157,6
     34,7102	   0,0263377	-158,2
     34,7121	    0,026367	-157,1
     34,7141	    0,026279	-157,0
      34,716	   0,0259203	-157,1
      34,718	   0,0260701	-157,8
     34,7199	   0,0260366	-158,1
     34,7219	   0,0259137	-157,5
     34,7239	   0,0258963	-157,4
     34,7258	   0,0259775	-157,3
     34,7278	   0,0256958	-155,5
     34,7297	   0,0253781	-156,2
     34,7317	   0,0256404	-155,5
     34,7336	    0,025558	-156,0
     34,7356	   0,0254162	-156,4
     34,7375	   0,0252436	-156,9
     34,7395	    0,025129	-156,8
     34,7414	    0,025139	-155,4
     34,7434	   0,0249514	-155,7
     34,7454	   0,0250725	-155,4
     34,7473	   0,0249858	-156,3
     34,7493	    0,024702	-155,9
     34,7512	   0,0247041	-154,4
     34,7532	    0,024477	-154,4
     34,7551	   0,0246567	-155,9
     34,7571	   0,0246298	-155,5
      34,759	   0,0247185	-155,0
      34,761	   0,0248026	-154,4
      34,763	   0,0241898	-154,8
     34,7649	   0,0238758	-155,8
     34,7669	   0,0240181	-154,5
     34,7688	   0,0237415	-153,8
     34,7708	   0,0238388	-153,8
     34,7727	   0,0237371	-154,6
     34,7747	   0,0238368	-154,6
     34,7766	   0,0238399	-152,1
     34,7786	   0,0237024	-154,5
     34,7805	   0,0237467	-153,0
     34,7825	   0,0236169	-154,4
     34,7845	   0,0241294	-154,2
     34,7864	   0,0235703	-154,0
     34,7884	   0,0233193	-152,9
     34,7903	   0,0231288	-153,1
     34,7923	   0,0229545	-153,2
     34,7942	   0,0232981	-153,1
     34,7962	   0,0230959	-152,8
     34,7981	   0,0232207	-152,5
     34,8001	   0,0229098	-153,6
     34,8021	   0,0230605	-152,9
      34,804	   0,0227731	-152,2
      34,806	   0,0224532	-151,6
     34,8079	    0,022633	-152,5
     34,8099	   0,0226185	-152,9
     34,8118	   0,0225975	-152,7
     34,8138	   0,0225126	-153,4
     34,8157	   0,0223087	-151,5
     34,8177	   0,0222444	-152,5
     34,8196	   0,0224083	-151,9
     34,8216	   0,0219468	-151,6
     34,8236	   0,0221692	-152,0
     34,8255	   0,0219236	-152,1
     34,8275	   0,0219995	-151,4
     34,8294	   0,0218849	-150,6
     34,8314	   0,0219577	-151,6
     34,8333	   0,0217322	-151,5
     34,8353	   0,0217297	-151,3
     34,8372	   0,0215352	-151,5
     34,8392	   0,0215137	-151,9
     34,8412	    0,021731	-152,4
     34,8431	   0,0216032	-150,9
     34,8451	   0,0210238	-151,6
      34,847	   0,0214212	-151,9
      34,849	   0,0214796	-151,2
     34,8509	   0,0212043	-151,3
     34,8529	   0,0211985	-150,6
     34,8548	   0,0211783	-149,9
     34,8568	   0,0209833	-150,4
     34,8587	   0,0208389	-151,0
     34,8607	   0,0205447	-150,9
     34,8627	   0,0207251	-150,1
     34,8646	   0,0208193	-150,6
     34,8666	   0,0209875	-149,8
     34,8685	   0,0205749	-149,5
     34,8705	   0,0205238	-151,0
     34,8724	   0,0204815	-151,5
     34,8744	   0,0206209	-150,0
     34,8763	   0,0207708	-149,5
     34,8783	   0,0205298	-150,7
     34,8803	   0,0204784	-150,5
     34,8822	   0,0201909	-150,5
     34,8842	   0,0200551	-149,0
     34,8861	   0,0199934	-150,9
     34,8881	   0,0199654	-150,6
       34,89	   0,0199786	-149,8
      34,892	    0,020009	-148,7
     34,8939	   0,0199108	-150,0
     34,8959	   0,0199456	-149,7
     34,8979	   0,0195685	-149,5
     34,8998	   0,0195404	-148,3
     34,9018	   0,0197636	-149,6
     34,9037	   0,0196035	-150,0
     34,9057	   0,0196091	-150,1
     34,9076	   0,0193092	-148,3
     34,9096	   0,0194225	-148,4
     34,9115	   0,0193512	-148,3
     34,9135	   0,0195155	-149,6
     34,9154	    0,018854	-148,5
     34,9174	   0,0191299	-151,3
     34,9194	   0,0189484	-148,4
     34,9213	   0,0192707	-150,2
     34,9233	   0,0190314	-149,1
     34,9252	   0,0190465	-147,9
     34,9272	   0,0190211	-150,8
     34,9291	   0,0190164	-148,3
     34,9311	   0,0188429	-148,9
      34,933	   0,0185085	-148,6
      34,935	   0,0188108	-149,1
      34,937	   0,0185126	-146,6
     34,9389	   0,0184206	-148,9
     34,9409	   0,0184211	-149,6
     34,9428	   0,0182728	-148,3
     34,9448	   0,0182945	-148,7
     34,9467	   0,0183355	-148,5
     34,9487	   0,0183926	-148,8
     34,9506	   0,0182958	-148,2
     34,9526	   0,0181112	-148,7
     34,9545	   0,0179832	-147,0
     34,9565	   0,0174741	-148,8
     34,9585	   0,0181187	-150,1
     34,9604	   0,0181069	-149,9
     34,9624	   0,0180633	-147,0
     34,9643	   0,0179252	-148,4
     34,9663	   0,0177979	-149,0
     34,9682	    0,017851	-147,6
     34,9702	   0,0177555	-147,3
     34,9721	   0,0175041	-148,7
     34,9741	   0,0176189	-149,6
     34,9761	   0,0178487	-148,1
      34,978	   0,0175597	-146,1
       34,98	    0,017471	-148,1
     34,9819	   0,0174685	-148,6
     34,9839	     0,01756	-146,8
     34,9858	   0,0173437	-149,1
     34,9878	   0,0175921	-147,8
     34,9897	   0,0173353	-149,3
     34,9917	   0,0173518	-146,7
     34,9936	   0,0171487	-147,8
     34,9956	    0,017095	-148,9
     34,9976	   0,0170086	-148,6
     34,9995	   0,0170364	-146,3
     35,0015	   0,0168655	-148,1
     35,0034	   0,0170335	-148,5
     35,0054	   0,0170046	-147,2
     35,0073	   0,0169815	-147,1
     35,0093	   0,0165986	-147,6
     35,0112	   0,0172623	-147,4
     35,0132	   0,0168379	-149,0
     35,0152	   0,0164543	-148,6
     35,0171	   0,0164642	-146,4
     35,0191	   0,0167433	-146,9
      35,021	   0,0165532	-148,5
      35,023	    0,016271	-147,5
     35,0249	   0,0165552	-147,9
     35,0269	    0,016325	-147,9
     35,0288	   0,0164889	-148,7
     35,0308	   0,0167366	-148,0
     35,0327	   0,0162528	-148,2
     35,0347	   0,0165219	-148,5
     35,0367	    0,016412	-147,0
     35,0386	    0,016211	-147,3
     35,0406	   0,0159864	-147,6
     35,0425	   0,0160233	-146,2
     35,0445	   0,0161735	-146,2
     35,0464	   0,0158867	-147,7
     35,0484	   0,0158838	-146,9
     35,0503	   0,0158691	-147,7
     35,0523	   0,0160281	-148,1
     35,0543	   0,0158901	-146,7
     35,0562	   0,0154211	-146,8
     35,0582	   0,0159786	-150,3
     35,0601	   0,0159053	-146,4
     35,0621	   0,0158211	-150,4
      35,064	   0,0155867	-148,2
      35,066	   0,0155075	-149,8
     35,0679	   0,0157359	-148,7
     35,0699	   0,0154307	-148,3
     35,0718	   0,0154928	-148,1
     35,0738	   0,0151459	-146,1
     35,0758	   0,0153976	-146,8
     35,0777	   0,0157602	-149,1
     35,0797	   0,0153753	-146,9
     35,0816	   0,0152175	-147,2
     35,0836	    0,015239	-149,5
     35,0855	   0,0149761	-148,0
     35,0875	   0,0149476	-145,3
     35,0894	   0,0154706	-148,8
     35,0914	   0,0150954	-147,3
     35,0934	   0,0149566	-148,9
     35,0953	   0,0149936	-145,5
     35,0973	   0,0150731	-148,0
     35,0992	   0,0148229	-145,8
     35,1012	   0,0150258	-146,4
     35,1031	   0,0148936	-150,9
     35,1051	   0,0148398	-150,2
      35,107	   0,0146725	-146,8
      35,109	   0,0148164	-147,2
     35,1109	   0,0149143	-148,6
     35,1129	   0,0150702	-150,2
     35,1149	   0,0148024	-147,6
     35,1168	   0,0149033	-147,6
     35,1188	   0,0146486	-145,6
     35,1207	   0,0144408	-146,3
     35,1227	    0,014584	-148,3
     35,1246	   0,0145289	-147,5
     35,1266	   0,0143795	-146,1
     35,1285	   0,0145203	-147,5
     35,1305	   0,0142649	-146,3
     35,1325	   0,0145826	-146,9
     35,1344	   0,0147177	-146,6
     35,1364	    0,014347	-149,7
     35,1383	   0,0143771	-152,1
     35,1403	   0,0141741	-146,4
     35,1422	   0,0142717	-144,9
     35,1442	   0,0142479	-147,3
     35,1461	   0,0142404	-145,5
     35,1481	   0,0137877	-148,6
       35,15	   0,0136548	-148,4
      35,152	    0,014157	-147,8
      35,154	   0,0140046	-146,6
     35,1559	   0,0137962	-145,8
     35,1579	   0,0137603	-146,7
     35,1598	   0,0139746	-146,9
     35,1618	   0,0138059	-147,4
     35,1637	   0,0141033	-146,6
     35,1657	   0,0135617	-144,3
     35,1676	   0,0138673	-145,9
     35,1696	    0,014062	-146,1
     35,1716	   0,0138076	-147,7
     35,1735	   0,0136219	-148,0
     35,1755	   0,0135733	-143,6
     35,1774	   0,0133635	-145,8
     35,1794	   0,0135094	-146,2
     35,1813	   0,0138812	-148,3
     35,1833	   0,0137559	-148,4
     35,1852	   0,0135558	-145,2
     35,1872	   0,0131592	-144,0
     35,1891	   0,0132786	-147,4
     35,1911	   0,0130989	-146,0
     35,1931	   0,0129172	-146,2
      35,195	   0,0133723	-145,1
      35,197	   0,0133496	-146,5
     35,1989	    0,013267	-146,6
     35,2009	   0,0135611	-145,3
     35,2028	    0,012997	-144,3
     35,2048	   0,0133677	-147,8
     35,2067	   0,0128302	-145,6
     35,2087	   0,0132477	-146,0
     35,2107	    0,012864	-147,2
     35,2126	   0,0129891	-146,0
     35,2146	   0,0128185	-146,5
     35,2165	   0,0131926	-145,3
     35,2185	    0,012656	-145,0
     35,2204	   0,0129159	-144,9
     35,2224	   0,0130318	-146,8
     35,2243	    0,012781	-146,1
     35,2263	    0,013037	-144,7
     35,2282	   0,0128115	-145,2
     35,2302	   0,0128253	-145,4
     35,2322	   0,0129247	-143,6
     35,2341	   0,0124819	-142,2
     35,2361	   0,0128627	-147,5
      35,238	   0,0125272	-147,0
       35,24	   0,0124837	-147,9
     35,2419	   0,0123863	-141,8
     35,2439	   0,0124374	-144,8
     35,2458	      0,0126	-147,0
     35,2478	   0,0126207	-146,6
     35,2498	   0,0123919	-145,9
     35,2517	   0,0123456	-143,7
     35,2537	   0,0123813	-146,2
     35,2556	   0,0123006	-144,2
     35,2576	    0,012357	-146,6
     35,2595	   0,0120578	-144,0
     35,2615	   0,0127271	-147,1
     35,2634	   0,0120501	-144,3
     35,2654	   0,0123903	-141,2
     35,2673	   0,0122073	-149,1
     35,2693	   0,0121694	-143,3
     35,2713	   0,0122126	-143,9
     35,2732	   0,0118822	-144,5
     35,2752	   0,0121804	-146,4
     35,2771	   0,0119334	-145,1
     35,2791	   0,0120708	-145,2
      35,281	   0,0118824	-142,8
      35,283	   0,0118432	-146,6
     35,2849	   0,0116067	-141,7
     35,2869	   0,0119502	-147,6
     35,2889	   0,0118321	-145,3
     35,2908	   0,0117082	-148,3
     35,2928	   0,0113989	-143,9
     35,2947	   0,0115109	-143,9
     35,2967	   0,0116061	-145,2
     35,2986	   0,0116052	-144,7
     35,3006	   0,0114197	-145,5
     35,3025	   0,0115951	-144,0
     35,3045	   0,0115395	-141,3
     35,3064	   0,0113516	-142,8
     35,3084	   0,0114737	-144,9
     35,3104	   0,0116157	-144,1
     35,3123	   0,0116713	-144,7
     35,3143	      0,0114	-144,7
     35,3162	   0,0116494	-143,0
     35,3182	   0,0111326	-145,6
     35,3201	   0,0113052	-146,9
     35,3221	   0,0113562	-146,5
      35,324	   0,0114104	-147,5
      35,326	   0,0111644	-145,4
      35,328	   0,0113842	-144,2
     35,3299	   0,0109634	-148,1
     35,3319	   0,0110654	-143,4
     35,3338	   0,0109761	-141,7
     35,3358	   0,0107251	-143,2
     35,3377	   0,0110722	-139,4
     35,3397	   0,0110413	-144,7
     35,3416	   0,0110984	-144,3
     35,3436	   0,0110001	-142,4
     35,3456	   0,0110256	-147,6
     35,3475	   0,0106196	-142,4
     35,3495	   0,0108675	-145,0
     35,3514	   0,0108794	-146,4
     35,3534	   0,0108375	-146,7
     35,3553	   0,0110222	-146,2
     35,3573	   0,0108521	-148,1
     35,3592	   0,0106065	-145,7
     35,3612	   0,0106847	-144,0
     35,3631	   0,0109715	-147,7
     35,3651	   0,0105486	-144,3
     35,3671	   0,0106082	-144,3
      35,369	   0,0107679	-145,1
      35,371	   0,0105926	-144,3
     35,3729	   0,0106234	-146,0
     35,3749	   0,0106551	-145,9
     35,3768	   0,0105052	-145,1
     35,3788	   0,0105512	-142,4
     35,3807	   0,0104571	-144,8
     35,3827	   0,0102422	-148,7
     35,3847	   0,0101745	-145,6
     35,3866	   0,0103886	-144,5
     35,3886	   0,0103551	-142,6
     35,3905	   0,0100028	-146,0
     35,3925	   0,0103657	-142,4
     35,3944	   0,0102826	-146,0
     35,3964	   0,0103512	-145,3
     35,3983	   0,0103191	-145,3
     35,4003	   0,0102732	-146,6
     35,4022	   0,0101912	-140,1
     35,4042	   0,0102108	-143,7
     35,4062	   0,0100146	-143,7
     35,4081	    0,010381	-147,5
     35,4101	   0,0102699	-144,9
      35,412	   0,0100537	-144,4
      35,414	    0,010047	-145,7
     35,4159	  0,00983077	-145,6
     35,4179	  0,00936881	-148,0
     35,4198	  0,00991818	-146,9
     35,4218	  0,00945989	-143,8
     35,4238	  0,00980791	-145,9
     35,4257	  0,00973496	-143,7
     35,4277	  0,00988513	-144,3
     35,4296	  0,00974243	-144,4
     35,4316	  0,00985426	-145,0
     35,4335	  0,00948838	-145,6
     35,4355	   0,0095766	-144,8
     35,4374	  0,00961387	-146,6
     35,4394	  0,00915841	-142,8
     35,4413	  0,00956106	-147,5
     35,4433	  0,00952307	-145,1
     35,4453	  0,00971675	-145,5
     35,4472	  0,00937661	-150,2
     35,4492	  0,00963606	-144,2
     35,4511	  0,00941369	-142,8
     35,4531	   0,0092842	-142,6
      35,455	  0,00979695	-146,8
      35,457	  0,00906416	-144,0
     35,4589	  0,00939814	-145,4
     35,4609	  0,00951563	-145,4
     35,4629	  0,00944325	-140,7
     35,4648	  0,00882571	-144,1
     35,4668	  0,00894101	-144,1
     35,4687	  0,00917213	-143,9
     35,4707	  0,00910064	-147,5
     35,4726	  0,00917572	-144,5
     35,4746	   0,0089097	-143,4
     35,4765	  0,00877044	-146,1
     35,4785	  0,00958567	-147,6
     35,4804	  0,00885873	-146,7
     35,4824	  0,00908014	-144,7
     35,4844	    0,009226	-143,2
     35,4863	  0,00874439	-144,0
     35,4883	  0,00925566	-146,1
     35,4902	  0,00887765	-146,8
     35,4922	  0,00898137	-143,1
     35,4941	  0,00870472	-143,3
     35,4961	  0,00854081	-143,5
      35,498	  0,00861779	-142,7
        35,5	  0,00903026	-148,7

