X-Data [Hz]	Piezo (M - Filtered) [mV]	Phase [Deg]	
	002: [07-01-24 16:57]	
        33,5	     2,68636	-90,6
      33,502	     2,84489	-91,7
     33,5039	     2,92365	-92,2
     33,5059	     2,95853	-91,5
     33,5078	     2,92933	-91,5
     33,5098	     2,93424	-91,8
     33,5117	     3,01525	-91,0
     33,5137	      2,9708	-92,6
     33,5156	     2,97637	-91,3
     33,5176	     3,00032	-90,1
     33,5196	     2,97412	-91,8
     33,5215	     3,03672	-90,6
     33,5235	     3,02664	-91,6
     33,5254	     3,01255	-91,2
     33,5274	     2,99841	-92,0
     33,5293	     3,02377	-90,5
     33,5313	      3,0707	-90,6
     33,5332	     3,03532	-91,4
     33,5352	     3,07492	-89,7
     33,5371	     3,07557	-90,1
     33,5391	     3,10204	-90,3
     33,5411	      3,0703	-91,2
      33,543	     3,11675	-89,5
      33,545	     3,10227	-90,8
     33,5469	     3,10415	-90,8
     33,5489	     3,08761	-91,1
     33,5508	     3,11217	-89,5
     33,5528	      3,1459	-90,7
     33,5547	     3,14286	-89,7
     33,5567	     3,17186	-88,9
     33,5587	     3,14594	-89,9
     33,5606	     3,17402	-88,4
     33,5626	     3,17341	-89,7
     33,5645	     3,15505	-90,3
     33,5665	      3,1891	-89,5
     33,5684	     3,19271	-88,2
     33,5704	     3,23108	-89,3
     33,5723	      3,1905	-90,2
     33,5743	     3,20198	-88,9
     33,5762	     3,23934	-87,9
     33,5782	     3,19743	-89,7
     33,5802	     3,22971	-88,1
     33,5821	     3,26201	-87,8
     33,5841	     3,25103	-88,5
      33,586	     3,24951	-88,2
      33,588	     3,28793	-87,9
     33,5899	     3,30572	-88,4
     33,5919	     3,25969	-89,0
     33,5938	     3,30509	-87,1
     33,5958	     3,30682	-88,4
     33,5978	     3,28359	-89,0
     33,5997	     3,33733	-87,2
     33,6017	      3,3365	-87,3
     33,6036	     3,32121	-88,2
     33,6056	     3,32632	-88,3
     33,6075	     3,35566	-87,0
     33,6095	     3,39148	-86,9
     33,6114	     3,36378	-88,7
     33,6134	     3,38625	-86,8
     33,6153	     3,40895	-87,2
     33,6173	     3,41021	-87,4
     33,6193	     3,39769	-88,7
     33,6212	     3,40723	-87,5
     33,6232	     3,45092	-86,9
     33,6251	     3,41746	-87,1
     33,6271	     3,43241	-87,2
      33,629	     3,47385	-86,2
      33,631	     3,47787	-86,0
     33,6329	     3,44539	-87,4
     33,6349	     3,47736	-87,3
     33,6369	     3,49329	-85,8
     33,6388	     3,50721	-85,9
     33,6408	     3,51397	-85,1
     33,6427	     3,52232	-85,4
     33,6447	     3,52231	-85,6
     33,6466	     3,53388	-85,6
     33,6486	     3,52276	-86,6
     33,6505	     3,56655	-84,9
     33,6525	     3,56754	-85,1
     33,6544	     3,56044	-85,2
     33,6564	      3,5717	-86,0
     33,6584	     3,59595	-86,2
     33,6603	     3,61236	-84,7
     33,6623	     3,60715	-85,8
     33,6642	     3,59375	-85,4
     33,6662	     3,62802	-84,4
     33,6681	     3,64997	-84,0
     33,6701	     3,62458	-85,3
      33,672	      3,6494	-84,5
      33,674	     3,67411	-83,3
      33,676	      3,6605	-84,9
     33,6779	     3,69484	-84,0
     33,6799	     3,70314	-83,8
     33,6818	     3,68714	-83,1
     33,6838	     3,67884	-84,2
     33,6857	      3,6972	-84,2
     33,6877	     3,74094	-82,7
     33,6896	     3,74752	-84,0
     33,6916	     3,75128	-83,6
     33,6936	     3,78236	-82,8
     33,6955	     3,76382	-83,7
     33,6975	     3,76577	-84,1
     33,6994	     3,79683	-83,9
     33,7014	     3,80884	-82,9
     33,7033	     3,80487	-82,1
     33,7053	     3,81437	-83,0
     33,7072	     3,82698	-83,4
     33,7092	     3,82541	-82,8
     33,7111	     3,85281	-81,8
     33,7131	     3,86624	-82,3
     33,7151	     3,84997	-83,4
      33,717	     3,87152	-81,7
      33,719	     3,88937	-81,1
     33,7209	     3,90868	-81,2
     33,7229	      3,9271	-80,8
     33,7248	     3,91757	-82,5
     33,7268	     3,92858	-81,2
     33,7287	     3,94072	-79,9
     33,7307	     3,94941	-80,8
     33,7327	     3,96009	-81,3
     33,7346	     3,98919	-80,9
     33,7366	     3,99028	-79,9
     33,7385	      3,9751	-81,1
     33,7405	     4,01247	-79,7
     33,7424	     4,02877	-79,5
     33,7444	     4,03627	-79,2
     33,7463	     4,02982	-81,2
     33,7483	     4,04223	-80,3
     33,7502	     4,06164	-79,2
     33,7522	     4,07789	-79,4
     33,7542	     4,06009	-80,6
     33,7561	     4,08696	-79,6
     33,7581	     4,11334	-78,8
       33,76	     4,10787	-79,0
      33,762	     4,09922	-79,8
     33,7639	     4,14522	-78,4
     33,7659	     4,14374	-78,7
     33,7678	     4,15883	-78,7
     33,7698	     4,15104	-79,1
     33,7718	     4,17386	-77,6
     33,7737	     4,20365	-77,6
     33,7757	      4,1872	-78,9
     33,7776	     4,20142	-77,7
     33,7796	     4,24845	-77,2
     33,7815	       4,249	-77,8
     33,7835	     4,22802	-78,8
     33,7854	     4,25037	-77,9
     33,7874	       4,257	-77,9
     33,7893	     4,30488	-76,4
     33,7913	     4,30254	-76,5
     33,7933	      4,2848	-77,3
     33,7952	     4,29653	-76,5
     33,7972	     4,32315	-76,1
     33,7991	     4,32747	-75,9
     33,8011	     4,31598	-77,2
      33,803	     4,33063	-76,8
      33,805	      4,3701	-75,5
     33,8069	     4,39466	-74,9
     33,8089	     4,41173	-75,2
     33,8109	     4,40901	-75,6
     33,8128	     4,38656	-76,2
     33,8148	     4,38154	-75,8
     33,8167	     4,41958	-74,6
     33,8187	     4,46487	-74,5
     33,8206	     4,45465	-75,1
     33,8226	     4,45236	-75,1
     33,8245	     4,46838	-74,0
     33,8265	     4,50807	-74,2
     33,8284	     4,51285	-73,7
     33,8304	     4,50672	-74,5
     33,8324	     4,53592	-72,9
     33,8343	      4,5422	-74,0
     33,8363	     4,53079	-74,3
     33,8382	     4,53349	-72,5
     33,8402	     4,57407	-72,7
     33,8421	     4,58647	-72,8
     33,8441	      4,6118	-72,9
      33,846	     4,58853	-73,3
      33,848	     4,61401	-73,1
       33,85	     4,61936	-72,3
     33,8519	     4,63312	-72,3
     33,8539	     4,61556	-72,0
     33,8558	     4,66579	-72,5
     33,8578	     4,67322	-71,3
     33,8597	     4,69613	-71,5
     33,8617	     4,69394	-72,1
     33,8636	     4,69556	-72,1
     33,8656	     4,69902	-71,8
     33,8675	     4,74052	-71,5
     33,8695	     4,77619	-70,8
     33,8715	     4,76239	-69,7
     33,8734	     4,74944	-71,2
     33,8754	      4,7752	-70,3
     33,8773	     4,81969	-70,1
     33,8793	     4,82576	-69,4
     33,8812	      4,8225	-70,3
     33,8832	      4,8154	-70,5
     33,8851	     4,85681	-68,8
     33,8871	     4,84854	-69,6
     33,8891	     4,86367	-68,5
      33,891	     4,89522	-68,1
      33,893	      4,9094	-69,2
     33,8949	     4,92668	-68,7
     33,8969	     4,91215	-68,2
     33,8988	     4,91487	-69,0
     33,9008	     4,94232	-68,5
     33,9027	     4,98376	-67,6
     33,9047	     4,98324	-67,1
     33,9066	     4,97245	-67,4
     33,9086	      5,0016	-67,2
     33,9106	     5,01052	-67,0
     33,9125	      4,9999	-67,9
     33,9145	     5,05307	-66,3
     33,9164	     5,02782	-67,0
     33,9184	     5,02011	-67,3
     33,9203	     5,04822	-67,1
     33,9223	     5,09447	-66,2
     33,9242	     5,12505	-65,2
     33,9262	     5,10031	-66,2
     33,9282	     5,11496	-65,6
     33,9301	     5,14925	-65,4
     33,9321	     5,12697	-66,3
      33,934	     5,15757	-65,1
      33,936	     5,16052	-64,7
     33,9379	     5,16067	-65,2
     33,9399	     5,16711	-65,6
     33,9418	     5,18442	-65,2
     33,9438	     5,23485	-63,2
     33,9457	     5,23176	-63,8
     33,9477	     5,23094	-64,8
     33,9497	     5,23639	-64,4
     33,9516	     5,28902	-63,2
     33,9536	     5,29768	-62,2
     33,9555	     5,33483	-62,6
     33,9575	     5,32954	-62,7
     33,9594	     5,30204	-63,0
     33,9614	     5,30122	-62,6
     33,9633	     5,34226	-62,4
     33,9653	     5,37669	-61,6
     33,9673	     5,41833	-61,8
     33,9692	     5,39811	-62,0
     33,9712	     5,39472	-61,8
     33,9731	     5,41687	-61,5
     33,9751	     5,43064	-61,7
      33,977	     5,46749	-60,1
      33,979	     5,49272	-60,1
     33,9809	      5,5079	-60,0
     33,9829	     5,50813	-60,0
     33,9848	     5,51274	-59,8
     33,9868	     5,50398	-60,4
     33,9888	      5,5406	-60,4
     33,9907	     5,53662	-60,5
     33,9927	     5,55542	-60,0
     33,9946	     5,56957	-59,3
     33,9966	     5,60504	-58,7
     33,9985	     5,60583	-58,6
     34,0005	     5,61027	-58,7
     34,0024	     5,61339	-59,0
     34,0044	     5,66328	-58,6
     34,0064	     5,64227	-58,4
     34,0083	     5,71034	-57,1
     34,0103	     5,70792	-56,6
     34,0122	     5,68706	-58,1
     34,0142	     5,69807	-58,3
     34,0161	     5,74677	-56,1
     34,0181	     5,75489	-56,5
       34,02	     5,75244	-57,1
      34,022	     5,74736	-56,5
     34,0239	      5,7739	-56,2
     34,0259	     5,81635	-55,5
     34,0279	     5,84894	-54,8
     34,0298	     5,81267	-55,4
     34,0318	     5,82264	-56,0
     34,0337	     5,84576	-54,6
     34,0357	     5,86105	-55,0
     34,0376	     5,86656	-55,0
     34,0396	     5,90708	-54,3
     34,0415	     5,92287	-53,3
     34,0435	     5,94024	-53,1
     34,0455	      5,9266	-54,5
     34,0474	     5,95674	-53,9
     34,0494	      5,9843	-53,0
     34,0513	     5,99363	-52,8
     34,0533	     5,99762	-52,3
     34,0552	     5,98117	-53,0
     34,0572	     6,02141	-53,5
     34,0591	     6,03136	-52,8
     34,0611	     6,07066	-51,8
      34,063	     6,09781	-51,2
      34,065	     6,11633	-51,4
      34,067	     6,13046	-51,1
     34,0689	     6,14236	-50,7
     34,0709	     6,16164	-50,3
     34,0728	     6,15779	-50,6
     34,0748	     6,14274	-51,4
     34,0767	     6,17034	-50,8
     34,0787	     6,17014	-50,8
     34,0806	     6,22975	-50,0
     34,0826	     6,24324	-49,5
     34,0846	     6,27366	-48,8
     34,0865	     6,29204	-48,2
     34,0885	     6,31833	-48,1
     34,0904	     6,29447	-48,3
     34,0924	     6,28382	-48,7
     34,0943	     6,32885	-47,9
     34,0963	     6,34354	-47,9
     34,0982	     6,35264	-48,0
     34,1002	     6,36961	-47,1
     34,1021	     6,40276	-47,4
     34,1041	      6,4176	-46,6
     34,1061	     6,43086	-46,4
      34,108	     6,45557	-45,1
       34,11	     6,46548	-45,4
     34,1119	     6,47313	-45,2
     34,1139	     6,49983	-45,5
     34,1158	     6,52229	-44,4
     34,1178	     6,50797	-44,7
     34,1197	     6,51922	-45,1
     34,1217	     6,55063	-44,8
     34,1237	     6,55711	-44,5
     34,1256	     6,56037	-44,3
     34,1276	      6,5851	-43,6
     34,1295	     6,60444	-43,1
     34,1315	     6,63491	-43,6
     34,1334	     6,65128	-42,3
     34,1354	     6,67258	-42,0
     34,1373	     6,68424	-41,6
     34,1393	     6,69233	-41,5
     34,1413	     6,70753	-41,4
     34,1432	     6,72984	-41,0
     34,1452	     6,74751	-40,2
     34,1471	     6,76797	-40,7
     34,1491	     6,79121	-40,5
      34,151	     6,78964	-40,1
      34,153	     6,78881	-39,5
     34,1549	     6,80803	-39,7
     34,1569	     6,81969	-38,8
     34,1588	     6,82743	-38,8
     34,1608	     6,83138	-39,4
     34,1628	     6,84071	-39,6
     34,1647	      6,8606	-38,1
     34,1667	       6,887	-38,1
     34,1686	      6,8815	-38,2
     34,1706	     6,89742	-38,2
     34,1725	     6,91277	-37,0
     34,1745	     6,95006	-37,3
     34,1764	     6,94064	-36,7
     34,1784	     6,94464	-36,5
     34,1804	      6,9787	-35,4
     34,1823	     6,99435	-35,6
     34,1843	     7,01619	-34,3
     34,1862	     7,01904	-34,4
     34,1882	     7,00448	-34,6
     34,1901	      7,0389	-34,3
     34,1921	     7,04338	-34,1
      34,194	     7,07814	-33,5
      34,196	     7,08159	-33,0
     34,1979	     7,07197	-33,3
     34,1999	     7,09307	-32,9
     34,2019	     7,09698	-32,8
     34,2038	     7,09398	-32,2
     34,2058	     7,12684	-31,5
     34,2077	     7,10088	-31,8
     34,2097	      7,1335	-31,8
     34,2116	     7,11325	-32,0
     34,2136	     7,02584	-31,1
     34,2155	     7,12356	-30,6
     34,2175	     7,17474	-30,6
     34,2195	     7,20668	-29,8
     34,2214	     7,22651	-29,8
     34,2234	     7,21514	-29,1
     34,2253	     7,23085	-28,3
     34,2273	     7,24406	-28,1
     34,2292	     7,24463	-27,4
     34,2312	     7,24949	-27,0
     34,2331	     7,26821	-27,2
     34,2351	     7,25923	-27,0
      34,237	     7,28038	-26,1
      34,239	     7,28378	-26,2
      34,241	      7,2653	-26,1
     34,2429	     7,26807	-26,2
     34,2449	     7,25804	-25,9
     34,2468	     7,23616	-26,1
     34,2488	     7,27662	-25,1
     34,2507	      7,3322	-25,5
     34,2527	     7,30367	-24,2
     34,2546	     7,31585	-24,1
     34,2566	     7,30282	-23,3
     34,2586	     7,32709	-23,0
     34,2605	     7,34993	-22,5
     34,2625	     7,33486	-23,0
     34,2644	     7,34068	-22,9
     34,2664	     7,36311	-22,1
     34,2683	     7,35083	-21,3
     34,2703	     7,37194	-21,3
     34,2722	     7,33812	-20,6
     34,2742	     7,33173	-20,5
     34,2761	     7,32429	-20,5
     34,2781	     7,34201	-20,3
     34,2801	     7,37251	-19,8
      34,282	     7,38543	-19,1
      34,284	     7,39432	-18,8
     34,2859	     7,38445	-18,7
     34,2879	     7,36403	-18,4
     34,2898	     7,35252	-18,8
     34,2918	     7,33124	-18,3
     34,2937	     7,34424	-18,4
     34,2957	     7,36447	-17,4
     34,2977	     7,36817	-17,4
     34,2996	     7,40009	-16,5
     34,3016	     7,38069	-16,3
     34,3035	      7,3712	-15,7
     34,3055	     7,35726	-15,9
     34,3074	     7,34103	-15,7
     34,3094	     7,35252	-14,2
     34,3113	     7,35345	-15,0
     34,3133	     7,33552	-15,0
     34,3153	     7,34836	-13,6
     34,3172	     7,36367	-13,8
     34,3192	     7,33498	-13,1
     34,3211	      7,3113	-13,9
     34,3231	     7,31481	-13,3
      34,325	     7,30925	-13,4
      34,327	     7,34087	-12,0
     34,3289	     7,34272	-12,0
     34,3309	     7,32146	-11,7
     34,3328	     7,35358	-11,9
     34,3348	     7,33003	-11,0
     34,3368	      7,2912	-11,3
     34,3387	     7,30698	-10,6
     34,3407	     7,32479	-10,1
     34,3426	     7,28173	-9,9
     34,3446	     7,27643	-8,9
     34,3465	     7,26925	-9,5
     34,3485	     7,26238	-9,4
     34,3504	     7,25223	-8,9
     34,3524	     7,24903	-8,8
     34,3544	     7,24066	-8,6
     34,3563	     7,23242	-8,7
     34,3583	     7,20864	-8,4
     34,3602	     7,23744	-7,6
     34,3622	      7,2354	-6,8
     34,3641	     7,21117	-6,0
     34,3661	     7,19728	-7,6
      34,368	     7,20832	-6,7
       34,37	     7,18334	-5,8
     34,3719	     7,18656	-5,6
     34,3739	     7,15604	-6,2
     34,3759	      7,1425	-5,6
     34,3778	     7,17268	-4,2
     34,3798	     7,16583	-4,6
     34,3817	     7,13472	-4,5
     34,3837	     7,12404	-3,7
     34,3856	     7,10976	-3,6
     34,3876	     7,10143	-3,7
     34,3895	     7,08429	-3,4
     34,3915	     7,06943	-3,8
     34,3935	     7,07534	-2,9
     34,3954	     7,05433	-2,7
     34,3974	     7,04756	-2,1
     34,3993	     7,02631	-2,4
     34,4013	     7,05742	-2,3
     34,4032	     7,05254	-1,8
     34,4052	     7,03573	-1,2
     34,4071	     6,98287	-1,2
     34,4091	     6,99303	-1,2
      34,411	     6,99475	-0,7
      34,413	     6,95299	-0,9
      34,415	     6,95821	-0,4
     34,4169	      6,9588	 0,4
     34,4189	     6,93329	 0,2
     34,4208	     6,89804	 0,9
     34,4228	     6,90665	 1,2
     34,4247	     6,89051	 1,6
     34,4267	     6,87168	 1,3
     34,4286	     6,87295	 1,8
     34,4306	     6,85406	 2,8
     34,4326	     6,83398	 3,3
     34,4345	     6,82702	 2,7
     34,4365	     6,80168	 2,8
     34,4384	     6,80984	 3,2
     34,4404	     6,80866	 3,2
     34,4423	     6,78452	 3,7
     34,4443	     6,76738	 3,7
     34,4462	     6,77718	 3,9
     34,4482	     6,78782	 4,3
     34,4501	     6,76136	 4,8
     34,4521	     6,73395	 4,3
     34,4541	     6,73135	 5,1
      34,456	     6,67474	 5,6
      34,458	     6,63888	 5,4
     34,4599	     6,62952	 5,7
     34,4619	     6,63541	 5,6
     34,4638	     6,62151	 6,1
     34,4658	     6,63599	 7,2
     34,4677	     6,53778	 6,6
     34,4697	     6,63002	 6,2
     34,4717	     6,56204	 7,8
     34,4736	     6,52697	 8,0
     34,4756	     6,50499	 8,3
     34,4775	     6,49334	 7,4
     34,4795	     6,55142	 8,2
     34,4814	     6,52615	 8,5
     34,4834	     6,48827	 8,6
     34,4853	     6,49118	 9,4
     34,4873	     6,44999	 9,3
     34,4892	     6,49649	 9,6
     34,4912	     6,42849	 9,5
     34,4932	     6,43237	 9,7
     34,4951	     6,43398	 9,5
     34,4971	     6,39134	 9,5
      34,499	     6,36301	 9,5
      34,501	     6,36872	 9,7
     34,5029	     6,36188	 9,7
     34,5049	     6,32288	 9,9
     34,5068	      6,3089	10,3
     34,5088	     6,28276	10,4
     34,5108	      6,2991	11,2
     34,5127	     6,31409	12,0
     34,5147	     6,29673	12,1
     34,5166	     6,29582	11,6
     34,5186	     6,26742	12,2
     34,5205	     6,24931	12,1
     34,5225	     6,19822	12,1
     34,5244	     6,19683	12,8
     34,5264	     6,18755	13,0
     34,5283	     6,15422	12,8
     34,5303	     6,18168	13,2
     34,5323	     6,17816	13,6
     34,5342	     6,09879	13,2
     34,5362	     6,10329	13,3
     34,5381	     6,08691	14,3
     34,5401	     6,04251	13,8
      34,542	     6,07219	13,8
      34,544	     6,09668	14,6
     34,5459	      6,0677	14,7
     34,5479	     6,03078	14,6
     34,5499	     6,01578	14,6
     34,5518	     5,98592	14,7
     34,5538	      5,9599	15,2
     34,5557	     5,99451	15,7
     34,5577	     5,97712	16,4
     34,5596	     5,96185	15,8
     34,5616	     5,93558	16,0
     34,5635	     5,91195	16,2
     34,5655	      5,9001	16,4
     34,5674	     5,91898	16,3
     34,5694	     5,89601	16,6
     34,5714	      5,9077	16,7
     34,5733	     5,88622	16,9
     34,5753	     5,85562	17,3
     34,5772	     5,83663	17,2
     34,5792	      5,8263	17,5
     34,5811	     5,80027	17,7
     34,5831	     5,78312	18,0
      34,585	     5,76003	17,8
      34,587	      5,7802	18,7
      34,589	     5,74098	18,5
     34,5909	     5,70534	18,5
     34,5929	     5,69412	18,9
     34,5948	     5,68475	19,0
     34,5968	     5,67428	19,2
     34,5987	     5,63266	19,1
     34,6007	     5,65951	19,6
     34,6026	     5,63898	19,1
     34,6046	     5,61924	18,9
     34,6065	     5,60689	19,6
     34,6085	     5,58226	19,7
     34,6105	     5,59484	19,9
     34,6124	     5,54447	20,2
     34,6144	     5,50251	20,2
     34,6163	     5,52851	20,5
     34,6183	     5,54197	20,4
     34,6202	     5,53097	20,3
     34,6222	     5,49271	20,9
     34,6241	     5,47614	20,7
     34,6261	     5,48508	21,3
     34,6281	     5,45299	20,7
       34,63	     5,40693	21,6
      34,632	     5,39522	22,1
     34,6339	     5,40739	21,5
     34,6359	       5,373	22,2
     34,6378	     5,40919	22,1
     34,6398	     5,39164	22,3
     34,6417	     5,36101	23,0
     34,6437	     5,35196	22,6
     34,6456	     5,32263	22,6
     34,6476	     5,29951	22,0
     34,6496	     5,30934	23,7
     34,6515	     5,27619	23,4
     34,6535	      5,2576	23,7
     34,6554	     5,28534	23,1
     34,6574	     5,27348	23,3
     34,6593	      5,2473	23,6
     34,6613	     5,22016	23,6
     34,6632	     5,20163	23,8
     34,6652	     5,17252	23,6
     34,6672	     5,18027	23,8
     34,6691	     5,14371	24,9
     34,6711	     5,17496	25,1
      34,673	     5,15855	24,9
      34,675	     5,14157	24,5
     34,6769	     5,12382	25,3
     34,6789	     5,09568	24,2
     34,6808	     5,05631	25,2
     34,6828	     5,03565	25,2
     34,6847	     5,04321	24,2
     34,6867	     5,02772	25,3
     34,6887	      5,0406	26,3
     34,6906	     5,02594	25,4
     34,6926	     4,99662	25,3
     34,6945	     4,98013	26,5
     34,6965	     4,95031	25,7
     34,6984	     4,92563	26,0
     34,7004	     4,97237	26,3
     34,7023	     4,96578	26,7
     34,7043	     4,92104	26,7
     34,7063	     4,90554	26,6
     34,7082	     4,88257	27,1
     34,7102	     4,85209	26,1
     34,7121	     4,84447	26,9
     34,7141	     4,83573	27,2
      34,716	     4,84478	27,1
      34,718	     4,86862	28,2
     34,7199	      4,8824	27,9
     34,7219	     4,75634	27,0
     34,7239	     4,73722	26,8
     34,7258	     4,74568	27,9
     34,7278	     4,74794	27,9
     34,7297	     4,73022	28,3
     34,7317	     4,77559	28,4
     34,7336	     4,77697	28,8
     34,7356	     4,76515	29,3
     34,7375	     4,71725	28,5
     34,7395	     4,67992	28,6
     34,7414	     4,68075	28,6
     34,7434	     4,65385	28,9
     34,7454	     4,65598	29,2
     34,7473	     4,68482	29,2
     34,7493	     4,64205	29,6
     34,7512	     4,56881	29,2
     34,7532	     4,55005	28,9
     34,7551	     4,57049	29,4
     34,7571	     4,62126	30,8
      34,759	     4,61876	30,0
      34,761	     4,60333	30,1
      34,763	     4,53723	30,3
     34,7649	     4,50353	29,5
     34,7669	     4,48535	29,5
     34,7688	     4,45835	29,7
     34,7708	     4,45674	29,9
     34,7727	     4,47575	30,0
     34,7747	      4,5253	30,6
     34,7766	     4,44224	32,1
     34,7786	     4,40924	31,3
     34,7805	     4,39762	31,2
     34,7825	     4,42007	30,8
     34,7845	     4,49202	30,9
     34,7864	     4,43509	31,5
     34,7884	     4,37152	31,8
     34,7903	     4,36168	31,0
     34,7923	     4,32272	31,3
     34,7942	     4,30312	30,8
     34,7962	     4,35311	31,2
     34,7981	     4,35181	32,2
     34,8001	     4,31092	31,7
     34,8021	     4,28651	31,6
      34,804	     4,28684	31,8
      34,806	     4,29528	32,2
     34,8079	     4,31332	33,2
     34,8099	     4,26026	32,3
     34,8118	     4,23983	31,9
     34,8138	     4,20778	31,9
     34,8157	     4,26501	33,3
     34,8177	     4,26764	33,0
     34,8196	     4,25999	33,2
     34,8216	     4,19287	33,2
     34,8236	     4,17899	32,1
     34,8255	     4,12326	31,9
     34,8275	      4,1349	32,9
     34,8294	     4,13707	33,3
     34,8314	     4,19864	33,1
     34,8333	      4,2007	33,9
     34,8353	     4,16394	33,4
     34,8372	     4,13661	34,1
     34,8392	     4,08996	33,7
     34,8412	     4,08828	32,8
     34,8431	     4,03446	33,7
     34,8451	     4,09451	34,1
      34,847	     4,09989	33,9
      34,849	     4,09118	34,6
     34,8509	     4,01383	33,5
     34,8529	     3,99312	33,6
     34,8548	     3,98027	33,8
     34,8568	     4,00056	34,2
     34,8587	     4,04802	34,6
     34,8607	     3,99614	35,0
     34,8627	     3,97143	34,3
     34,8646	     4,01479	34,7
     34,8666	     3,99326	35,6
     34,8685	     3,96755	35,2
     34,8705	     3,94443	34,4
     34,8724	      3,9307	34,5
     34,8744	     3,88536	34,8
     34,8763	     3,90685	34,6
     34,8783	     3,96172	35,0
     34,8803	     3,94909	35,7
     34,8822	     3,89046	35,0
     34,8842	     3,87549	35,4
     34,8861	      3,8908	35,5
     34,8881	     3,84874	35,0
       34,89	     3,81459	36,3
      34,892	     3,82032	35,0
     34,8939	     3,82072	35,4
     34,8959	     3,78429	35,9
     34,8979	     3,77249	34,6
     34,8998	     3,84654	36,7
     34,9018	     3,83352	36,0
     34,9037	     3,82714	36,4
     34,9057	     3,77211	36,5
     34,9076	     3,72392	36,2
     34,9096	     3,70629	35,4
     34,9115	     3,73188	36,3
     34,9135	     3,77689	36,7
     34,9154	     3,75906	36,9
     34,9174	     3,74649	36,3
     34,9194	     3,70245	35,7
     34,9213	      3,7442	36,5
     34,9233	     3,66358	36,9
     34,9252	     3,69858	37,2
     34,9272	      3,6895	37,5
     34,9291	     3,65876	37,3
     34,9311	     3,63403	36,5
      34,933	     3,59788	37,3
      34,935	     3,62366	36,0
      34,937	     3,62284	37,2
     34,9389	      3,6559	37,8
     34,9409	     3,63133	37,9
     34,9428	     3,63607	37,2
     34,9448	     3,55496	36,8
     34,9467	     3,57703	37,0
     34,9487	     3,59835	37,7
     34,9506	     3,62201	37,7
     34,9526	     3,56596	38,1
     34,9545	     3,55678	37,6
     34,9565	     3,58029	38,4
     34,9585	     3,55042	38,0
     34,9604	     3,53238	36,9
     34,9624	     3,48028	37,3
     34,9643	     3,53426	38,8
     34,9663	     3,45113	37,4
     34,9682	     3,49291	38,1
     34,9702	     3,52308	38,4
     34,9721	     3,51375	37,9
     34,9741	     3,46343	38,1
     34,9761	     3,40921	38,1
      34,978	     3,45535	38,0
       34,98	     3,46107	38,8
     34,9819	     3,41887	37,2
     34,9839	     3,41635	38,1
     34,9858	     3,45082	39,3
     34,9878	      3,4012	39,0
     34,9897	     3,35594	38,0
     34,9917	     3,37211	37,9
     34,9936	     3,39961	38,9
     34,9956	     3,34891	38,0
     34,9976	     3,33884	38,2
     34,9995	     3,35893	38,9
     35,0015	       3,382	38,9
     35,0034	     3,35785	38,9
     35,0054	     3,29777	38,6
     35,0073	     3,30573	39,0
     35,0093	     3,34652	39,6
     35,0112	     3,28688	39,0
     35,0132	     3,32228	38,9
     35,0152	     3,31425	39,4
     35,0171	     3,27443	39,2
     35,0191	     3,26673	39,2
      35,021	     3,27265	39,2
      35,023	     3,29722	40,0
     35,0249	     3,25104	38,7
     35,0269	     3,27267	39,5
     35,0288	     3,29704	39,7
     35,0308	     3,22948	39,6
     35,0327	     3,21695	40,0
     35,0347	     3,19457	39,4
     35,0367	     3,19769	39,8
     35,0386	     3,19904	39,2
     35,0406	     3,23125	40,5
     35,0425	     3,22349	40,7
     35,0445	      3,1624	39,9
     35,0464	     3,19874	40,1
     35,0484	     3,20801	40,0
     35,0503	     3,16699	41,1
     35,0523	     3,14792	40,0
     35,0543	     3,17018	41,0
     35,0562	     3,16949	41,0
     35,0582	     3,11684	39,3
     35,0601	     3,13635	40,5
     35,0621	     3,15036	40,8
      35,064	     3,13347	41,2
      35,066	     3,09067	39,6
     35,0679	     3,13875	41,2
     35,0699	     3,07211	40,4
     35,0718	     3,04612	39,4
     35,0738	     3,07433	40,7
     35,0758	     3,08518	41,2
     35,0777	     3,06655	41,0
     35,0797	     3,03452	39,9
     35,0816	     3,07423	40,5
     35,0836	     3,06475	41,8
     35,0855	     2,99476	39,7
     35,0875	     3,05662	41,9
     35,0894	     3,06035	41,7
     35,0914	     3,03347	42,0
     35,0934	     2,96699	40,3
     35,0953	     3,04964	41,3
     35,0973	     2,95556	40,4
     35,0992	     2,99498	41,1
     35,1012	     3,02061	42,6
     35,1031	     2,98818	41,8
     35,1051	     2,95274	40,2
      35,107	     2,92197	40,9
      35,109	     2,98204	41,7
     35,1109	      2,9601	42,1
     35,1129	     2,91892	40,9
     35,1149	     2,94775	40,9
     35,1168	     2,97444	41,8
     35,1188	     2,93352	42,2
     35,1207	     2,92649	41,7
     35,1227	     2,94707	41,9
     35,1246	     2,88828	41,9
     35,1266	     2,84568	40,8
     35,1285	     2,91757	41,9
     35,1305	     2,91993	42,8
     35,1325	     2,87415	42,3
     35,1344	     2,86676	41,6
     35,1364	     2,87299	42,3
     35,1383	     2,89127	42,1
     35,1403	     2,86539	42,5
     35,1422	     2,83763	42,0
     35,1442	     2,84945	41,9
     35,1461	     2,81123	41,1
     35,1481	     2,78553	40,7
       35,15	     2,83816	41,7
      35,152	     2,81853	42,5
      35,154	     2,77358	41,9
     35,1559	     2,80599	42,5
     35,1579	     2,83749	43,1
     35,1598	     2,77509	41,5
     35,1618	     2,81965	43,1
     35,1637	     2,78985	42,6
     35,1657	     2,74599	41,8
     35,1676	     2,74407	41,8
     35,1696	     2,79008	42,8
     35,1716	     2,75676	42,8
     35,1735	     2,70707	41,2
     35,1755	     2,79185	42,8
     35,1774	     2,70432	41,7
     35,1794	     2,75543	42,9
     35,1813	     2,75853	43,1
     35,1833	     2,69165	41,9
     35,1852	     2,69837	42,0
     35,1872	     2,75439	43,7
     35,1891	     2,70553	42,6
     35,1911	     2,66163	42,0
     35,1931	      2,7122	43,1
      35,195	     2,64871	42,4
      35,197	      2,6965	43,1
     35,1989	     2,66359	43,2
     35,2009	     2,67045	42,4
     35,2028	     2,66438	43,2
     35,2048	     2,70196	43,6
     35,2067	     2,59262	42,2
     35,2087	     2,70479	42,9
     35,2107	     2,65082	43,3
     35,2126	     2,62808	42,0
     35,2146	     2,66124	43,4
     35,2165	     2,60225	42,9
     35,2185	     2,63549	44,0
     35,2204	     2,57472	42,7
     35,2224	     2,65134	42,9
     35,2243	     2,63247	44,4
     35,2263	     2,57546	43,0
     35,2282	     2,60789	44,2
     35,2302	     2,57126	42,1
     35,2322	     2,61599	43,7
     35,2341	     2,62595	44,0
     35,2361	     2,55367	43,0
      35,238	      2,5728	42,7
       35,24	     2,59363	43,2
     35,2419	     2,58958	43,4
     35,2439	       2,514	42,6
     35,2458	     2,57287	43,7
     35,2478	     2,57113	44,5
     35,2498	     2,53984	42,3
     35,2517	     2,54475	43,7
     35,2537	     2,48655	43,1
     35,2556	     2,54687	43,3
     35,2576	       2,562	44,4
     35,2595	     2,48279	44,1
     35,2615	     2,52611	43,1
     35,2634	     2,52175	45,8
     35,2654	     2,51937	44,1
     35,2673	     2,53009	44,0
     35,2693	     2,46047	44,5
     35,2713	     2,49799	44,0
     35,2732	      2,4887	44,7
     35,2752	     2,46598	43,5
     35,2771	     2,45875	43,5
     35,2791	     2,49442	45,0
      35,281	     2,47778	43,6
      35,283	     2,48283	44,5
     35,2849	     2,45326	44,6
     35,2869	     2,41202	43,7
     35,2889	     2,45065	43,4
     35,2908	     2,46001	44,3
     35,2928	     2,38523	43,7
     35,2947	     2,45473	43,6
     35,2967	     2,42269	44,4
     35,2986	     2,38634	43,3
     35,3006	     2,40788	44,6
     35,3025	       2,373	43,1
     35,3045	     2,43293	44,5
     35,3064	     2,38143	44,8
     35,3084	     2,38993	43,8
     35,3104	     2,41494	45,3
     35,3123	     2,35223	44,0
     35,3143	     2,40433	45,1
     35,3162	     2,37479	43,8
     35,3182	       2,392	45,1
     35,3201	     2,36779	44,2
     35,3221	     2,35012	43,8
      35,324	     2,34797	44,0
      35,326	     2,36021	45,1
      35,328	     2,40214	45,0
     35,3299	     2,33237	44,9
     35,3319	     2,32607	43,1
     35,3338	      2,3609	45,4
     35,3358	     2,33236	45,8
     35,3377	     2,31549	43,7
     35,3397	     2,36873	45,4
     35,3416	     2,32299	44,5
     35,3436	     2,27905	44,0
     35,3456	     2,31354	44,9
     35,3475	      2,2637	43,5
     35,3495	     2,34716	45,0
     35,3514	     2,27673	43,7
     35,3534	      2,3292	44,6
     35,3553	     2,28811	45,2
     35,3573	     2,32074	45,1
     35,3592	     2,28849	44,5
     35,3612	     2,26827	43,9
     35,3631	     2,29931	45,2
     35,3651	     2,23856	43,9
     35,3671	     2,23055	43,7
      35,369	     2,28293	45,9
      35,371	     2,24641	45,4
     35,3729	     2,20732	43,2
     35,3749	     2,29826	45,6
     35,3768	     2,22415	44,9
     35,3788	     2,22285	43,4
     35,3807	     2,27636	45,1
     35,3827	     2,22127	45,9
     35,3847	     2,26131	45,3
     35,3866	     2,18578	44,1
     35,3886	     2,21577	45,2
     35,3905	     2,22518	45,1
     35,3925	     2,16289	44,0
     35,3944	      2,2464	45,8
     35,3964	     2,18563	45,2
     35,3983	     2,24788	45,2
     35,4003	      2,1869	45,8
     35,4022	     2,19621	45,4
     35,4042	     2,22105	46,4
     35,4062	     2,13717	44,3
     35,4081	     2,24089	45,7
     35,4101	     2,17086	46,1
      35,412	     2,17742	44,2
      35,414	      2,1304	44,5
     35,4159	     2,19386	46,4
     35,4179	     2,19105	46,2
     35,4198	     2,13149	43,6
     35,4218	      2,1748	45,3
     35,4238	     2,15069	45,8
     35,4257	      2,1031	43,7
     35,4277	     2,16898	46,8
     35,4296	     2,13368	44,4
     35,4316	     2,15979	47,3
     35,4335	      2,0966	42,9
     35,4355	     2,15311	46,5
     35,4374	      2,1113	45,6
     35,4394	     2,11072	45,0
     35,4413	     2,12819	46,0
     35,4433	     2,14565	46,8
     35,4453	     2,08251	45,0
     35,4472	     2,13663	46,0
     35,4492	     2,09919	45,9
     35,4511	     2,06569	44,3
     35,4531	     2,05762	44,6
      35,455	     2,15068	46,4
      35,457	     2,06141	45,4
     35,4589	     2,08659	44,8
     35,4609	     2,10762	46,1
     35,4629	     2,04252	45,0
     35,4648	     2,10968	46,4
     35,4668	     2,06632	44,3
     35,4687	     2,07362	47,2
     35,4707	     2,04361	45,5
     35,4726	     2,09133	45,6
     35,4746	     2,03095	44,7
     35,4765	     2,03401	44,0
     35,4785	     2,11132	46,6
     35,4804	     1,98451	44,8
     35,4824	     2,04153	46,1
     35,4844	     2,01333	44,5
     35,4863	     2,07233	45,9
     35,4883	     2,03358	45,2
     35,4902	      2,0219	44,7
     35,4922	     2,02823	45,6
     35,4941	     2,05618	46,1
     35,4961	     1,98366	44,9
      35,498	      2,0366	46,8
        35,5	     2,01534	46,8

