X-Data [Hz]	Laser (M - Filtered) [m/s]	Phase [Deg]	Laser (M - Filtered) [m/s]	Phase [Deg]	
	002: [07-05-24 13:00]		003: [07-05-24 13:06]	
          40	   0,0290735	70,9	   0,0323359	69,9
     40,0039	   0,0307627	70,3	   0,0322456	70,2
     40,0078	   0,0313917	70,1	   0,0323564	70,2
     40,0117	   0,0315419	70,3	   0,0323736	70,6
     40,0156	   0,0317599	69,9	    0,032485	70,0
     40,0196	   0,0320031	70,2	   0,0324771	70,1
     40,0235	   0,0320773	70,5	   0,0324499	70,3
     40,0274	   0,0320427	70,3	   0,0325185	69,9
     40,0313	   0,0318178	69,8	   0,0323839	70,2
     40,0352	   0,0319722	70,1	   0,0324995	70,3
     40,0391	   0,0317483	69,7	   0,0325998	70,1
      40,043	    0,031863	69,6	   0,0325497	70,6
     40,0469	   0,0323095	70,5	   0,0325804	70,4
     40,0508	   0,0324472	70,6	   0,0326435	70,4
     40,0547	    0,031912	69,8	   0,0326901	70,4
     40,0587	   0,0320372	70,2	   0,0327509	70,1
     40,0626	   0,0325593	70,5	   0,0326969	70,4
     40,0665	   0,0326254	69,8	   0,0329394	70,1
     40,0704	   0,0326547	70,3	   0,0329521	70,1
     40,0743	   0,0325913	70,3	   0,0324547	70,2
     40,0782	   0,0319548	69,8	   0,0328311	70,2
     40,0821	    0,032535	70,2	   0,0329381	70,3
      40,086	   0,0326403	70,2	   0,0325859	69,9
     40,0899	   0,0322442	70,1	   0,0330464	70,2
     40,0938	    0,032367	70,0	   0,0330093	70,5
     40,0978	   0,0320441	69,9	   0,0330122	70,1
     40,1017	   0,0327151	70,1	   0,0330834	69,9
     40,1056	   0,0326354	70,6	   0,0331324	70,6
     40,1095	   0,0324738	69,9	   0,0331699	70,5
     40,1134	    0,032593	70,2	   0,0331628	70,2
     40,1173	   0,0322314	70,5	   0,0331802	70,6
     40,1212	    0,032594	70,3	   0,0330874	70,5
     40,1251	   0,0325847	70,1	   0,0331797	70,4
      40,129	   0,0326527	70,4	   0,0331244	70,9
     40,1329	   0,0328291	70,0	   0,0333873	71,5
     40,1369	   0,0331536	69,9	   0,0333813	70,7
     40,1408	   0,0325943	70,1	    0,033411	70,3
     40,1447	   0,0328125	70,2	   0,0331811	70,2
     40,1486	   0,0330387	70,2	   0,0329553	70,6
     40,1525	   0,0333764	70,3	   0,0333748	70,2
     40,1564	   0,0328618	70,4	   0,0331949	69,3
     40,1603	   0,0334185	70,8	   0,0332141	70,1
     40,1642	   0,0327511	69,8	   0,0335703	70,3
     40,1681	   0,0334397	70,1	   0,0335835	70,2
      40,172	   0,0329715	70,3	   0,0333462	70,5
      40,176	   0,0333804	70,0	   0,0336703	70,4
     40,1799	   0,0330796	69,9	   0,0337589	70,2
     40,1838	   0,0332867	70,2	   0,0335476	70,5
     40,1877	   0,0334904	70,2	   0,0338336	70,5
     40,1916	   0,0335437	70,1	   0,0338327	70,1
     40,1955	   0,0333428	70,1	   0,0338914	70,1
     40,1994	   0,0332332	70,2	   0,0337366	70,5
     40,2033	   0,0335188	70,0	   0,0335538	70,3
     40,2072	   0,0338032	70,0	   0,0338979	70,2
     40,2111	   0,0337856	70,3	   0,0339649	70,5
     40,2151	   0,0335733	70,2	   0,0337498	70,5
      40,219	   0,0338066	70,2	   0,0337496	70,1
     40,2229	   0,0333894	70,1	   0,0337453	70,2
     40,2268	   0,0336208	70,6	   0,0335492	69,8
     40,2307	    0,033685	70,3	   0,0337194	70,5
     40,2346	   0,0336366	70,1	   0,0341468	70,6
     40,2385	   0,0335518	70,3	   0,0342647	70,4
     40,2424	   0,0334338	70,2	   0,0336016	70,2
     40,2463	   0,0335047	70,1	   0,0343569	70,8
     40,2502	   0,0338528	70,3	   0,0335311	70,4
     40,2542	   0,0336752	70,6	   0,0338044	70,1
     40,2581	   0,0338773	70,7	   0,0339937	70,5
      40,262	    0,033498	70,4	   0,0344792	70,5
     40,2659	   0,0335714	69,7	   0,0345419	70,5
     40,2698	   0,0338926	70,7	   0,0342534	70,5
     40,2737	   0,0340922	70,5	   0,0342227	70,7
     40,2776	   0,0336685	69,9	   0,0346925	70,7
     40,2815	   0,0336226	69,9	   0,0347231	70,1
     40,2854	   0,0341006	70,2	   0,0347029	70,3
     40,2893	   0,0339901	70,5	   0,0347549	70,6
     40,2933	   0,0338844	70,2	   0,0347368	70,7
     40,2972	   0,0341125	70,2	   0,0348264	70,4
     40,3011	    0,034158	70,7	   0,0348886	70,8
      40,305	   0,0342196	70,5	   0,0348863	70,4
     40,3089	   0,0341027	70,0	   0,0349089	71,0
     40,3128	   0,0343365	70,4	   0,0349966	71,0
     40,3167	   0,0345058	70,6	     0,03504	70,5
     40,3206	   0,0346393	70,6	   0,0349498	70,5
     40,3245	   0,0343735	70,2	   0,0350963	70,7
     40,3284	   0,0345488	70,5	   0,0352239	70,5
     40,3324	   0,0345734	70,6	   0,0346676	70,1
     40,3363	   0,0341287	70,3	    0,034897	70,6
     40,3402	   0,0343339	70,0	   0,0352389	70,9
     40,3441	    0,034605	70,4	   0,0351397	70,5
      40,348	   0,0347231	70,6	   0,0354627	70,3
     40,3519	   0,0343892	70,4	    0,035391	70,8
     40,3558	   0,0347597	70,3	   0,0349616	70,8
     40,3597	   0,0343083	70,3	   0,0353327	70,6
     40,3636	   0,0349825	70,6	   0,0350978	70,3
     40,3675	   0,0346882	70,4	   0,0354681	70,4
     40,3715	   0,0354269	70,7	    0,035214	70,7
     40,3754	   0,0349801	70,5	   0,0355886	71,0
     40,3793	   0,0349236	70,2	   0,0354262	70,6
     40,3832	   0,0347428	70,1	   0,0354755	70,4
     40,3871	   0,0348793	70,6	   0,0358853	70,3
      40,391	   0,0354063	70,6	    0,035372	70,5
     40,3949	   0,0355418	70,5	   0,0358219	70,7
     40,3988	   0,0353821	70,2	   0,0356514	70,5
     40,4027	   0,0346701	70,6	   0,0358559	70,3
     40,4066	   0,0355648	70,6	   0,0359582	70,7
     40,4106	   0,0355208	70,2	    0,035799	70,7
     40,4145	   0,0351437	70,2	   0,0359591	70,8
     40,4184	   0,0351545	70,4	   0,0356952	70,2
     40,4223	   0,0353704	70,6	    0,036058	70,6
     40,4262	   0,0355202	70,5	   0,0361173	71,3
     40,4301	   0,0359075	69,9	    0,035778	70,8
      40,434	   0,0350923	70,4	   0,0362729	70,6
     40,4379	    0,035347	70,8	   0,0362959	70,4
     40,4418	   0,0355467	70,5	   0,0363233	70,9
     40,4457	   0,0359332	70,8	   0,0361979	71,2
     40,4497	   0,0357344	70,8	   0,0357235	70,9
     40,4536	   0,0358479	70,7	   0,0361732	70,7
     40,4575	   0,0359345	70,4	   0,0365869	70,5
     40,4614	   0,0359117	70,8	   0,0361883	70,5
     40,4653	   0,0359528	70,7	   0,0362223	70,5
     40,4692	   0,0357879	70,3	   0,0364062	70,8
     40,4731	   0,0363332	70,6	   0,0366052	71,1
      40,477	   0,0357321	70,8	   0,0363096	70,5
     40,4809	   0,0361034	70,2	   0,0364614	70,5
     40,4848	   0,0362208	70,4	   0,0364943	70,5
     40,4888	   0,0362073	71,0	   0,0358676	70,8
     40,4927	    0,035972	70,2	   0,0359133	70,8
     40,4966	   0,0361255	70,4	   0,0365413	71,2
     40,5005	   0,0362164	70,6	   0,0365703	70,9
     40,5044	    0,036147	70,6	   0,0367021	70,4
     40,5083	   0,0359549	70,6	   0,0367539	70,7
     40,5122	   0,0360565	70,7	   0,0367088	70,9
     40,5161	   0,0360048	70,3	   0,0370864	71,0
       40,52	   0,0365987	70,2	   0,0368253	70,9
     40,5239	   0,0365658	70,6	   0,0368755	70,7
     40,5279	    0,036427	71,0	   0,0371253	70,7
     40,5318	   0,0363507	70,7	   0,0371655	71,1
     40,5357	   0,0364692	70,4	   0,0366895	71,2
     40,5396	    0,036728	70,3	   0,0374388	71,5
     40,5435	   0,0366695	71,0	    0,037294	70,8
     40,5474	   0,0368684	71,0	   0,0373681	70,5
     40,5513	   0,0367687	71,1	   0,0376196	71,1
     40,5552	   0,0367587	71,0	   0,0371641	71,2
     40,5591	   0,0368494	70,4	   0,0371296	70,9
      40,563	   0,0366588	70,8	   0,0372816	71,2
      40,567	   0,0368995	70,4	   0,0369131	71,0
     40,5709	   0,0368626	70,5	   0,0373727	71,1
     40,5748	   0,0374348	71,0	   0,0379425	70,8
     40,5787	   0,0371405	71,2	   0,0375022	70,8
     40,5826	   0,0371684	71,1	    0,037286	71,3
     40,5865	   0,0370655	70,4	   0,0375595	70,8
     40,5904	   0,0373111	70,4	   0,0378233	71,0
     40,5943	   0,0371724	71,1	    0,038112	71,1
     40,5982	   0,0374017	70,2	   0,0377464	70,8
     40,6021	   0,0374388	70,7	   0,0376297	70,6
     40,6061	   0,0375854	71,2	   0,0379991	70,8
       40,61	   0,0373924	71,4	   0,0381672	70,9
     40,6139	   0,0373152	70,6	   0,0384039	71,4
     40,6178	   0,0376128	70,3	   0,0379641	71,1
     40,6217	   0,0374875	70,7	   0,0379824	70,9
     40,6256	   0,0377351	71,3	   0,0376846	70,6
     40,6295	   0,0376848	71,0	   0,0384033	71,0
     40,6334	   0,0378145	71,1	   0,0379744	71,1
     40,6373	   0,0378396	71,0	   0,0384936	71,4
     40,6413	   0,0381329	71,0	    0,038408	71,2
     40,6452	   0,0381944	70,8	   0,0386427	71,2
     40,6491	    0,038177	70,8	   0,0385446	71,2
      40,653	   0,0377131	70,9	   0,0384055	70,9
     40,6569	    0,037883	71,0	   0,0390399	71,2
     40,6608	    0,037981	71,0	   0,0386324	70,9
     40,6647	   0,0381793	71,1	   0,0384479	71,5
     40,6686	   0,0380259	70,8	   0,0389665	71,4
     40,6725	   0,0380396	71,1	   0,0385622	71,0
     40,6764	   0,0382025	70,6	   0,0388168	71,1
     40,6804	   0,0387318	70,9	   0,0385281	71,2
     40,6843	   0,0386025	71,3	   0,0387771	71,7
     40,6882	    0,038338	71,5	   0,0388792	71,0
     40,6921	   0,0386019	71,0	   0,0390444	71,1
      40,696	   0,0388999	71,2	   0,0393679	71,1
     40,6999	   0,0393114	71,2	   0,0390763	71,2
     40,7038	   0,0385756	70,9	   0,0392226	71,1
     40,7077	   0,0388456	70,7	   0,0395425	71,8
     40,7116	   0,0387748	70,8	   0,0395638	71,6
     40,7155	   0,0390609	71,4	   0,0393339	71,1
     40,7195	   0,0390072	71,1	   0,0395154	71,1
     40,7234	   0,0392264	71,5	   0,0393817	71,6
     40,7273	    0,039163	71,7	   0,0395237	70,5
     40,7312	   0,0393881	71,4	   0,0395669	71,2
     40,7351	   0,0393411	71,0	   0,0400961	71,6
      40,739	   0,0397274	71,3	    0,039754	71,2
     40,7429	   0,0394697	71,2	   0,0396691	71,6
     40,7468	   0,0395381	70,9	   0,0399607	71,9
     40,7507	   0,0392581	71,2	   0,0396578	71,2
     40,7546	   0,0395998	71,7	   0,0398383	71,1
     40,7586	   0,0395972	71,0	   0,0397877	71,7
     40,7625	   0,0396364	71,2	   0,0395572	71,3
     40,7664	   0,0401324	71,4	   0,0400639	71,3
     40,7703	   0,0399139	71,0	   0,0401136	71,4
     40,7742	   0,0397911	71,1	   0,0400515	71,2
     40,7781	   0,0400165	71,5	   0,0407148	71,5
      40,782	   0,0399342	71,3	   0,0402214	71,1
     40,7859	   0,0404784	71,6	   0,0398251	71,1
     40,7898	   0,0401802	71,6	   0,0405465	71,7
     40,7937	    0,040551	71,1	   0,0410061	71,7
     40,7977	   0,0400071	70,9	   0,0405771	71,6
     40,8016	   0,0401679	71,3	   0,0409205	72,3
     40,8055	   0,0400758	71,4	   0,0406887	71,5
     40,8094	   0,0402714	71,0	   0,0408883	71,4
     40,8133	   0,0407649	71,8	   0,0407119	71,6
     40,8172	   0,0400701	71,6	   0,0410139	71,6
     40,8211	   0,0407953	71,4	   0,0407823	71,2
      40,825	   0,0408101	71,7	   0,0410231	71,5
     40,8289	   0,0402443	71,8	   0,0408063	71,2
     40,8328	   0,0406698	71,2	   0,0408398	71,3
     40,8368	   0,0409756	71,5	   0,0411914	72,1
     40,8407	   0,0409062	71,7	   0,0415835	71,9
     40,8446	    0,041314	71,3	   0,0416927	72,0
     40,8485	   0,0414184	71,6	   0,0417934	72,3
     40,8524	   0,0410282	71,5	   0,0415135	71,8
     40,8563	   0,0409689	71,0	   0,0415789	71,9
     40,8602	   0,0416126	71,7	   0,0414116	71,8
     40,8641	   0,0412309	71,6	    0,041633	72,0
      40,868	   0,0412479	71,3	   0,0418937	71,7
     40,8719	   0,0416068	71,7	   0,0417685	71,9
     40,8759	   0,0412268	71,8	   0,0422037	72,2
     40,8798	   0,0415343	71,8	   0,0414011	71,6
     40,8837	   0,0419162	72,0	    0,042021	71,6
     40,8876	   0,0419246	72,2	   0,0421985	71,8
     40,8915	   0,0421321	71,6	   0,0425017	71,6
     40,8954	   0,0418003	72,2	   0,0426041	71,9
     40,8993	   0,0419156	71,9	    0,042433	71,8
     40,9032	   0,0418824	71,5	   0,0421773	71,8
     40,9071	   0,0423707	71,9	   0,0424033	72,1
      40,911	   0,0416729	71,6	   0,0424865	71,6
      40,915	   0,0425184	71,8	   0,0425217	71,8
     40,9189	   0,0422501	72,2	   0,0426403	72,4
     40,9228	   0,0423128	71,6	    0,043089	72,3
     40,9267	   0,0427193	71,7	   0,0430944	72,3
     40,9306	   0,0425403	71,9	   0,0432058	72,4
     40,9345	   0,0425652	71,3	    0,043232	72,5
     40,9384	   0,0424631	71,8	   0,0430878	72,4
     40,9423	   0,0425508	71,8	   0,0426395	71,9
     40,9462	   0,0426409	71,4	   0,0431334	72,5
     40,9501	   0,0431078	72,1	   0,0430155	72,0
     40,9541	   0,0428542	71,9	   0,0429076	71,9
      40,958	    0,043277	71,9	   0,0434537	72,4
     40,9619	   0,0429204	72,1	    0,043803	72,4
     40,9658	   0,0433913	71,9	   0,0438091	72,3
     40,9697	   0,0435632	71,8	   0,0432238	72,4
     40,9736	   0,0435747	72,0	   0,0438798	72,4
     40,9775	   0,0435286	71,7	   0,0435453	72,4
     40,9814	   0,0437362	72,4	   0,0436467	71,9
     40,9853	   0,0434027	72,1	     0,04434	72,4
     40,9892	   0,0437626	71,9	   0,0438738	72,2
     40,9932	   0,0438402	72,3	   0,0439266	72,1
     40,9971	   0,0435222	71,7	   0,0443673	72,4
      41,001	   0,0440427	72,1	    0,044067	71,8
     41,0049	   0,0441548	72,0	   0,0439777	72,3
     41,0088	   0,0442381	72,0	   0,0442802	72,0
     41,0127	   0,0439727	72,4	   0,0438483	71,9
     41,0166	   0,0439309	72,1	   0,0443594	72,3
     41,0205	   0,0445976	72,2	   0,0447416	72,1
     41,0244	   0,0445748	72,3	   0,0449114	72,6
     41,0283	    0,044284	72,0	    0,044658	72,6
     41,0323	   0,0447986	72,6	   0,0446345	72,7
     41,0362	   0,0445239	72,4	   0,0451368	72,5
     41,0401	   0,0447759	72,3	   0,0452907	72,8
      41,044	   0,0446228	72,7	   0,0448944	72,4
     41,0479	   0,0449699	72,2	   0,0451564	72,6
     41,0518	   0,0447094	72,4	   0,0454942	72,6
     41,0557	   0,0447306	72,0	   0,0454299	72,5
     41,0596	   0,0451708	72,3	   0,0456452	72,8
     41,0635	   0,0451704	72,0	    0,045382	72,4
     41,0674	    0,045146	72,1	   0,0453554	73,0
     41,0714	   0,0452223	72,5	   0,0456102	72,7
     41,0753	   0,0454985	72,3	   0,0454478	72,4
     41,0792	   0,0456768	72,4	   0,0457451	72,7
     41,0831	   0,0456485	72,4	   0,0453686	72,4
      41,087	   0,0457311	72,3	    0,045855	72,9
     41,0909	   0,0457869	72,8	   0,0458261	72,3
     41,0948	   0,0460019	72,4	   0,0461425	72,8
     41,0987	    0,046143	72,5	   0,0462711	72,9
     41,1026	   0,0457836	72,9	   0,0466255	73,2
     41,1065	   0,0462687	72,3	   0,0464325	72,6
     41,1105	   0,0461752	72,4	   0,0463597	72,7
     41,1144	   0,0464251	72,4	   0,0467644	72,8
     41,1183	   0,0462901	72,8	   0,0470093	73,1
     41,1222	   0,0466751	72,4	   0,0468304	72,5
     41,1261	   0,0467513	73,0	    0,046237	72,5
       41,13	   0,0467469	72,5	   0,0471985	72,8
     41,1339	   0,0469648	72,7	   0,0467541	72,7
     41,1378	   0,0465967	72,8	    0,047291	73,0
     41,1417	   0,0467847	72,6	   0,0471363	72,8
     41,1456	   0,0468489	73,1	   0,0475823	72,8
     41,1496	   0,0468344	72,8	   0,0471807	72,7
     41,1535	   0,0473286	73,2	   0,0475651	73,0
     41,1574	   0,0473905	73,0	   0,0473991	72,6
     41,1613	   0,0474951	73,4	   0,0474298	73,1
     41,1652	   0,0469458	73,0	   0,0475229	72,6
     41,1691	   0,0477004	73,0	   0,0475939	73,2
      41,173	   0,0474939	73,1	   0,0479328	72,7
     41,1769	   0,0478424	73,2	   0,0481464	73,4
     41,1808	     0,04788	73,1	   0,0479712	72,9
     41,1847	   0,0479962	73,1	    0,048533	73,5
     41,1887	   0,0480723	73,2	   0,0484523	73,3
     41,1926	   0,0482161	72,8	   0,0487452	73,3
     41,1965	   0,0482166	73,1	   0,0488299	73,6
     41,2004	   0,0484341	72,8	   0,0485668	73,3
     41,2043	   0,0484594	72,9	   0,0489369	73,6
     41,2082	   0,0484967	73,2	   0,0485889	73,4
     41,2121	   0,0487784	72,7	   0,0488153	73,7
      41,216	   0,0488494	73,4	    0,049233	73,2
     41,2199	   0,0488521	72,9	   0,0494384	73,3
     41,2239	   0,0490298	73,3	   0,0489092	73,3
     41,2278	   0,0491962	73,3	   0,0492538	72,9
     41,2317	   0,0491297	73,6	   0,0490981	73,3
     41,2356	    0,049335	73,4	   0,0494208	73,3
     41,2395	   0,0494386	73,6	   0,0491026	73,4
     41,2434	     0,04851	73,3	   0,0497757	73,8
     41,2473	   0,0495877	73,3	   0,0499841	73,4
     41,2512	   0,0493788	73,5	   0,0498792	73,9
     41,2551	   0,0497541	73,1	   0,0500058	73,9
      41,259	   0,0499332	73,6	   0,0504154	73,4
      41,263	   0,0500286	73,1	   0,0501639	73,5
     41,2669	   0,0500466	73,4	   0,0503044	73,4
     41,2708	   0,0502449	73,2	   0,0505709	73,9
     41,2747	   0,0498028	73,7	   0,0508846	73,5
     41,2786	   0,0502456	73,2	   0,0508271	73,7
     41,2825	   0,0504664	73,7	   0,0506038	73,6
     41,2864	    0,050663	73,5	   0,0510343	74,0
     41,2903	    0,050731	73,9	   0,0512324	73,9
     41,2942	   0,0507875	73,1	   0,0510633	74,1
     41,2981	   0,0510653	73,5	   0,0512454	74,0
     41,3021	   0,0511207	73,3	   0,0514618	74,2
      41,306	   0,0511565	73,9	   0,0516197	74,0
     41,3099	   0,0512701	73,6	   0,0515406	74,2
     41,3138	   0,0511083	73,9	    0,052034	74,0
     41,3177	   0,0509684	73,6	   0,0516848	73,9
     41,3216	   0,0512093	74,1	   0,0521282	73,8
     41,3255	   0,0517932	73,8	   0,0522841	74,2
     41,3294	   0,0514046	74,4	   0,0523348	74,0
     41,3333	   0,0512268	73,8	   0,0524637	74,2
     41,3372	   0,0520809	73,8	   0,0524727	74,1
     41,3412	   0,0522046	73,7	   0,0528355	74,3
     41,3451	   0,0522854	73,8	   0,0526366	74,2
      41,349	    0,052578	73,7	   0,0530592	74,7
     41,3529	   0,0524837	74,4	   0,0528185	74,3
     41,3568	   0,0525731	74,1	   0,0534129	74,1
     41,3607	   0,0528165	74,6	   0,0533058	74,6
     41,3646	   0,0529879	74,3	   0,0532776	74,1
     41,3685	   0,0529381	74,2	   0,0536917	74,9
     41,3724	    0,052968	73,8	   0,0538114	74,4
     41,3763	    0,053343	74,0	   0,0539664	74,8
     41,3803	   0,0534248	73,6	   0,0535701	73,9
     41,3842	   0,0534764	74,1	   0,0542724	74,6
     41,3881	   0,0536751	74,1	   0,0538127	74,2
      41,392	   0,0538351	74,7	   0,0545031	74,5
     41,3959	   0,0536287	74,3	   0,0545491	74,5
     41,3998	   0,0541099	74,6	   0,0547675	74,9
     41,4037	   0,0541096	74,2	   0,0544886	75,0
     41,4076	   0,0542861	74,5	   0,0546266	74,7
     41,4115	   0,0545154	73,9	   0,0552548	74,9
     41,4154	    0,054529	74,6	   0,0552869	74,4
     41,4194	   0,0546117	74,5	   0,0555135	74,9
     41,4233	   0,0548554	74,9	   0,0555737	75,0
     41,4272	   0,0548764	74,7	   0,0556788	74,9
     41,4311	   0,0551979	74,8	   0,0557101	75,2
      41,435	   0,0552185	74,6	   0,0556839	75,0
     41,4389	   0,0553004	74,4	   0,0560538	75,2
     41,4428	   0,0554949	74,6	   0,0558004	74,3
     41,4467	   0,0552483	74,5	   0,0563159	75,2
     41,4506	   0,0558231	75,1	   0,0564339	74,9
     41,4545	   0,0559175	74,8	   0,0566483	75,2
     41,4585	   0,0560628	74,6	   0,0566011	75,4
     41,4624	   0,0561531	74,9	   0,0568171	75,1
     41,4663	   0,0563273	75,0	   0,0567682	75,4
     41,4702	   0,0565366	74,6	   0,0568035	74,8
     41,4741	   0,0566629	75,1	   0,0571768	75,2
      41,478	   0,0567097	75,1	   0,0572394	75,1
     41,4819	   0,0569204	74,7	   0,0578292	75,5
     41,4858	   0,0570222	75,3	   0,0579142	75,8
     41,4897	   0,0572422	74,8	   0,0579967	75,7
     41,4936	   0,0573761	75,3	   0,0583058	75,9
     41,4976	   0,0574281	75,6	   0,0580488	75,6
     41,5015	   0,0576837	75,4	   0,0586275	75,7
     41,5054	   0,0577763	75,4	   0,0587424	75,4
     41,5093	    0,057962	75,0	   0,0586705	75,5
     41,5132	    0,058132	75,5	   0,0587285	75,8
     41,5171	   0,0581406	75,0	   0,0587906	75,4
      41,521	   0,0585417	75,7	   0,0594137	76,0
     41,5249	   0,0585617	75,6	   0,0590936	75,9
     41,5288	   0,0587899	75,4	    0,059776	75,9
     41,5327	   0,0588717	75,5	   0,0596875	76,6
     41,5367	   0,0592067	75,1	   0,0600645	76,1
     41,5406	   0,0591948	75,7	   0,0602991	76,2
     41,5445	   0,0594697	75,6	   0,0603616	75,7
     41,5484	   0,0596242	75,8	   0,0607184	76,1
     41,5523	   0,0596907	75,8	   0,0606861	76,3
     41,5562	   0,0598372	75,5	   0,0608758	76,3
     41,5601	   0,0601266	75,7	   0,0608276	76,7
      41,564	   0,0602079	75,7	    0,060992	76,5
     41,5679	   0,0601485	76,3	   0,0613896	76,2
     41,5718	    0,060545	75,8	   0,0616204	76,9
     41,5758	   0,0607272	76,0	    0,061901	76,7
     41,5797	    0,060976	75,7	   0,0621044	76,5
     41,5836	   0,0611617	76,0	   0,0622418	76,7
     41,5875	   0,0612355	76,3	   0,0624276	76,3
     41,5914	   0,0614891	76,1	   0,0626346	76,8
     41,5953	   0,0617313	76,5	   0,0626372	76,7
     41,5992	   0,0618734	75,9	   0,0629589	76,9
     41,6031	   0,0620623	76,2	   0,0631579	76,8
      41,607	   0,0621867	76,2	   0,0634026	76,5
     41,6109	   0,0624581	76,5	   0,0636563	76,9
     41,6149	   0,0625917	76,8	   0,0637424	77,4
     41,6188	   0,0627405	76,2	   0,0634989	76,5
     41,6227	   0,0630065	76,4	   0,0642377	77,0
     41,6266	   0,0632563	76,5	   0,0643728	77,2
     41,6305	   0,0634035	76,9	   0,0646482	77,3
     41,6344	   0,0635594	76,9	   0,0646296	77,7
     41,6383	   0,0638203	76,5	   0,0650372	77,0
     41,6422	   0,0639594	76,8	   0,0652071	77,1
     41,6461	    0,064199	76,7	   0,0650082	77,3
       41,65	   0,0642885	77,0	   0,0655427	77,5
      41,654	   0,0646008	77,4	   0,0658786	77,8
     41,6579	   0,0648412	76,7	    0,066061	77,6
     41,6618	    0,064959	77,2	   0,0663101	77,4
     41,6657	   0,0652186	77,0	   0,0664883	77,7
     41,6696	   0,0654194	77,3	   0,0659047	77,7
     41,6735	   0,0657409	77,2	   0,0670578	77,9
     41,6774	   0,0658312	77,1	   0,0668105	78,1
     41,6813	   0,0660526	77,3	   0,0673877	78,0
     41,6852	   0,0663754	77,0	   0,0676992	78,1
     41,6891	   0,0665512	77,6	   0,0678822	78,5
     41,6931	   0,0667038	78,1	    0,067853	78,1
      41,697	   0,0668381	77,4	   0,0683569	78,2
     41,7009	   0,0671261	77,7	   0,0683268	78,5
     41,7048	   0,0674667	78,0	   0,0688287	78,3
     41,7087	   0,0676875	77,5	   0,0686946	78,9
     41,7126	   0,0679883	77,6	   0,0688867	78,3
     41,7165	   0,0680514	77,8	   0,0694646	78,1
     41,7204	   0,0681766	77,9	   0,0699892	79,0
     41,7243	   0,0685815	78,4	   0,0701036	79,1
     41,7282	   0,0688568	78,0	   0,0701672	78,3
     41,7322	   0,0691816	78,0	   0,0707488	78,8
     41,7361	   0,0692402	78,5	   0,0710699	79,2
       41,74	   0,0695798	78,3	   0,0711887	79,1
     41,7439	   0,0699041	78,4	   0,0713323	79,4
     41,7478	   0,0701205	78,2	   0,0719355	78,8
     41,7517	   0,0703143	78,3	   0,0717937	79,0
     41,7556	    0,070687	79,0	    0,072336	79,6
     41,7595	   0,0709277	78,7	   0,0726965	79,5
     41,7634	   0,0711504	78,5	   0,0729836	79,5
     41,7673	   0,0714855	78,8	   0,0730683	79,5
     41,7713	   0,0718084	78,7	   0,0735098	80,0
     41,7752	    0,071855	78,5	   0,0733196	79,5
     41,7791	   0,0722757	79,0	   0,0739225	79,7
      41,783	   0,0725248	79,2	   0,0741428	80,3
     41,7869	   0,0727957	79,1	   0,0747865	80,0
     41,7908	   0,0731511	79,5	   0,0750192	79,8
     41,7947	   0,0735435	79,0	   0,0754445	80,4
     41,7986	   0,0736412	79,3	   0,0757207	80,7
     41,8025	   0,0739306	79,9	   0,0759761	80,3
     41,8064	   0,0743432	79,6	   0,0765689	80,5
     41,8104	   0,0746632	79,3	   0,0766319	80,6
     41,8143	   0,0750416	79,9	   0,0770284	80,8
     41,8182	   0,0753319	79,8	   0,0774632	81,0
     41,8221	   0,0756457	80,0	   0,0778428	80,7
      41,826	   0,0758229	79,8	   0,0781586	80,6
     41,8299	   0,0761353	80,2	   0,0784888	81,4
     41,8338	   0,0765156	80,0	   0,0788051	80,9
     41,8377	   0,0769593	80,3	   0,0791569	81,2
     41,8416	   0,0772838	80,4	   0,0797715	81,5
     41,8456	   0,0774965	80,5	   0,0799473	81,6
     41,8495	   0,0778618	80,8	   0,0802635	81,5
     41,8534	   0,0783191	80,5	   0,0807929	81,4
     41,8573	   0,0787095	80,7	   0,0811556	82,3
     41,8612	   0,0790043	81,1	    0,081517	82,1
     41,8651	   0,0792726	80,9	   0,0818706	81,8
      41,869	   0,0795787	81,0	   0,0823873	82,3
     41,8729	   0,0800966	81,7	    0,082727	82,6
     41,8768	   0,0804223	81,3	   0,0828622	82,2
     41,8807	     0,08092	81,0	   0,0837629	82,5
     41,8847	   0,0813707	81,8	    0,084243	83,0
     41,8886	    0,081605	81,9	   0,0841858	83,1
     41,8925	   0,0819488	81,4	   0,0851422	82,8
     41,8964	   0,0824363	81,8	   0,0855416	83,3
     41,9003	   0,0830262	82,4	   0,0858727	83,6
     41,9042	   0,0833828	81,9	   0,0864458	83,1
     41,9081	   0,0836557	81,9	   0,0870849	83,5
      41,912	    0,084065	82,6	   0,0874171	84,4
     41,9159	   0,0846444	82,6	   0,0873107	83,9
     41,9198	   0,0851084	82,7	   0,0883497	83,8
     41,9238	   0,0854828	82,9	   0,0889407	84,4
     41,9277	   0,0859617	83,1	   0,0896126	84,8
     41,9316	   0,0862903	82,6	   0,0897878	84,6
     41,9355	   0,0868112	83,2	   0,0906632	84,8
     41,9394	    0,087347	83,8	   0,0913902	85,3
     41,9433	   0,0878325	83,2	   0,0920336	85,4
     41,9472	   0,0883981	83,4	   0,0925899	85,9
     41,9511	   0,0889291	84,2	   0,0932812	85,4
      41,955	   0,0892579	84,0	   0,0938782	85,7
     41,9589	   0,0898662	83,8	   0,0945951	86,2
     41,9629	   0,0904114	84,6	   0,0952597	86,5
     41,9668	   0,0910163	84,8	   0,0960248	86,3
     41,9707	   0,0916016	84,5	   0,0966118	86,6
     41,9746	   0,0920588	84,7	   0,0973324	87,0
     41,9785	   0,0926124	85,5	   0,0981146	86,5
     41,9824	   0,0931245	85,4	   0,0988856	87,4
     41,9863	   0,0938053	85,1	   0,0997637	88,8
     41,9902	   0,0943706	86,4	    0,100094	89,1
     41,9941	     0,09497	85,8	    0,101116	89,3
      41,998	    0,095495	86,0	    0,101594	88,9
      42,002	   0,0963507	86,8	    0,103214	89,3
     42,0059	   0,0968723	86,9	    0,104123	89,9
     42,0098	   0,0971571	87,0	    0,104606	90,1
     42,0137	   0,0980758	87,6	    0,106141	90,4
     42,0176	   0,0988415	87,1	    0,107569	91,0
     42,0215	   0,0996697	87,3	    0,108945	91,8
     42,0254	   0,0997685	88,0	    0,110499	91,8
     42,0293	    0,101059	87,9	    0,112008	92,4
     42,0332	    0,101677	87,8	    0,113197	93,1
     42,0371	    0,102729	88,5	    0,115423	92,9
     42,0411	    0,103613	89,0	    0,117892	94,7
      42,045	    0,103611	89,2	    0,119384	95,2
     42,0489	     0,10534	89,4	    0,122042	96,0
     42,0528	    0,106227	89,7	    0,125305	96,8
     42,0567	    0,106863	90,4	    0,127597	97,9
     42,0606	    0,107745	90,8	    0,131111	99,7
     42,0645	    0,108438	90,5	    0,135652	101,5
     42,0684	    0,110004	92,1	    0,137991	103,5
     42,0723	    0,110857	91,1	    0,142388	105,3
     42,0762	    0,112179	91,2	    0,145149	107,4
     42,0802	    0,113038	92,0	    0,149014	109,2
     42,0841	    0,114028	93,1	    0,151288	111,1
      42,088	    0,115244	92,5	    0,154085	113,4
     42,0919	    0,116761	93,6	    0,155193	115,3
     42,0958	    0,117735	93,9	    0,158643	116,9
     42,0997	    0,119091	93,6	    0,161132	118,8
     42,1036	    0,120315	94,7	     0,16272	119,8
     42,1075	    0,122096	96,4	    0,165244	121,7
     42,1114	    0,123103	95,8	    0,166069	123,7
     42,1153	    0,124179	98,1	    0,167703	124,5
     42,1193	    0,126326	97,5	    0,168756	126,3
     42,1232	    0,128197	98,8	    0,169779	126,8
     42,1271	    0,129941	99,8	    0,171843	128,8
      42,131	    0,132657	100,7	    0,173697	130,3
     42,1349	    0,134551	101,9	    0,173014	130,7
     42,1388	    0,136082	103,3	    0,175445	132,2
     42,1427	     0,13906	104,7	    0,176624	133,5
     42,1466	    0,142107	106,7	    0,178441	134,8
     42,1505	    0,143178	107,9	    0,177272	135,8
     42,1544	    0,146918	109,7	    0,177915	136,0
     42,1584	     0,14686	111,8	     0,17738	136,9
     42,1623	    0,151528	114,1	    0,180373	138,7
     42,1662	    0,155975	116,4	     0,18066	139,6
     42,1701	     0,15761	117,9	     0,17715	139,5
      42,174	    0,159611	120,6	    0,178742	140,8
     42,1779	    0,163511	123,4	    0,179817	141,2
     42,1818	    0,167038	126,4	    0,180951	142,7
     42,1857	    0,171544	129,3	    0,181353	143,8
     42,1896	    0,172016	131,4	    0,180984	144,2
     42,1936	     0,17424	133,7	    0,180528	144,8
     42,1975	    0,176482	136,7	    0,182637	145,1
     42,2014	    0,179662	139,4	    0,180906	146,1
     42,2053	    0,180531	140,8	    0,182648	146,8
     42,2092	    0,180125	142,6	    0,182527	147,5
     42,2131	    0,181172	143,9	    0,181592	148,4
      42,217	    0,179463	145,2	    0,181279	148,4
     42,2209	    0,180444	146,4	    0,182233	149,1
     42,2248	     0,18254	148,0	    0,182346	150,4
     42,2287	    0,182878	148,7	    0,182037	150,6
     42,2327	    0,182451	149,2	      0,1825	151,3
     42,2366	    0,181729	150,1	    0,181899	152,0
     42,2405	    0,182417	150,5	    0,181594	152,3
     42,2444	    0,182598	151,6	    0,181939	153,3
     42,2483	    0,182317	152,3	    0,182205	153,7
     42,2522	    0,181706	152,4	    0,180629	154,1
     42,2561	    0,181591	153,6	    0,179182	154,6
       42,26	     0,18148	153,9	    0,180384	154,9
     42,2639	    0,181516	154,6	     0,18067	155,8
     42,2678	    0,181274	155,5	    0,181562	156,3
     42,2718	    0,180625	155,4	    0,181372	156,7
     42,2757	     0,17953	155,9	    0,181147	156,9
     42,2796	    0,180287	156,7	    0,180063	157,2
     42,2835	    0,180861	157,6	    0,180357	158,3
     42,2874	    0,180042	158,4	    0,180261	158,4
     42,2913	    0,179046	158,1	    0,180188	159,4
     42,2952	    0,179722	158,7	    0,180268	159,4
     42,2991	    0,177833	158,9	    0,179642	159,9
      42,303	    0,179033	159,9	    0,179502	160,1
     42,3069	     0,17914	160,2	    0,179439	160,9
     42,3109	    0,178826	160,7	    0,179098	161,4
     42,3148	    0,178032	161,5	    0,178909	162,0
     42,3187	    0,178253	161,3	    0,177684	162,1
     42,3226	    0,175967	162,1	    0,178248	162,4
     42,3265	    0,176718	162,3	    0,178028	163,0
     42,3304	    0,177089	163,3	    0,175503	163,4
     42,3343	    0,176962	163,5	    0,177336	163,8
     42,3382	    0,175627	163,8	    0,177426	164,3
     42,3421	    0,176157	164,6	      0,1772	165,2
      42,346	    0,176155	164,2	     0,17704	165,2
       42,35	    0,175073	165,1	     0,17618	165,3
     42,3539	    0,175383	165,4	    0,176244	165,5
     42,3578	     0,17514	166,4	    0,176131	166,0
     42,3617	    0,174884	166,6	    0,175252	166,3
     42,3656	    0,174502	166,8	    0,174708	167,2
     42,3695	    0,174465	167,0	    0,174744	167,4
     42,3734	    0,173876	167,1	    0,173748	167,4
     42,3773	     0,17378	167,9	    0,174307	167,9
     42,3812	    0,173455	168,4	    0,174254	168,0
     42,3851	    0,172871	169,2	      0,1726	169,0
     42,3891	     0,17257	169,0	    0,173258	169,2
      42,393	    0,172474	169,6	    0,172558	169,5
     42,3969	    0,171263	169,2	     0,17246	169,8
     42,4008	    0,171694	170,2	    0,172282	169,5
     42,4047	    0,171658	170,3	    0,171022	170,5
     42,4086	    0,170479	170,8	    0,171632	170,5
     42,4125	    0,170366	170,9	    0,171213	171,4
     42,4164	    0,170007	171,9	     0,17103	171,0
     42,4203	    0,170112	172,0	    0,170735	172,2
     42,4242	      0,1689	172,4	    0,170468	172,0
     42,4282	    0,169076	172,2	     0,16926	172,7
     42,4321	    0,168117	172,5	    0,169707	172,7
      42,436	    0,168144	173,3	    0,169081	173,0
     42,4399	    0,167601	173,3	    0,168969	173,0
     42,4438	    0,167282	174,3	    0,167948	173,6
     42,4477	     0,16702	174,0	    0,167398	174,4
     42,4516	    0,166456	174,9	    0,168132	174,3
     42,4555	    0,166413	175,0	    0,167276	174,9
     42,4594	    0,165983	175,1	    0,167082	175,1
     42,4633	    0,165288	175,1	     0,16695	175,6
     42,4673	    0,165127	175,7	    0,166088	175,7
     42,4712	    0,164234	175,9	     0,16613	176,3
     42,4751	    0,164174	176,6	    0,165836	175,8
      42,479	    0,164316	176,5	    0,165488	176,8
     42,4829	    0,163945	177,4	    0,164619	176,6
     42,4868	    0,163562	177,2	    0,164617	177,5
     42,4907	    0,162943	177,7	     0,16423	177,7
     42,4946	    0,162526	177,3	    0,164239	178,0
     42,4985	    0,162277	178,2	    0,163276	178,2
     42,5024	    0,161945	178,3	    0,163098	178,4
     42,5064	      0,1619	178,9	    0,162604	178,7
     42,5103	      0,1613	179,1	    0,162538	178,9
     42,5142	    0,160951	179,5	    0,162421	179,1
     42,5181	    0,160391	180,0	    0,161772	179,6
      42,522	    0,160015	180,0	    0,161057	179,4
     42,5259	    0,159597	180,2	    0,161123	179,8
     42,5298	    0,158649	180,5	    0,160527	180,3
     42,5337	    0,158857	180,5	    0,160264	180,7
     42,5376	    0,158409	181,1	    0,160115	181,3
     42,5415	    0,157978	181,0	    0,159792	181,2
     42,5455	    0,157782	181,6	    0,159483	181,8
     42,5494	    0,157513	181,9	    0,158743	181,6
     42,5533	    0,157078	182,6	    0,158434	182,2
     42,5572	    0,156714	182,6	    0,158007	181,9
     42,5611	    0,156125	182,9	    0,157363	182,4
      42,565	    0,155992	183,1	    0,156918	182,2
     42,5689	    0,155286	183,6	    0,157065	183,4
     42,5728	    0,154766	183,2	    0,155867	183,4
     42,5767	    0,154615	184,0	    0,155131	184,1
     42,5806	     0,15413	183,8	    0,155374	184,1
     42,5846	    0,152906	183,9	    0,154943	184,7
     42,5885	    0,153056	184,1	    0,155051	184,4
     42,5924	    0,152706	184,4	    0,154822	184,7
     42,5963	     0,15207	184,7	    0,154403	184,5
     42,6002	    0,152276	185,1	    0,153905	185,4
     42,6041	    0,151744	185,4	    0,153572	185,1
      42,608	    0,151462	185,8	    0,152794	185,7
     42,6119	    0,151032	186,3	    0,152668	185,6
     42,6158	    0,150676	186,5	    0,152492	186,1
     42,6197	    0,150019	186,7	    0,151927	186,2
     42,6237	    0,149736	186,9	    0,151684	186,8
     42,6276	     0,14896	187,2	    0,151367	186,9
     42,6315	    0,147878	187,0	    0,150946	187,3
     42,6354	    0,147811	187,7	    0,150488	187,5
     42,6393	    0,147059	187,7	    0,150144	187,5
     42,6432	    0,147748	188,5	    0,149626	188,1
     42,6471	    0,147014	187,5	    0,149024	187,8
      42,651	    0,146723	188,7	    0,148897	188,8
     42,6549	    0,146321	188,4	    0,148437	188,5
     42,6588	    0,145931	189,0	    0,148062	189,3
     42,6628	    0,145613	188,9	    0,146789	189,1
     42,6667	    0,145519	189,0	    0,147338	189,6
     42,6706	    0,144913	189,8	    0,146414	189,0
     42,6745	    0,144125	189,3	    0,146655	189,8
     42,6784	    0,143091	189,9	    0,145721	189,3
     42,6823	    0,143709	190,6	    0,145774	190,3
     42,6862	    0,142399	190,5	    0,145413	190,4
     42,6901	    0,142689	190,7	    0,144989	190,5
      42,694	    0,142154	190,8	    0,144371	190,9
     42,6979	    0,142008	191,5	    0,143868	190,9
     42,7019	    0,141682	191,5	    0,143729	191,6
     42,7058	    0,141202	192,1	    0,143042	191,0
     42,7097	    0,140526	191,9	    0,142742	191,6
     42,7136	    0,140484	192,9	    0,142616	191,7
     42,7175	      0,1401	192,4	    0,142117	192,0
     42,7214	    0,139544	192,8	    0,141827	192,3
     42,7253	    0,139389	192,8	    0,141345	192,1
     42,7292	    0,139011	193,2	    0,140912	192,9
     42,7331	    0,138559	193,4	    0,140685	192,9
      42,737	    0,138283	193,3	    0,139782	193,1
      42,741	    0,137859	194,2	    0,139926	193,3
     42,7449	    0,136333	193,6	    0,139438	193,7
     42,7488	    0,136536	194,3	    0,139012	193,6
     42,7527	    0,136563	194,0	     0,13852	194,1
     42,7566	    0,135232	194,0	    0,138264	194,4
     42,7605	    0,134177	194,3	    0,137816	194,6
     42,7644	    0,135351	194,5	    0,137003	195,0
     42,7683	    0,134554	195,1	    0,136822	195,0
     42,7722	    0,134344	194,8	    0,136593	195,5
     42,7761	    0,133874	195,5	    0,136127	195,5
     42,7801	     0,13347	195,4	    0,135743	195,7
      42,784	    0,130891	195,7	    0,134984	195,8
     42,7879	    0,132698	196,1	    0,134805	196,4
     42,7918	    0,132689	196,2	    0,134574	196,7
     42,7957	    0,131654	196,1	    0,133805	196,6
     42,7996	    0,131479	196,6	    0,133109	196,9
     42,8035	    0,131029	196,6	    0,133051	196,8
     42,8074	    0,130416	196,6	    0,132702	197,4
     42,8113	    0,130545	197,1	    0,131985	197,0
     42,8153	    0,130215	197,4	    0,131855	197,5
     42,8192	    0,129702	197,8	    0,131783	198,0
     42,8231	    0,129466	197,7	    0,131606	197,7
      42,827	    0,128433	198,6	    0,130676	197,7
     42,8309	    0,128277	198,2	    0,130642	198,3
     42,8348	    0,127503	198,6	    0,130319	197,8
     42,8387	    0,127108	198,3	    0,129448	198,6
     42,8426	    0,125766	198,6	    0,128975	198,6
     42,8465	    0,126802	199,0	    0,128402	199,2
     42,8504	    0,126304	198,8	    0,128296	198,9
     42,8544	     0,12623	199,6	    0,127516	198,7
     42,8583	    0,125263	198,9	    0,127543	199,6
     42,8622	    0,125343	199,6	     0,12698	199,2
     42,8661	    0,124946	200,0	    0,126515	199,4
       42,87	    0,124451	199,7	     0,12608	199,4
     42,8739	    0,124222	-159,5	    0,126027	199,6
     42,8778	    0,123775	-159,5	    0,125042	-159,8
     42,8817	    0,123138	-159,5	     0,12522	-159,9
     42,8856	    0,122682	-159,1	    0,124581	-159,7
     42,8895	    0,122106	-158,8	    0,124476	-159,3
     42,8935	    0,121798	-158,8	    0,123759	-159,6
     42,8974	     0,12124	-158,1	     0,12353	-158,8
     42,9013	    0,121064	-158,5	    0,123178	-158,9
     42,9052	    0,120719	-157,7	    0,122661	-158,5
     42,9091	    0,120173	-157,9	    0,121953	-158,1
      42,913	    0,119341	-158,5	    0,122231	-158,2
     42,9169	    0,119541	-157,6	    0,121336	-157,6
     42,9208	    0,119319	-157,6	     0,12078	-158,0
     42,9247	     0,11886	-157,9	    0,120741	-157,8
     42,9286	     0,11849	-157,2	    0,120363	-156,7
     42,9326	    0,117953	-157,5	    0,120133	-157,4
     42,9365	    0,117362	-157,3	    0,119737	-156,8
     42,9404	    0,117272	-156,8	    0,119138	-156,8
     42,9443	    0,116958	-157,1	    0,119284	-156,8
     42,9482	    0,116219	-156,8	    0,118636	-156,1
     42,9521	     0,11606	-156,3	    0,117944	-156,2
      42,956	    0,115754	-156,5	    0,117464	-156,1
     42,9599	    0,115078	-156,1	    0,117408	-155,9
     42,9638	    0,115076	-156,0	    0,117165	-156,2
     42,9677	    0,114048	-156,0	    0,116492	-156,0
     42,9717	    0,114331	-155,1	    0,115704	-155,4
     42,9756	    0,113868	-155,2	    0,115799	-155,7
     42,9795	    0,113463	-154,9	    0,115482	-155,2
     42,9834	    0,112992	-154,7	     0,11484	-154,6
     42,9873	     0,11276	-154,9	    0,114912	-155,0
     42,9912	     0,11266	-154,4	    0,114423	-154,4
     42,9951	    0,111831	-154,7	    0,113705	-154,7
      42,999	    0,111489	-154,6	    0,113386	-154,7
     43,0029	    0,111641	-153,8	    0,112923	-153,9
     43,0068	    0,111116	-154,0	    0,112557	-154,2
     43,0108	    0,110817	-154,1	    0,112004	-154,0
     43,0147	    0,110037	-154,0	    0,111516	-153,7
     43,0186	    0,109828	-153,2	    0,111319	-154,2
     43,0225	    0,109332	-153,8	    0,110986	-153,8
     43,0264	    0,108949	-153,1	    0,110669	-153,5
     43,0303	    0,108237	-153,0	    0,110684	-153,6
     43,0342	     0,10839	-153,2	    0,110305	-153,3
     43,0381	    0,107988	-152,8	    0,109741	-152,8
      43,042	    0,108003	-152,4	     0,10952	-153,0
     43,0459	     0,10735	-152,3	    0,109289	-152,3
     43,0499	    0,106939	-152,3	     0,10884	-151,9
     43,0538	    0,106779	-152,1	    0,108374	-152,1
     43,0577	    0,106269	-152,1	    0,107672	-152,1
     43,0616	    0,106164	-151,6	    0,107275	-152,0
     43,0655	     0,10563	-151,7	    0,106604	-152,1
     43,0694	    0,105306	-151,4	    0,106681	-151,8
     43,0733	    0,105267	-151,3	    0,106541	-151,4
     43,0772	    0,104484	-151,0	    0,106264	-151,4
     43,0811	    0,104324	-150,8	    0,105641	-151,3
      43,085	    0,103804	-151,2	    0,105416	-150,8
      43,089	    0,103695	-150,4	    0,105292	-151,0
     43,0929	    0,103239	-150,3	    0,104407	-151,0
     43,0968	     0,10297	-150,5	    0,104182	-150,7
     43,1007	    0,102362	-150,6	    0,103351	-150,8
     43,1046	    0,102269	-150,0	    0,103657	-150,5
     43,1085	    0,101885	-150,3	    0,103445	-150,1
     43,1124	    0,100893	-150,0	    0,103121	-150,2
     43,1163	    0,101305	-149,5	    0,102715	-150,2
     43,1202	    0,100741	-149,7	    0,102349	-149,7
     43,1241	    0,100279	-149,1	    0,102056	-149,6
     43,1281	   0,0999135	-148,9	    0,101738	-149,4
      43,132	   0,0998279	-149,2	    0,100877	-149,8
     43,1359	   0,0995394	-148,9	    0,100786	-149,1
     43,1398	   0,0991629	-148,8	    0,100219	-149,4
     43,1437	   0,0985883	-148,8	    0,100116	-149,2
     43,1476	   0,0980912	-148,9	    0,099391	-148,9
     43,1515	   0,0978851	-148,8	   0,0995912	-149,0
     43,1554	   0,0972599	-148,1	   0,0991388	-148,9
     43,1593	    0,096902	-148,5	   0,0987574	-148,0
     43,1632	   0,0970852	-148,3	   0,0980779	-148,5
     43,1672	   0,0967269	-147,8	   0,0980324	-148,2
     43,1711	   0,0961604	-147,8	   0,0975509	-148,4
      43,175	    0,095734	-148,2	   0,0974489	-147,9
     43,1789	   0,0955706	-148,0	   0,0971046	-147,7
     43,1828	   0,0953442	-147,1	   0,0968096	-147,7
     43,1867	   0,0948391	-147,2	   0,0963437	-147,4
     43,1906	   0,0943347	-147,0	   0,0956416	-147,4
     43,1945	   0,0942533	-147,0	   0,0956718	-147,4
     43,1984	     0,09348	-147,4	   0,0950896	-147,6
     43,2023	   0,0936983	-147,4	   0,0949375	-147,3
     43,2063	   0,0933234	-146,9	   0,0946611	-146,9
     43,2102	   0,0930888	-146,3	   0,0943281	-147,0
     43,2141	   0,0926577	-146,4	   0,0940128	-146,3
      43,218	   0,0923725	-146,5	   0,0936339	-146,2
     43,2219	   0,0917438	-146,3	   0,0931829	-146,4
     43,2258	    0,091746	-146,1	   0,0930396	-146,4
     43,2297	   0,0913938	-146,2	    0,092729	-146,2
     43,2336	   0,0908075	-146,3	   0,0922741	-146,4
     43,2375	   0,0906551	-145,7	   0,0919722	-146,4
     43,2414	   0,0903063	-145,6	   0,0916495	-145,8
     43,2454	   0,0900765	-145,8	   0,0912459	-145,4
     43,2493	   0,0896714	-145,4	    0,090995	-145,1
     43,2532	   0,0895181	-145,8	   0,0907684	-145,8
     43,2571	    0,089226	-145,1	   0,0899556	-145,9
      43,261	   0,0887911	-145,4	   0,0900337	-144,9
     43,2649	   0,0882631	-145,3	   0,0897138	-145,3
     43,2688	   0,0881939	-145,0	   0,0892637	-145,1
     43,2727	   0,0879544	-144,5	   0,0886884	-144,9
     43,2766	   0,0874255	-144,9	   0,0887181	-144,4
     43,2805	   0,0872671	-144,9	   0,0880792	-145,1
     43,2845	   0,0869939	-144,3	   0,0881172	-144,9
     43,2884	   0,0866608	-144,0	   0,0877736	-144,4
     43,2923	   0,0862802	-143,8	   0,0873668	-144,4
     43,2962	   0,0860225	-144,1	    0,086736	-144,4
     43,3001	   0,0857086	-144,2	   0,0862865	-144,4
      43,304	   0,0853942	-143,9	   0,0861919	-143,9
     43,3079	   0,0850968	-143,8	   0,0861965	-144,0
     43,3118	   0,0848681	-143,8	   0,0858164	-144,2
     43,3157	   0,0844951	-143,3	   0,0854228	-143,9
     43,3196	   0,0841734	-143,3	   0,0850904	-143,2
     43,3236	   0,0839423	-143,4	   0,0848272	-143,4
     43,3275	   0,0832741	-143,3	   0,0845969	-143,7
     43,3314	   0,0832712	-143,3	   0,0841762	-143,5
     43,3353	   0,0830094	-142,9	   0,0839095	-143,1
     43,3392	   0,0825288	-142,6	   0,0836713	-142,9
     43,3431	   0,0823985	-143,2	   0,0832431	-142,9
      43,347	   0,0820144	-143,0	   0,0830135	-143,2
     43,3509	   0,0818118	-142,6	   0,0827703	-143,2
     43,3548	   0,0805364	-141,9	   0,0823954	-142,5
     43,3587	   0,0809515	-142,6	   0,0821748	-142,3
     43,3627	   0,0808278	-142,5	   0,0818219	-142,4
     43,3666	   0,0804453	-142,4	   0,0814577	-142,5
     43,3705	   0,0802736	-142,0	   0,0809208	-142,3
     43,3744	   0,0799187	-141,8	   0,0809055	-142,1
     43,3783	    0,079656	-142,0	   0,0805871	-141,9
     43,3822	   0,0794817	-142,0	   0,0802804	-141,9
     43,3861	     0,07815	-141,9	   0,0799942	-141,5
       43,39	   0,0788435	-141,7	   0,0796451	-141,8
     43,3939	   0,0786432	-141,4	    0,079333	-141,8
     43,3979	   0,0781004	-141,6	   0,0791433	-141,8
     43,4018	   0,0779294	-141,4	   0,0788006	-141,3
     43,4057	   0,0775416	-141,5	   0,0785593	-141,4
     43,4096	   0,0774032	-141,3	   0,0783387	-141,6
     43,4135	    0,077071	-140,8	   0,0779138	-141,3
     43,4174	   0,0767953	-141,0	   0,0776008	-141,2
     43,4213	   0,0765677	-141,2	   0,0773883	-141,1
     43,4252	   0,0762425	-141,1	   0,0771815	-141,0
     43,4291	   0,0760461	-140,5	   0,0767996	-140,7
      43,433	   0,0757208	-140,2	    0,076507	-140,9
      43,437	   0,0754256	-140,6	    0,076171	-140,8
     43,4409	     0,07516	-140,9	   0,0759437	-140,5
     43,4448	    0,074973	-140,6	    0,075646	-140,1
     43,4487	   0,0746125	-140,1	   0,0754344	-140,4
     43,4526	   0,0743912	-139,8	   0,0750253	-140,6
     43,4565	    0,074139	-140,2	    0,074737	-140,1
     43,4604	   0,0738217	-140,7	   0,0746513	-140,4
     43,4643	   0,0736297	-139,9	   0,0743096	-140,5
     43,4682	   0,0733234	-139,5	    0,073948	-139,8
     43,4721	   0,0730398	-139,3	   0,0736929	-139,6
     43,4761	   0,0727967	-139,8	    0,073557	-139,7
       43,48	   0,0725263	-140,1	   0,0731997	-140,1
     43,4839	   0,0722288	-139,7	   0,0729439	-139,8
     43,4878	   0,0720718	-139,0	   0,0726542	-139,3
     43,4917	   0,0717924	-139,2	   0,0723486	-139,0
     43,4956	   0,0714809	-139,4	   0,0721557	-139,6
     43,4995	   0,0712469	-139,4	    0,071862	-139,8
     43,5034	   0,0709432	-139,1	   0,0715597	-139,2
     43,5073	   0,0706463	-139,1	   0,0713191	-138,8
     43,5112	   0,0704796	-139,1	   0,0711812	-139,0
     43,5152	   0,0703103	-138,4	    0,070792	-138,8
     43,5191	   0,0699555	-138,3	   0,0705495	-138,9
      43,523	    0,069666	-138,9	   0,0702994	-139,0
     43,5269	   0,0694677	-138,8	    0,070018	-138,9
     43,5308	   0,0692262	-138,9	   0,0697189	-138,7
     43,5347	   0,0689063	-138,1	   0,0694834	-138,5
     43,5386	   0,0687427	-138,1	   0,0692976	-138,3
     43,5425	   0,0685183	-138,2	    0,069026	-138,8
     43,5464	   0,0681755	-138,2	    0,068707	-138,7
     43,5503	   0,0679298	-138,1	   0,0685815	-138,1
     43,5543	   0,0676983	-138,5	   0,0681865	-138,3
     43,5582	   0,0674696	-138,5	   0,0679361	-138,1
     43,5621	   0,0672716	-137,9	   0,0678673	-137,8
      43,566	   0,0668615	-137,5	   0,0674783	-137,9
     43,5699	   0,0666658	-137,7	   0,0671604	-137,9
     43,5738	   0,0665961	-138,1	   0,0671632	-138,2
     43,5777	   0,0663048	-137,7	   0,0667737	-138,1
     43,5816	   0,0659635	-137,7	   0,0664505	-137,4
     43,5855	   0,0657897	-137,7	   0,0663487	-137,4
     43,5894	   0,0655728	-137,6	   0,0660544	-137,9
     43,5934	   0,0652799	-136,9	   0,0657042	-137,5
     43,5973	    0,065056	-137,0	   0,0656167	-137,5
     43,6012	    0,064849	-137,5	   0,0653771	-137,7
     43,6051	   0,0645927	-137,5	   0,0651188	-137,4
      43,609	   0,0644027	-137,1	   0,0647845	-136,8
     43,6129	   0,0640425	-136,6	    0,064663	-136,9
     43,6168	   0,0639458	-136,7	   0,0643605	-137,1
     43,6207	   0,0636608	-136,9	   0,0642034	-137,3
     43,6246	   0,0629747	-137,3	   0,0638818	-137,0
     43,6285	   0,0630826	-137,3	   0,0637526	-137,1
     43,6325	   0,0629721	-137,3	   0,0634633	-137,0
     43,6364	   0,0627591	-136,7	   0,0632352	-136,4
     43,6403	   0,0625711	-136,3	   0,0630466	-136,2
     43,6442	    0,062394	-136,4	   0,0627703	-136,6
     43,6481	   0,0621175	-136,4	   0,0625821	-136,8
      43,652	   0,0618911	-136,0	   0,0622169	-136,3
     43,6559	   0,0617563	-136,3	   0,0621475	-136,6
     43,6598	   0,0615047	-136,7	   0,0618487	-136,6
     43,6637	   0,0612385	-136,3	   0,0616536	-136,3
     43,6676	   0,0610098	-136,3	   0,0614548	-135,9
     43,6716	   0,0608316	-136,4	   0,0611898	-136,5
     43,6755	   0,0606521	-135,7	   0,0609624	-135,8
     43,6794	   0,0604256	-135,6	   0,0607676	-135,9
     43,6833	   0,0601907	-135,6	   0,0606445	-136,1
     43,6872	   0,0599713	-136,2	   0,0604458	-136,4
     43,6911	   0,0597935	-135,9	    0,060091	-136,0
      43,695	   0,0594688	-135,7	   0,0599899	-136,2
     43,6989	   0,0594128	-136,1	   0,0597737	-136,1
     43,7028	    0,059146	-135,5	   0,0595124	-135,5
     43,7067	   0,0589949	-135,7	   0,0592065	-135,4
     43,7107	   0,0587852	-135,7	   0,0591449	-135,5
     43,7146	   0,0585804	-135,3	   0,0589184	-135,7
     43,7185	   0,0582279	-134,8	   0,0587005	-135,5
     43,7224	   0,0581874	-135,5	   0,0584874	-135,7
     43,7263	   0,0579418	-135,1	   0,0583465	-135,8
     43,7302	   0,0576798	-135,1	   0,0580133	-135,4
     43,7341	   0,0575838	-135,4	   0,0578224	-134,8
      43,738	   0,0572832	-135,6	   0,0577387	-135,3
     43,7419	   0,0572065	-134,9	   0,0573972	-135,0
     43,7458	   0,0569815	-135,1	   0,0572218	-134,7
     43,7498	   0,0567525	-135,2	   0,0570625	-135,2
     43,7537	   0,0565721	-134,9	   0,0568161	-135,2
     43,7576	   0,0563974	-134,8	   0,0566826	-134,8
     43,7615	    0,056124	-134,6	    0,056344	-135,1
     43,7654	   0,0559982	-134,3	   0,0562913	-135,1
     43,7693	   0,0557301	-134,5	   0,0559605	-134,4
     43,7732	   0,0556454	-134,6	   0,0558773	-134,5
     43,7771	   0,0553632	-134,5	   0,0555981	-134,7
      43,781	   0,0551598	-134,8	   0,0554334	-134,2
     43,7849	   0,0551233	-134,9	   0,0552941	-134,8
     43,7889	   0,0547835	-134,1	    0,054987	-134,3
     43,7928	   0,0545516	-134,4	   0,0548892	-134,1
     43,7967	   0,0545768	-134,4	   0,0548081	-134,6
     43,8006	   0,0542001	-133,9	   0,0544516	-134,4
     43,8045	   0,0540496	-133,9	   0,0543685	-134,2
     43,8084	    0,053908	-134,1	   0,0541677	-134,8
     43,8123	   0,0537883	-133,7	   0,0539026	-134,3
     43,8162	   0,0534384	-134,2	   0,0537077	-134,2
     43,8201	   0,0533168	-134,1	   0,0535557	-134,6
      43,824	   0,0531117	-134,0	    0,053392	-134,2
      43,828	   0,0529697	-134,2	   0,0532545	-134,0
     43,8319	   0,0528093	-134,0	   0,0529977	-133,8
     43,8358	   0,0525626	-133,9	   0,0528208	-133,6
     43,8397	   0,0525221	-133,9	   0,0527335	-133,4
     43,8436	   0,0522656	-133,7	   0,0524758	-133,7
     43,8475	   0,0520911	-133,8	   0,0522835	-133,5
     43,8514	   0,0520179	-133,9	   0,0521627	-133,6
     43,8553	   0,0518297	-133,5	   0,0520383	-133,8
     43,8592	    0,051666	-133,2	   0,0517068	-133,6
     43,8631	   0,0513284	-133,8	   0,0516321	-133,6
     43,8671	    0,051311	-132,9	    0,051456	-133,9
      43,871	   0,0511099	-133,1	   0,0512649	-133,3
     43,8749	    0,050892	-133,3	   0,0510415	-133,7
     43,8788	   0,0507217	-132,9	   0,0508716	-133,5
     43,8827	   0,0504998	-133,0	   0,0507568	-133,0
     43,8866	   0,0504608	-133,3	   0,0504965	-133,2
     43,8905	   0,0502103	-132,7	   0,0503937	-133,1
     43,8944	    0,050091	-133,4	   0,0502287	-132,8
     43,8983	   0,0499678	-133,1	   0,0500497	-133,0
     43,9022	    0,049635	-132,9	   0,0498519	-133,0
     43,9062	   0,0494916	-133,4	   0,0497528	-132,7
     43,9101	   0,0494268	-133,1	   0,0495099	-133,1
      43,914	   0,0491809	-133,1	    0,049382	-132,9
     43,9179	   0,0490372	-133,3	   0,0492043	-132,9
     43,9218	   0,0488092	-132,8	   0,0489983	-133,1
     43,9257	   0,0487267	-133,0	   0,0488633	-132,9
     43,9296	   0,0486539	-133,0	   0,0487256	-133,0
     43,9335	   0,0483628	-132,8	   0,0484993	-133,2
     43,9374	   0,0482776	-133,0	    0,048333	-132,7
     43,9413	   0,0480836	-132,6	   0,0482042	-132,9
     43,9453	   0,0479408	-132,7	   0,0480186	-132,4
     43,9492	   0,0478288	-132,6	    0,047856	-132,9
     43,9531	    0,047587	-132,4	   0,0477532	-132,7
      43,957	   0,0474927	-132,4	    0,047625	-132,6
     43,9609	   0,0473483	-132,1	   0,0474199	-132,5
     43,9648	   0,0470807	-132,0	   0,0472672	-132,7
     43,9687	    0,047027	-132,5	   0,0470751	-132,6
     43,9726	   0,0468151	-131,9	   0,0469809	-132,9
     43,9765	     0,04665	-132,1	   0,0468173	-132,4
     43,9804	   0,0467394	-132,2	   0,0466181	-132,8
     43,9844	   0,0463027	-131,9	   0,0464454	-132,4
     43,9883	    0,046271	-132,0	   0,0463247	-132,5
     43,9922	   0,0461661	-131,6	   0,0462362	-132,3
     43,9961	   0,0458423	-132,0	   0,0459677	-132,2
          44	   0,0459319	-132,0	   0,0458407	-132,4

