X-Data [Hz]	Laser (M - Filtered) [m/s]	Phase [Deg]	Laser (M - Filtered) [m/s]	Phase [Deg]	
	002: [07-09-24 10:01]		003: [07-09-24 10:05]	
        40,5	   0,0367298	73,2	   0,0405237	72,3
     40,5029	   0,0383461	72,6	   0,0404408	72,8
     40,5059	    0,039439	72,4	   0,0406281	72,4
     40,5088	   0,0399461	72,8	   0,0405762	72,5
     40,5117	   0,0402877	72,1	   0,0406572	72,6
     40,5147	   0,0405041	72,2	   0,0407351	72,6
     40,5176	   0,0405175	72,0	   0,0407231	72,9
     40,5205	   0,0406025	72,3	    0,040772	72,7
     40,5235	   0,0407301	72,3	   0,0407657	72,5
     40,5264	   0,0407542	72,1	   0,0409174	72,8
     40,5293	   0,0408547	72,4	   0,0408246	72,6
     40,5323	   0,0408349	72,4	   0,0410277	72,6
     40,5352	   0,0408553	72,2	   0,0410117	73,0
     40,5381	   0,0409875	72,4	   0,0411464	72,7
     40,5411	   0,0410165	72,2	   0,0410196	72,7
      40,544	    0,041004	72,5	    0,041224	72,6
     40,5469	   0,0410716	72,5	   0,0411673	72,4
     40,5499	   0,0410973	72,4	   0,0412066	72,5
     40,5528	   0,0411703	72,7	   0,0412408	72,4
     40,5557	   0,0412323	72,7	   0,0413957	72,7
     40,5587	   0,0412756	72,1	   0,0413473	73,0
     40,5616	   0,0414294	72,6	   0,0414788	72,8
     40,5645	   0,0412792	72,4	   0,0415092	72,8
     40,5674	   0,0413814	72,5	   0,0415971	72,6
     40,5704	   0,0415357	72,9	   0,0415981	72,6
     40,5733	   0,0415504	72,4	   0,0416376	72,5
     40,5762	   0,0415802	72,9	     0,04168	72,4
     40,5792	   0,0416067	72,6	   0,0417677	72,5
     40,5821	   0,0417865	72,5	   0,0417414	72,9
      40,585	   0,0416633	72,8	   0,0418279	72,9
      40,588	   0,0417863	72,7	   0,0418921	72,8
     40,5909	   0,0417953	72,5	   0,0419026	72,5
     40,5938	   0,0419085	72,7	   0,0419722	72,6
     40,5968	   0,0418237	72,7	    0,042072	73,0
     40,5997	   0,0420884	72,5	   0,0419977	72,5
     40,6026	   0,0418975	72,9	   0,0421612	72,5
     40,6056	   0,0421416	72,4	   0,0421458	72,7
     40,6085	    0,042039	72,7	    0,042223	73,0
     40,6114	   0,0422402	72,3	   0,0421881	72,9
     40,6144	    0,042155	72,5	   0,0423991	72,9
     40,6173	   0,0422495	72,7	   0,0422957	72,6
     40,6202	   0,0421922	72,7	   0,0425184	72,5
     40,6232	   0,0422937	72,6	   0,0424912	73,2
     40,6261	   0,0423179	72,7	   0,0425052	72,2
      40,629	   0,0424929	72,9	   0,0425668	73,0
      40,632	   0,0425102	72,6	   0,0426133	72,8
     40,6349	   0,0425501	72,4	   0,0427103	72,7
     40,6378	   0,0425176	72,5	   0,0426898	73,1
     40,6408	   0,0427435	72,5	   0,0427641	72,7
     40,6437	   0,0426492	72,9	   0,0427625	72,7
     40,6466	   0,0428634	72,7	   0,0429178	73,1
     40,6496	   0,0427017	72,9	   0,0428695	73,1
     40,6525	   0,0428712	72,9	   0,0430632	72,9
     40,6554	   0,0429507	72,4	   0,0429809	73,0
     40,6584	   0,0429022	72,9	   0,0431672	72,9
     40,6613	   0,0431052	73,1	   0,0431076	72,7
     40,6642	   0,0429238	72,8	   0,0432763	73,1
     40,6672	   0,0431836	72,9	   0,0432935	72,8
     40,6701	   0,0431847	73,0	   0,0433015	73,1
      40,673	   0,0432121	72,7	   0,0433448	73,0
      40,676	   0,0432392	73,0	   0,0434267	72,9
     40,6789	   0,0433189	72,7	   0,0434601	73,0
     40,6818	   0,0433262	72,8	   0,0435945	72,9
     40,6847	   0,0435208	73,0	   0,0436101	72,8
     40,6877	   0,0433302	73,1	    0,043635	73,0
     40,6906	   0,0434995	72,9	   0,0438013	73,3
     40,6936	   0,0436084	73,3	   0,0436779	73,3
     40,6965	   0,0435737	73,1	     0,04377	73,3
     40,6994	    0,043766	72,9	   0,0438424	73,4
     40,7023	   0,0436762	73,0	   0,0439085	73,1
     40,7053	   0,0438506	72,8	   0,0439362	73,4
     40,7082	   0,0438577	72,8	   0,0440962	73,6
     40,7111	   0,0439956	73,2	   0,0440439	73,1
     40,7141	   0,0439372	72,8	   0,0441478	73,3
      40,717	   0,0440309	73,0	   0,0442162	73,6
     40,7199	    0,044219	73,3	   0,0442961	73,3
     40,7229	   0,0440902	73,0	   0,0442686	73,2
     40,7258	   0,0443029	73,0	   0,0443922	73,5
     40,7287	   0,0442075	73,1	   0,0444981	73,3
     40,7317	   0,0444572	72,7	   0,0445086	73,3
     40,7346	   0,0443819	73,0	   0,0444523	73,5
     40,7375	   0,0443769	73,2	    0,044718	73,4
     40,7405	   0,0445895	73,3	   0,0446016	73,4
     40,7434	   0,0444727	72,8	   0,0446823	73,4
     40,7463	   0,0446737	73,4	    0,044796	73,3
     40,7493	   0,0446675	73,2	   0,0448803	73,4
     40,7522	   0,0447712	72,7	   0,0448988	73,5
     40,7551	   0,0448324	73,1	   0,0449204	73,4
     40,7581	   0,0448192	73,1	   0,0450167	73,1
      40,761	   0,0449584	72,9	   0,0450765	73,6
     40,7639	   0,0449703	73,2	   0,0451874	73,4
     40,7669	   0,0449959	73,4	    0,045211	73,1
     40,7698	   0,0451389	73,2	     0,04522	73,3
     40,7727	   0,0451562	73,4	   0,0453694	73,4
     40,7757	   0,0452322	73,3	    0,045375	73,5
     40,7786	   0,0451462	73,1	   0,0454998	73,6
     40,7815	   0,0453518	73,0	   0,0454814	73,7
     40,7845	   0,0453242	73,3	   0,0455601	73,1
     40,7874	   0,0454494	73,2	    0,045654	73,3
     40,7903	    0,045537	73,1	   0,0457279	73,8
     40,7933	   0,0455796	73,4	   0,0458186	74,0
     40,7962	   0,0456882	72,9	   0,0458125	73,6
     40,7991	   0,0456364	73,1	   0,0458932	73,8
     40,8021	   0,0458148	73,5	   0,0460573	73,9
      40,805	   0,0458099	72,9	   0,0459872	73,7
     40,8079	    0,045875	73,0	     0,04606	73,5
     40,8109	   0,0459074	73,4	   0,0462178	73,9
     40,8138	   0,0461078	73,8	   0,0461779	73,7
     40,8167	   0,0460317	73,2	   0,0463349	73,4
     40,8196	   0,0460896	73,7	   0,0463313	73,8
     40,8226	   0,0462506	73,5	   0,0464273	73,9
     40,8255	   0,0462148	73,5	   0,0464153	73,8
     40,8284	   0,0463675	73,0	   0,0465959	73,6
     40,8314	   0,0464176	73,6	   0,0465476	73,9
     40,8343	   0,0465096	73,4	   0,0467017	73,6
     40,8372	   0,0465117	73,4	   0,0466652	73,7
     40,8402	   0,0466604	73,7	   0,0469021	73,5
     40,8431	   0,0465584	73,4	   0,0468267	73,5
      40,846	   0,0468409	73,5	   0,0468923	73,7
      40,849	   0,0467155	73,4	   0,0470908	74,1
     40,8519	   0,0469588	73,6	   0,0469943	73,7
     40,8548	   0,0468862	73,2	   0,0471058	73,7
     40,8578	   0,0470014	73,3	   0,0473184	74,3
     40,8607	   0,0471256	73,5	   0,0471901	74,4
     40,8636	   0,0471198	73,4	   0,0473704	73,7
     40,8666	   0,0471541	73,4	   0,0475315	74,6
     40,8695	   0,0473063	74,0	   0,0474875	74,2
     40,8724	   0,0472991	73,8	   0,0475529	73,8
     40,8754	   0,0473953	73,7	   0,0476501	73,8
     40,8783	    0,047492	73,7	   0,0476884	73,9
     40,8812	   0,0474434	74,0	   0,0477826	74,0
     40,8842	   0,0475946	73,5	   0,0476977	74,0
     40,8871	   0,0476415	73,8	   0,0478848	73,9
       40,89	   0,0477515	73,8	   0,0480313	74,2
      40,893	   0,0477991	73,8	   0,0480111	73,8
     40,8959	   0,0478346	73,9	   0,0481552	74,0
     40,8988	   0,0480222	73,7	   0,0482051	74,4
     40,9018	   0,0480155	73,8	   0,0483171	74,4
     40,9047	   0,0480013	73,5	   0,0483909	74,2
     40,9076	   0,0480928	73,7	   0,0483755	74,4
     40,9106	   0,0482502	73,9	   0,0485135	74,5
     40,9135	   0,0482532	73,7	    0,048687	74,1
     40,9164	   0,0483719	73,7	   0,0485586	73,9
     40,9194	   0,0485163	73,9	   0,0486549	73,9
     40,9223	    0,048484	74,2	    0,048839	74,2
     40,9252	   0,0486973	73,6	   0,0487219	73,9
     40,9282	   0,0485852	73,9	   0,0489269	73,9
     40,9311	   0,0488921	74,1	    0,049037	74,6
      40,934	   0,0487277	74,1	   0,0490522	73,9
      40,937	    0,048914	73,8	   0,0491757	74,2
     40,9399	   0,0489152	74,1	   0,0492697	74,5
     40,9428	   0,0490905	74,1	   0,0492589	75,0
     40,9457	   0,0491006	73,9	   0,0494169	74,4
     40,9487	   0,0491581	74,0	   0,0494687	74,7
     40,9516	    0,049291	74,0	   0,0495615	74,9
     40,9545	    0,049429	73,8	   0,0496739	74,5
     40,9575	   0,0493689	74,2	    0,049665	74,4
     40,9604	   0,0495492	74,1	   0,0497521	74,6
     40,9633	     0,04963	74,4	   0,0498715	74,6
     40,9663	   0,0497111	74,2	   0,0498793	74,5
     40,9692	   0,0496944	74,0	   0,0500864	74,3
     40,9721	     0,04986	73,7	   0,0500979	74,6
     40,9751	   0,0499042	74,3	   0,0501806	74,8
      40,978	   0,0499507	74,2	   0,0502869	74,7
     40,9809	   0,0500351	73,8	    0,050271	74,6
     40,9839	   0,0500948	74,0	   0,0504163	74,5
     40,9868	   0,0503257	74,4	   0,0504641	74,9
     40,9897	   0,0501414	73,9	   0,0505627	74,6
     40,9927	   0,0503428	74,2	   0,0505925	74,4
     40,9956	   0,0505381	74,5	   0,0507128	74,5
     40,9985	   0,0504672	74,5	   0,0507965	74,6
     41,0015	   0,0506485	74,2	   0,0510359	74,4
     41,0044	   0,0507777	74,4	   0,0510226	74,7
     41,0073	   0,0507147	74,4	   0,0510694	75,0
     41,0103	   0,0508157	74,6	   0,0511269	75,1
     41,0132	   0,0509369	74,2	   0,0513203	74,8
     41,0161	   0,0510611	74,1	   0,0513604	74,9
     41,0191	   0,0510712	74,4	   0,0514373	74,8
      41,022	   0,0511826	74,7	   0,0514446	75,0
     41,0249	   0,0513245	74,1	   0,0516173	74,8
     41,0279	   0,0512888	74,5	   0,0516469	74,8
     41,0308	   0,0514741	74,7	   0,0517938	74,8
     41,0337	   0,0515431	74,9	   0,0519096	75,0
     41,0367	   0,0517708	74,3	   0,0519514	75,2
     41,0396	   0,0516392	74,9	   0,0520136	74,9
     41,0425	   0,0517903	74,8	   0,0521336	75,0
     41,0455	   0,0518575	74,4	   0,0522146	75,1
     41,0484	   0,0519955	74,4	   0,0522936	75,1
     41,0513	    0,052067	74,3	   0,0523332	74,8
     41,0543	   0,0520642	74,6	   0,0525187	74,9
     41,0572	    0,052191	74,8	   0,0525588	75,0
     41,0601	   0,0523225	74,7	   0,0526105	74,8
      41,063	   0,0524303	74,7	   0,0527703	75,1
      41,066	   0,0525978	75,0	   0,0528239	75,5
     41,0689	   0,0525963	74,8	    0,052946	75,5
     41,0718	   0,0526708	74,5	   0,0529101	75,2
     41,0748	   0,0528503	74,4	   0,0532739	75,2
     41,0777	   0,0528972	74,6	   0,0531563	75,5
     41,0806	   0,0530033	74,7	   0,0533262	75,2
     41,0836	   0,0530083	74,7	   0,0535102	75,4
     41,0865	   0,0530987	75,0	   0,0534524	75,6
     41,0894	   0,0532137	75,3	   0,0536498	75,3
     41,0924	    0,053389	75,4	   0,0537418	75,8
     41,0953	   0,0534368	75,0	   0,0537778	75,6
     41,0982	   0,0535157	74,8	   0,0539175	75,4
     41,1012	   0,0536239	74,7	   0,0539656	75,2
     41,1041	   0,0536509	75,2	   0,0539932	75,7
      41,107	   0,0537673	74,7	   0,0542125	75,4
       41,11	    0,053863	74,6	    0,054281	75,5
     41,1129	   0,0539974	75,4	    0,054319	75,5
     41,1158	    0,054085	75,4	   0,0545162	75,5
     41,1188	   0,0541915	75,2	   0,0546076	76,0
     41,1217	   0,0543041	75,2	   0,0545689	75,8
     41,1246	   0,0543299	75,3	   0,0548032	75,3
     41,1276	   0,0544262	75,3	   0,0549087	75,8
     41,1305	   0,0546579	75,3	   0,0550134	75,8
     41,1334	    0,054671	75,2	    0,055119	75,6
     41,1364	   0,0545852	75,4	   0,0550497	75,9
     41,1393	   0,0549653	75,8	   0,0552301	75,7
     41,1422	    0,054998	75,8	   0,0555126	75,8
     41,1452	   0,0550276	75,5	   0,0554646	76,1
     41,1481	   0,0551432	75,2	   0,0556534	75,8
      41,151	   0,0552836	75,5	   0,0556649	75,7
      41,154	   0,0553809	75,6	   0,0558123	75,7
     41,1569	   0,0555003	75,6	    0,055974	76,1
     41,1598	   0,0555766	75,7	   0,0561198	76,0
     41,1628	   0,0556756	75,6	   0,0561577	76,3
     41,1657	   0,0559223	75,8	   0,0561318	76,0
     41,1686	   0,0559546	75,8	   0,0564708	76,3
     41,1716	    0,055911	75,7	   0,0565022	76,3
     41,1745	   0,0561198	75,3	   0,0566319	76,2
     41,1774	   0,0562713	75,6	   0,0567547	76,2
     41,1804	   0,0563007	75,6	   0,0568776	76,1
     41,1833	   0,0565054	76,1	   0,0570257	76,3
     41,1862	   0,0565817	75,9	   0,0569938	76,6
     41,1891	   0,0567256	75,9	    0,057021	76,3
     41,1921	    0,056851	76,0	   0,0573672	76,1
      41,195	   0,0569039	75,8	   0,0573893	76,1
     41,1979	   0,0570812	75,7	   0,0574542	76,3
     41,2009	   0,0572459	75,8	   0,0577131	76,6
     41,2038	   0,0571303	75,8	   0,0577608	76,8
     41,2067	   0,0573761	76,2	   0,0577991	76,3
     41,2097	   0,0574793	76,4	   0,0579343	76,3
     41,2126	   0,0575679	76,0	   0,0580344	76,4
     41,2155	   0,0578032	75,8	   0,0581555	76,4
     41,2185	   0,0577522	75,8	   0,0583226	76,3
     41,2214	   0,0579045	76,1	   0,0585459	76,3
     41,2243	   0,0579636	76,4	   0,0585036	76,7
     41,2273	   0,0582329	75,8	   0,0586531	76,6
     41,2302	   0,0583068	76,3	   0,0587305	76,7
     41,2331	   0,0583769	76,0	   0,0589084	76,5
     41,2361	   0,0585372	76,3	   0,0590538	76,7
      41,239	   0,0586342	76,3	   0,0590256	77,1
     41,2419	   0,0587865	75,7	   0,0593241	77,0
     41,2449	   0,0589289	76,1	   0,0595686	77,2
     41,2478	   0,0589885	76,4	   0,0595196	76,8
     41,2507	   0,0591129	76,5	   0,0596291	76,8
     41,2537	   0,0592854	76,5	   0,0596397	76,7
     41,2566	   0,0593967	76,2	   0,0599484	76,9
     41,2595	   0,0595868	76,2	   0,0602357	77,2
     41,2625	   0,0596373	76,4	   0,0601327	77,4
     41,2654	    0,059784	76,7	   0,0602515	76,9
     41,2683	   0,0599549	76,7	   0,0604826	76,7
     41,2713	   0,0600326	76,5	   0,0606305	77,0
     41,2742	   0,0600528	76,2	   0,0607152	77,3
     41,2771	   0,0603487	76,8	   0,0608436	77,5
     41,2801	   0,0605238	76,7	   0,0611069	77,4
      41,283	   0,0604848	76,8	   0,0612136	77,5
     41,2859	   0,0605752	76,9	   0,0613209	77,4
     41,2889	   0,0608992	76,7	   0,0614382	77,2
     41,2918	   0,0609767	77,1	   0,0615892	77,4
     41,2947	   0,0610888	76,9	   0,0617293	77,7
     41,2977	   0,0612211	76,9	   0,0618738	77,4
     41,3006	   0,0613558	77,2	   0,0620025	77,3
     41,3035	   0,0614554	77,0	   0,0621357	77,4
     41,3064	    0,061762	76,8	   0,0622216	77,7
     41,3094	   0,0617573	76,5	   0,0624408	77,9
     41,3123	   0,0619559	77,1	   0,0626627	77,4
     41,3153	   0,0620679	77,0	   0,0626254	77,8
     41,3182	   0,0622664	76,8	   0,0629444	77,5
     41,3211	   0,0623144	77,1	   0,0630386	77,6
      41,324	   0,0625931	77,6	   0,0630301	77,9
      41,327	   0,0626628	77,6	   0,0633213	77,6
     41,3299	   0,0628193	77,4	   0,0634614	78,0
     41,3328	   0,0629728	77,3	   0,0635964	77,6
     41,3358	   0,0629424	77,4	    0,063769	77,8
     41,3387	   0,0633442	77,5	   0,0638414	77,8
     41,3416	   0,0634998	77,6	   0,0640201	78,0
     41,3446	   0,0634077	77,4	   0,0640813	78,4
     41,3475	   0,0636514	77,5	   0,0643816	78,1
     41,3504	   0,0639436	77,2	   0,0645326	78,0
     41,3534	   0,0639463	77,3	   0,0647461	78,3
     41,3563	   0,0641756	77,5	   0,0648658	78,4
     41,3592	   0,0643253	77,8	    0,064974	78,5
     41,3622	   0,0644852	77,5	   0,0651193	78,5
     41,3651	   0,0645095	77,5	   0,0654371	78,4
      41,368	   0,0646413	77,6	   0,0655744	78,5
      41,371	   0,0648893	77,6	   0,0656122	78,4
     41,3739	   0,0649537	77,9	   0,0657991	78,5
     41,3768	   0,0652321	78,4	   0,0660199	79,0
     41,3798	   0,0654544	78,2	   0,0661277	78,8
     41,3827	   0,0655332	77,9	   0,0662863	78,6
     41,3856	   0,0656575	78,1	   0,0665216	78,3
     41,3886	    0,065855	78,1	   0,0665583	78,9
     41,3915	   0,0660965	78,3	   0,0667969	78,8
     41,3944	   0,0662476	78,5	   0,0670055	79,3
     41,3974	   0,0662089	78,3	   0,0670911	78,9
     41,4003	   0,0665329	78,4	   0,0672444	78,9
     41,4032	   0,0665503	78,0	   0,0673179	79,0
     41,4062	   0,0667372	78,8	    0,067568	79,2
     41,4091	   0,0670101	78,5	   0,0677084	78,8
      41,412	    0,067247	78,4	   0,0678536	79,4
      41,415	   0,0674064	78,9	   0,0682398	79,1
     41,4179	   0,0676704	78,2	   0,0683964	79,6
     41,4208	   0,0675759	78,3	   0,0685004	79,3
     41,4238	   0,0679069	78,6	   0,0687629	79,7
     41,4267	   0,0681547	78,3	   0,0689481	79,4
     41,4296	   0,0683603	78,8	   0,0690359	79,2
     41,4326	    0,068421	78,8	   0,0693127	79,5
     41,4355	   0,0684734	79,6	   0,0692829	80,0
     41,4384	   0,0684903	79,0	   0,0695659	80,0
     41,4413	   0,0689236	79,0	   0,0697238	79,8
     41,4443	   0,0690927	78,7	    0,069754	79,8
     41,4472	   0,0693829	78,9	   0,0703521	79,6
     41,4501	   0,0694718	79,3	   0,0706684	80,1
     41,4531	   0,0695809	79,4	   0,0706916	80,7
      41,456	   0,0699475	79,4	   0,0706732	80,3
     41,4589	   0,0701197	79,1	   0,0711096	79,6
     41,4619	   0,0701807	79,2	    0,071466	79,8
     41,4648	   0,0703584	79,5	   0,0715832	80,0
     41,4677	   0,0705731	79,6	   0,0719204	79,8
     41,4707	   0,0706083	80,3	   0,0718104	80,3
     41,4736	    0,070961	80,1	   0,0721387	80,2
     41,4765	   0,0711573	79,9	   0,0723645	80,3
     41,4795	   0,0715157	79,4	   0,0725982	80,9
     41,4824	   0,0715375	80,2	   0,0728281	80,8
     41,4853	   0,0716618	79,8	   0,0731471	80,1
     41,4883	    0,072003	79,7	   0,0732593	80,3
     41,4912	   0,0724524	80,1	   0,0735947	80,6
     41,4941	   0,0725278	80,2	   0,0737964	80,7
     41,4971	   0,0724982	81,0	   0,0739731	80,6
        41,5	   0,0728725	80,4	   0,0740045	81,0
     41,5029	    0,073197	79,9	   0,0744254	80,8
     41,5059	   0,0732621	80,2	   0,0747527	81,3
     41,5088	   0,0736103	80,4	   0,0751193	81,1
     41,5117	   0,0735979	81,0	   0,0752403	81,0
     41,5147	   0,0739478	80,4	   0,0754682	81,0
     41,5176	   0,0742538	80,2	   0,0757117	81,4
     41,5205	   0,0743522	80,4	   0,0759789	81,4
     41,5235	     0,07446	80,9	   0,0762773	81,5
     41,5264	   0,0747302	80,7	   0,0763758	81,6
     41,5293	   0,0748857	80,6	   0,0767811	81,9
     41,5323	   0,0749773	81,2	   0,0770356	81,6
     41,5352	   0,0753259	81,2	   0,0772171	81,5
     41,5381	    0,075472	81,8	   0,0774508	81,4
     41,5411	   0,0755889	81,9	    0,077685	81,8
      41,544	   0,0762163	81,5	   0,0781712	82,1
     41,5469	   0,0767815	80,8	   0,0784966	82,2
     41,5499	   0,0763504	81,8	   0,0786848	82,1
     41,5528	   0,0767547	81,9	   0,0790132	82,3
     41,5557	   0,0769677	81,5	   0,0794366	81,9
     41,5587	   0,0772594	82,0	   0,0796489	82,4
     41,5616	   0,0774176	82,2	   0,0797275	82,1
     41,5645	   0,0777493	82,5	   0,0800097	82,5
     41,5674	       0,078	82,1	     0,08046	82,8
     41,5704	   0,0781358	82,4	   0,0807087	83,1
     41,5733	   0,0786673	82,1	   0,0808406	83,0
     41,5762	   0,0789614	82,6	   0,0812799	82,9
     41,5792	   0,0790998	82,6	   0,0815938	83,2
     41,5821	   0,0796617	82,0	   0,0819324	82,9
      41,585	   0,0797058	82,7	   0,0822229	82,9
      41,588	   0,0801907	82,6	   0,0824222	82,8
     41,5909	   0,0802671	82,8	   0,0826868	83,3
     41,5938	   0,0807418	82,5	   0,0831644	83,6
     41,5968	    0,080722	82,8	   0,0835044	83,7
     41,5997	   0,0806603	83,4	   0,0838952	83,6
     41,6026	   0,0812389	83,4	   0,0841904	83,9
     41,6056	   0,0816524	83,1	   0,0846217	83,8
     41,6085	   0,0816646	83,4	    0,084877	83,8
     41,6114	   0,0822525	83,4	   0,0852058	83,7
     41,6144	   0,0824231	84,0	   0,0855822	84,0
     41,6173	    0,082787	83,7	   0,0859614	84,3
     41,6202	   0,0830115	83,7	   0,0862696	84,7
     41,6232	   0,0836229	83,5	   0,0865638	84,5
     41,6261	   0,0836968	84,2	   0,0869715	84,7
      41,629	   0,0846295	83,5	    0,087443	84,8
      41,632	   0,0846906	83,7	   0,0877941	84,8
     41,6349	   0,0853038	83,7	   0,0882382	84,6
     41,6378	   0,0849399	84,8	   0,0886176	85,0
     41,6408	   0,0854561	84,7	   0,0891248	85,0
     41,6437	   0,0857649	84,6	   0,0893788	85,2
     41,6466	   0,0860903	85,0	   0,0897932	85,1
     41,6496	   0,0868025	84,8	   0,0902036	85,4
     41,6525	   0,0872557	84,6	   0,0906425	85,8
     41,6554	   0,0870936	84,9	   0,0910609	86,2
     41,6584	   0,0876589	85,1	    0,091498	86,0
     41,6613	    0,087996	85,7	   0,0919701	86,1
     41,6642	   0,0886797	85,3	   0,0923634	86,6
     41,6672	   0,0889054	85,4	   0,0928061	86,4
     41,6701	   0,0892244	86,4	   0,0933158	86,3
      41,673	   0,0894354	86,3	   0,0939398	86,5
      41,676	   0,0904426	85,6	   0,0944136	86,7
     41,6789	   0,0906446	85,8	   0,0947862	86,7
     41,6818	   0,0909533	86,4	   0,0952462	87,2
     41,6847	   0,0916188	86,0	   0,0957757	87,5
     41,6877	   0,0923438	86,2	   0,0963901	88,1
     41,6906	   0,0923772	86,0	   0,0970232	87,6
     41,6936	   0,0930392	86,9	   0,0973696	88,2
     41,6965	   0,0932719	86,6	   0,0979102	88,3
     41,6994	   0,0937329	87,1	   0,0984557	88,5
     41,7023	   0,0939379	87,5	   0,0992372	88,4
     41,7053	   0,0947531	87,8	   0,0995309	88,9
     41,7082	   0,0952341	87,4	    0,100673	88,9
     41,7111	   0,0959811	87,1	    0,101431	89,2
     41,7141	   0,0963665	87,7	    0,102007	89,0
      41,717	   0,0970931	87,8	    0,102631	89,6
     41,7199	    0,097215	87,7	    0,103472	90,1
     41,7229	    0,097958	88,5	    0,103821	90,2
     41,7258	   0,0981131	89,2	    0,104727	90,6
     41,7287	   0,0992181	89,3	      0,1054	91,1
     41,7317	   0,0999688	89,0	    0,106407	91,1
     41,7346	    0,100301	89,4	    0,107789	91,0
     41,7375	    0,101113	89,7	    0,108595	91,5
     41,7405	    0,101498	90,0	    0,109695	92,1
     41,7434	    0,101838	90,4	    0,111512	92,3
     41,7463	    0,102235	90,7	    0,113515	92,5
     41,7493	    0,103239	90,5	    0,115346	93,3
     41,7522	     0,10378	90,5	    0,117662	93,8
     41,7551	    0,104939	90,8	    0,120338	94,5
     41,7581	     0,10524	91,0	    0,124301	95,9
      41,761	    0,105553	90,6	     0,12778	97,4
     41,7639	    0,106737	91,4	    0,131622	98,2
     41,7669	    0,107067	92,3	    0,135882	99,3
     41,7698	    0,107935	92,8	    0,140279	101,6
     41,7727	    0,108472	92,2	    0,144287	103,3
     41,7757	    0,108977	92,9	    0,148057	105,1
     41,7786	    0,110191	93,1	    0,151637	107,0
     41,7815	    0,111171	93,0	     0,15543	109,0
     41,7845	    0,111048	93,7	    0,159281	111,2
     41,7874	    0,112235	94,0	    0,162219	112,6
     41,7903	    0,113283	94,6	    0,165039	114,7
     41,7933	    0,113984	94,4	    0,168003	116,2
     41,7962	    0,114241	94,9	    0,170349	117,5
     41,7991	    0,116463	95,1	    0,172527	119,5
     41,8021	    0,116406	96,1	    0,175078	121,3
      41,805	     0,11763	96,5	    0,176881	122,4
     41,8079	    0,118619	97,1	    0,178831	123,5
     41,8109	    0,119718	97,4	    0,180615	125,7
     41,8138	    0,120727	97,8	    0,181789	127,2
     41,8167	    0,121276	98,3	    0,183417	127,8
     41,8196	    0,123448	99,0	    0,184537	129,4
     41,8226	    0,125308	99,3	     0,18568	130,6
     41,8255	     0,12559	99,6	    0,186353	131,5
     41,8284	    0,127331	100,2	    0,187335	132,4
     41,8314	    0,129056	101,1	    0,187966	133,6
     41,8343	    0,130124	101,6	     0,18882	134,4
     41,8372	    0,131107	102,3	     0,18946	135,1
     41,8402	    0,133739	102,9	    0,189895	136,4
     41,8431	      0,1354	103,6	    0,189802	137,2
      41,846	    0,136901	104,1	    0,190595	137,6
      41,849	    0,139152	105,7	     0,19143	138,5
     41,8519	    0,140952	106,4	    0,190837	139,1
     41,8548	    0,141916	107,2	       0,192	139,8
     41,8578	    0,144247	108,7	    0,192385	140,9
     41,8607	     0,14654	109,9	    0,192184	141,8
     41,8636	    0,148307	111,0	     0,19266	142,2
     41,8666	    0,150373	112,0	    0,192967	142,8
     41,8695	     0,15236	114,1	    0,193197	143,6
     41,8724	    0,155052	115,6	    0,192105	144,5
     41,8754	    0,158363	116,9	    0,192588	144,8
     41,8783	    0,161128	119,2	    0,193053	145,7
     41,8812	    0,164179	121,3	    0,193005	146,3
     41,8842	    0,166498	123,2	    0,193493	146,5
     41,8871	    0,169149	125,0	    0,193303	147,2
       41,89	    0,171819	127,9	    0,193162	147,9
      41,893	    0,174623	130,4	    0,193339	148,3
     41,8959	    0,177481	131,9	    0,193432	149,1
     41,8988	    0,180243	135,0	    0,193668	149,7
     41,9018	    0,181474	137,3	    0,193486	149,7
     41,9047	    0,183772	139,2	    0,193298	150,2
     41,9076	    0,185979	141,5	    0,192797	151,0
     41,9106	    0,186914	143,9	     0,19306	151,2
     41,9135	    0,187657	145,1	    0,193456	151,6
     41,9164	     0,18923	147,2	    0,193105	152,4
     41,9194	    0,189135	148,6	    0,193081	152,5
     41,9223	    0,189669	149,6	    0,193058	153,0
     41,9252	    0,189667	150,3	    0,192764	153,3
     41,9282	    0,189532	151,5	    0,192703	153,4
     41,9311	    0,189493	152,3	    0,192453	154,1
      41,934	     0,19038	152,6	    0,192279	154,8
      41,937	    0,190086	153,8	    0,192797	155,0
     41,9399	    0,189411	154,7	     0,19169	155,0
     41,9428	    0,190089	154,2	    0,192383	156,1
     41,9457	    0,190801	155,4	    0,191653	155,9
     41,9487	    0,189838	155,7	     0,19167	156,3
     41,9516	    0,189254	155,9	    0,191543	156,8
     41,9545	    0,189206	156,5	    0,191299	157,1
     41,9575	    0,188662	157,5	    0,190421	157,1
     41,9604	    0,188812	156,9	    0,190779	157,9
     41,9633	    0,188224	158,3	    0,190739	158,7
     41,9663	    0,188573	159,0	    0,190265	158,5
     41,9692	     0,18779	158,6	    0,190369	159,2
     41,9721	    0,188515	159,3	    0,190222	159,2
     41,9751	    0,187893	159,7	    0,190296	159,6
      41,978	    0,187539	159,6	    0,189754	160,5
     41,9809	    0,188076	159,6	    0,189624	160,5
     41,9839	    0,187169	160,7	    0,189342	160,6
     41,9868	    0,187521	160,3	    0,189704	161,2
     41,9897	    0,186789	161,8	    0,189356	161,8
     41,9927	    0,186359	161,5	    0,188422	161,6
     41,9956	     0,18672	161,5	    0,188612	162,5
     41,9985	    0,186224	162,1	    0,188569	162,3
     42,0015	    0,185421	163,0	    0,188139	163,0
     42,0044	    0,186227	162,6	    0,187866	163,6
     42,0073	    0,185496	163,5	    0,187809	163,4
     42,0103	    0,185483	163,5	    0,187533	164,0
     42,0132	    0,185389	163,5	    0,187352	164,1
     42,0161	    0,184885	164,8	     0,18647	163,8
     42,0191	    0,184801	164,8	    0,186504	165,0
      42,022	    0,184309	164,4	    0,186979	165,3
     42,0249	    0,183717	165,2	    0,185812	165,0
     42,0279	    0,184355	165,3	    0,186034	165,8
     42,0308	     0,18396	165,7	    0,185847	165,5
     42,0337	    0,183765	166,0	    0,185907	166,3
     42,0367	    0,182876	166,3	    0,185217	166,7
     42,0396	    0,183522	166,4	    0,185496	167,1
     42,0425	    0,182787	167,5	    0,184798	166,8
     42,0455	    0,182276	167,2	    0,184738	167,5
     42,0484	    0,182179	167,0	    0,184429	167,2
     42,0513	    0,182206	168,1	    0,184465	168,0
     42,0543	    0,181839	167,8	    0,184137	168,6
     42,0572	    0,181482	168,5	    0,184103	168,4
     42,0601	    0,181526	168,5	    0,183275	168,6
      42,063	    0,180626	168,5	    0,183165	169,4
      42,066	    0,181133	169,3	    0,182687	168,9
     42,0689	    0,180533	169,6	    0,182712	169,5
     42,0718	    0,180658	169,5	    0,182357	169,6
     42,0748	    0,180008	169,4	    0,182042	169,6
     42,0777	    0,179143	170,2	    0,181573	170,4
     42,0806	    0,179448	170,2	    0,181244	170,3
     42,0836	    0,179242	171,1	    0,180625	170,1
     42,0865	     0,17907	171,1	    0,180801	170,6
     42,0894	    0,178959	171,0	    0,180593	170,9
     42,0924	      0,1785	171,8	    0,179996	170,9
     42,0953	    0,177932	171,6	    0,179838	171,3
     42,0982	    0,177486	172,1	    0,179693	170,9
     42,1012	     0,17768	172,2	    0,178506	171,6
     42,1041	    0,177305	172,4	    0,178482	172,2
      42,107	    0,176277	172,8	     0,17867	172,0
       42,11	    0,176096	173,6	    0,178317	172,3
     42,1129	    0,177121	173,0	    0,177863	172,2
     42,1158	    0,176137	173,0	    0,177257	172,7
     42,1188	    0,175065	174,4	    0,177142	173,3
     42,1217	    0,175526	173,8	    0,176485	173,0
     42,1246	    0,175011	174,9	     0,17676	173,6
     42,1276	    0,174663	174,8	    0,176259	174,0
     42,1305	    0,174412	174,5	    0,176158	173,9
     42,1334	     0,17479	175,4	    0,175811	174,7
     42,1364	    0,173565	175,3	    0,175642	174,7
     42,1393	    0,173605	175,6	    0,175528	174,6
     42,1422	    0,172851	176,0	    0,174795	175,1
     42,1452	    0,172933	175,8	    0,174886	175,3
     42,1481	    0,172676	176,3	    0,174038	176,1
      42,151	    0,172806	176,6	    0,173942	176,1
      42,154	    0,172003	176,3	    0,173786	176,1
     42,1569	    0,171622	177,0	    0,173036	176,4
     42,1598	    0,171361	176,6	    0,172423	176,3
     42,1628	    0,171598	177,5	    0,172624	176,9
     42,1657	    0,170245	178,1	    0,172503	177,0
     42,1686	     0,17025	177,2	    0,171844	177,4
     42,1716	    0,169989	177,9	    0,171563	177,6
     42,1745	    0,169001	177,6	    0,171451	177,9
     42,1774	    0,169575	178,0	    0,170989	177,6
     42,1804	    0,169625	178,7	    0,170635	178,1
     42,1833	    0,169455	178,5	    0,170775	178,4
     42,1862	    0,168545	178,7	    0,170343	178,3
     42,1891	    0,168996	178,9	    0,169981	178,7
     42,1921	    0,168087	178,9	    0,169895	178,6
      42,195	     0,16734	179,6	    0,169581	179,3
     42,1979	    0,167649	179,5	     0,16912	179,3
     42,2009	    0,167077	179,6	    0,168733	179,3
     42,2038	    0,166614	180,3	    0,168053	179,6
     42,2067	    0,166772	179,7	    0,167789	179,8
     42,2097	    0,166191	180,8	    0,167921	180,4
     42,2126	     0,16538	180,8	    0,166716	180,3
     42,2155	    0,165785	180,6	    0,166693	180,4
     42,2185	    0,164758	181,8	    0,166744	181,0
     42,2214	    0,164606	181,3	    0,166271	180,9
     42,2243	     0,16452	182,0	    0,165299	181,3
     42,2273	    0,164657	182,1	    0,165646	181,4
     42,2302	    0,164679	182,1	     0,16563	182,1
     42,2331	    0,163472	182,7	    0,164852	181,9
     42,2361	    0,163176	182,1	    0,164792	181,8
      42,239	     0,16246	182,9	    0,164504	182,5
     42,2419	    0,162207	183,0	    0,164132	182,3
     42,2449	    0,163226	182,7	    0,164111	182,6
     42,2478	    0,161966	183,2	    0,163685	182,5
     42,2507	    0,161805	182,9	    0,163288	182,5
     42,2537	    0,161417	183,5	    0,162944	183,1
     42,2566	    0,160927	183,7	    0,162717	183,2
     42,2595	     0,16071	183,6	    0,162723	183,8
     42,2625	      0,1605	184,3	    0,161431	183,8
     42,2654	    0,160275	184,1	    0,161913	184,0
     42,2683	    0,159157	184,4	    0,161354	184,4
     42,2713	    0,159104	185,1	    0,161271	184,6
     42,2742	    0,159487	184,7	    0,160805	184,9
     42,2771	    0,159211	185,4	     0,16016	185,1
     42,2801	    0,158087	185,3	    0,160455	185,0
      42,283	     0,15826	185,5	     0,15936	185,4
     42,2859	     0,15826	185,6	    0,158994	184,9
     42,2889	    0,157292	185,6	    0,158363	185,7
     42,2918	    0,157104	186,4	    0,158893	185,2
     42,2947	    0,156616	185,6	     0,15875	185,8
     42,2977	      0,1567	186,4	     0,15803	185,9
     42,3006	    0,156215	186,8	    0,157933	186,3
     42,3035	    0,156127	186,5	     0,15799	186,5
     42,3064	    0,155373	186,9	    0,157073	186,3
     42,3094	    0,155319	186,3	     0,15657	186,7
     42,3123	     0,15505	187,3	    0,156181	186,9
     42,3153	    0,154566	187,3	    0,156061	187,4
     42,3182	    0,154336	187,4	    0,155299	187,5
     42,3211	    0,153649	187,8	     0,15572	187,5
      42,324	    0,154138	188,2	    0,155499	188,1
      42,327	     0,15304	188,0	      0,1555	187,6
     42,3299	    0,152958	188,1	    0,154728	188,1
     42,3328	    0,152275	188,6	    0,154017	188,1
     42,3358	    0,152755	188,6	    0,154205	188,2
     42,3387	    0,152286	188,7	    0,153163	188,3
     42,3416	    0,152055	189,3	    0,153046	188,6
     42,3446	    0,152021	189,2	    0,152989	188,8
     42,3475	    0,151059	189,2	    0,152682	189,2
     42,3504	    0,150707	189,1	    0,152101	189,6
     42,3534	     0,15047	189,7	    0,152034	189,5
     42,3563	    0,150065	189,9	    0,152147	189,7
     42,3592	    0,149459	189,5	    0,150504	190,3
     42,3622	     0,14955	190,4	    0,150761	190,0
     42,3651	    0,148866	190,3	    0,150171	189,9
      42,368	    0,148942	191,1	    0,151057	190,0
      42,371	    0,148909	191,2	    0,150045	190,5
     42,3739	    0,148128	191,2	    0,149546	190,5
     42,3768	    0,148054	191,3	    0,149456	190,4
     42,3798	     0,14795	191,1	    0,149107	191,1
     42,3827	    0,147398	191,5	    0,148728	191,4
     42,3856	    0,147017	191,3	    0,148579	191,7
     42,3886	    0,146924	191,8	    0,148527	191,6
     42,3915	     0,14666	191,7	    0,147617	192,3
     42,3944	     0,14618	192,3	    0,147581	192,2
     42,3974	    0,146159	192,6	    0,147082	192,1
     42,4003	    0,144923	192,0	    0,146405	192,2
     42,4032	    0,145117	193,1	    0,146593	192,2
     42,4062	    0,144483	192,6	    0,146146	192,3
     42,4091	    0,144818	192,9	    0,146175	192,4
      42,412	    0,144519	193,4	    0,145006	192,8
      42,415	    0,143811	193,0	    0,145462	192,8
     42,4179	    0,143874	193,6	    0,144422	193,5
     42,4208	    0,143293	193,3	    0,145013	193,3
     42,4238	    0,143162	193,5	    0,143576	193,5
     42,4267	    0,142493	193,4	    0,144069	194,1
     42,4296	    0,142342	194,1	    0,143617	193,8
     42,4326	    0,141461	194,1	    0,143117	194,1
     42,4355	    0,141479	195,0	    0,142985	193,8
     42,4384	    0,141553	194,5	    0,142825	194,4
     42,4413	    0,140656	194,4	    0,142258	194,2
     42,4443	    0,141182	195,0	    0,141653	194,8
     42,4472	    0,140817	194,8	    0,141999	194,7
     42,4501	    0,140453	194,9	     0,14096	195,1
     42,4531	    0,140026	195,0	    0,140846	195,3
      42,456	    0,139566	195,3	    0,140572	195,3
     42,4589	    0,138752	195,4	    0,140214	195,2
     42,4619	    0,138863	195,8	    0,139804	195,4
     42,4648	    0,138298	195,9	    0,139311	195,6
     42,4677	     0,13857	196,3	    0,139285	195,1
     42,4707	     0,13788	196,5	    0,138966	196,1
     42,4736	    0,137221	196,3	      0,1388	196,1
     42,4765	    0,137384	196,4	    0,138205	196,5
     42,4795	    0,136735	196,4	    0,138426	196,4
     42,4824	    0,136886	196,8	    0,137035	196,8
     42,4853	    0,135889	196,6	    0,137809	196,4
     42,4883	    0,136243	197,3	    0,136607	196,6
     42,4912	    0,135386	197,1	    0,136614	196,6
     42,4941	    0,135412	197,4	    0,135969	196,8
     42,4971	    0,135092	197,4	    0,136034	197,2
        42,5	    0,134801	197,8	    0,135336	197,6
     42,5029	    0,134226	197,5	    0,135025	197,4
     42,5059	    0,133743	197,6	    0,135343	197,8
     42,5088	    0,133612	197,9	    0,134625	197,9
     42,5117	    0,133122	197,7	    0,134608	197,6
     42,5147	    0,132714	198,1	     0,13415	198,1
     42,5176	    0,132749	198,5	    0,133036	197,5
     42,5205	    0,132479	198,2	    0,133559	198,6
     42,5235	    0,131866	198,7	    0,133331	198,4
     42,5264	    0,131826	198,9	    0,132386	198,6
     42,5293	    0,131378	198,7	    0,132175	198,5
     42,5323	     0,13115	199,1	     0,13173	199,1
     42,5352	    0,130998	199,2	    0,131889	198,8
     42,5381	    0,130219	198,9	    0,131392	199,0
     42,5411	    0,129947	199,3	    0,131118	199,2
      42,544	    0,130221	-159,9	    0,130763	199,6
     42,5469	    0,129309	-160,9	    0,130497	199,6
     42,5499	    0,129415	-160,0	    0,130564	199,7
     42,5528	    0,128962	-160,1	    0,129901	199,9
     42,5557	    0,128524	-160,1	    0,129738	199,8
     42,5587	    0,128139	-159,8	    0,129099	200,0
     42,5616	      0,1282	-159,4	    0,128916	-159,8
     42,5645	    0,127811	-159,3	    0,128361	-159,8
     42,5674	    0,127301	-159,3	    0,128275	-159,4
     42,5704	    0,126783	-159,5	     0,12856	-159,1
     42,5733	    0,126298	-159,3	    0,127677	-159,3
     42,5762	    0,126206	-159,0	    0,127465	-158,9
     42,5792	    0,125951	-159,2	    0,127448	-159,1
     42,5821	    0,125786	-158,5	    0,126646	-158,8
      42,585	    0,125405	-158,3	    0,126365	-158,8
      42,588	    0,125461	-158,0	    0,125828	-158,8
     42,5909	    0,125004	-158,4	    0,125331	-158,8
     42,5938	    0,124744	-158,2	    0,125372	-158,2
     42,5968	    0,124196	-158,4	    0,125218	-158,3
     42,5997	     0,12373	-158,1	    0,124155	-158,3
     42,6026	    0,123026	-158,2	    0,124274	-158,4
     42,6056	    0,123391	-157,4	    0,123554	-157,9
     42,6085	    0,122542	-157,8	    0,123947	-157,9
     42,6114	    0,122674	-157,4	    0,123081	-157,4
     42,6144	     0,12192	-157,4	    0,123341	-157,5
     42,6173	    0,122291	-157,1	    0,122927	-157,6
     42,6202	    0,121353	-157,7	    0,121987	-157,2
     42,6232	    0,121662	-156,7	    0,122138	-157,3
     42,6261	    0,120851	-156,6	    0,121612	-157,4
      42,629	    0,120808	-156,5	    0,121827	-156,5
      42,632	    0,119938	-156,6	     0,12142	-156,6
     42,6349	    0,120434	-156,4	    0,120676	-156,4
     42,6378	    0,119805	-156,7	    0,120357	-156,7
     42,6408	    0,119525	-156,1	    0,120729	-156,3
     42,6437	     0,11907	-156,5	    0,120206	-156,4
     42,6466	    0,118876	-155,7	    0,120047	-156,1
     42,6496	    0,117934	-156,0	    0,119457	-156,2
     42,6525	    0,118441	-155,8	    0,119219	-155,5
     42,6554	    0,117952	-156,4	    0,118611	-155,9
     42,6584	    0,118109	-155,5	    0,118154	-155,7
     42,6613	    0,117158	-155,4	    0,118073	-155,9
     42,6642	    0,117345	-154,8	    0,118373	-155,3
     42,6672	    0,117048	-154,9	    0,117996	-155,3
     42,6701	    0,116783	-154,6	    0,117411	-154,8
      42,673	    0,116223	-155,2	    0,117563	-154,9
      42,676	    0,116145	-154,8	    0,116678	-154,8
     42,6789	    0,115036	-155,1	    0,116692	-155,2
     42,6818	    0,115638	-154,2	    0,116498	-154,6
     42,6847	    0,114977	-154,3	     0,11593	-154,3
     42,6877	    0,114819	-153,8	     0,11541	-154,1
     42,6906	    0,113871	-154,6	    0,115267	-154,1
     42,6936	    0,114205	-154,2	    0,115088	-154,3
     42,6965	    0,113312	-154,4	    0,115029	-154,0
     42,6994	    0,113498	-153,7	    0,114114	-154,0
     42,7023	    0,113069	-153,7	      0,1139	-153,8
     42,7053	    0,112853	-153,6	    0,114029	-153,5
     42,7082	    0,112528	-153,4	    0,113968	-153,3
     42,7111	    0,112471	-153,3	    0,112767	-153,5
     42,7141	    0,111776	-153,7	    0,113135	-153,4
      42,717	    0,111626	-153,3	    0,112169	-153,5
     42,7199	    0,111096	-153,3	    0,112631	-153,0
     42,7229	    0,111318	-152,9	    0,111987	-152,7
     42,7258	    0,110987	-152,7	    0,111534	-153,1
     42,7287	    0,110304	-152,9	    0,110907	-153,3
     42,7317	      0,1104	-152,6	    0,111532	-152,6
     42,7346	    0,109863	-152,6	     0,11057	-152,8
     42,7375	    0,109766	-152,2	    0,110463	-152,4
     42,7405	    0,108924	-152,5	    0,110639	-152,3
     42,7434	    0,109435	-152,2	    0,109754	-152,0
     42,7463	    0,108604	-152,3	    0,109572	-152,6
     42,7493	    0,108533	-152,1	    0,109263	-152,2
     42,7522	    0,107927	-152,0	    0,109156	-151,6
     42,7551	    0,108099	-151,5	    0,108737	-151,7
     42,7581	    0,107626	-152,1	    0,108257	-151,7
      42,761	    0,107266	-151,5	    0,107946	-152,0
     42,7639	    0,106875	-152,0	    0,108254	-151,4
     42,7669	    0,107045	-151,2	    0,107413	-151,7
     42,7698	     0,10636	-151,0	    0,107125	-151,4
     42,7727	    0,106408	-150,6	    0,106555	-151,4
     42,7757	     0,10575	-151,1	    0,106591	-151,1
     42,7786	    0,105486	-151,1	    0,106175	-151,6
     42,7815	    0,105154	-150,7	    0,105802	-150,9
     42,7845	    0,104943	-150,6	    0,105157	-151,5
     42,7874	    0,104573	-150,3	    0,105202	-150,6
     42,7903	     0,10425	-150,5	    0,104992	-150,7
     42,7933	    0,104332	-150,4	      0,1049	-150,8
     42,7962	    0,103456	-150,8	    0,104442	-150,8
     42,7991	    0,103779	-150,1	    0,104716	-150,2
     42,8021	    0,102926	-150,1	    0,104461	-149,9
      42,805	    0,103177	-149,7	    0,103881	-150,2
     42,8079	    0,102703	-150,3	    0,103849	-150,0
     42,8109	    0,102756	-149,7	    0,102856	-150,3
     42,8138	    0,102562	-150,0	    0,103316	-149,9
     42,8167	    0,102214	-149,5	    0,102605	-149,7
     42,8196	    0,101545	-149,3	    0,102678	-149,5
     42,8226	    0,101178	-149,9	    0,102334	-149,9
     42,8255	    0,101285	-149,5	    0,102049	-149,3
     42,8284	    0,101092	-149,5	    0,101814	-149,5
     42,8314	    0,100782	-148,7	    0,101212	-149,4
     42,8343	    0,099793	-149,4	    0,100834	-148,9
     42,8372	    0,100222	-148,5	    0,100933	-149,2
     42,8402	   0,0992692	-149,6	    0,100815	-148,9
     42,8431	   0,0997301	-148,8	    0,100056	-149,2
      42,846	   0,0992067	-148,6	    0,100032	-148,6
      42,849	   0,0990892	-148,7	   0,0997354	-148,6
     42,8519	   0,0987602	-148,6	   0,0990866	-148,8
     42,8548	   0,0985794	-148,6	   0,0990741	-148,7
     42,8578	   0,0980953	-148,4	   0,0991515	-148,5
     42,8607	   0,0978128	-148,3	   0,0983525	-148,5
     42,8636	   0,0978214	-147,8	    0,098094	-148,2
     42,8666	   0,0974336	-148,0	     0,09825	-148,2
     42,8695	   0,0973856	-147,7	   0,0971024	-148,9
     42,8724	   0,0969172	-147,9	   0,0971871	-148,0
     42,8754	   0,0967305	-147,7	   0,0969938	-148,4
     42,8783	   0,0964148	-147,8	   0,0967289	-147,6
     42,8812	    0,096263	-147,3	   0,0964469	-148,0
     42,8842	   0,0957447	-147,6	   0,0964381	-147,6
     42,8871	   0,0953307	-147,8	   0,0959764	-147,7
       42,89	   0,0950241	-147,7	   0,0958432	-147,1
      42,893	   0,0949561	-147,1	   0,0958575	-147,3
     42,8959	   0,0949807	-146,9	   0,0951932	-147,6
     42,8988	   0,0944016	-147,5	   0,0951784	-147,0
     42,9018	   0,0944213	-146,7	   0,0944578	-147,4
     42,9047	   0,0940752	-146,8	   0,0943118	-147,1
     42,9076	   0,0937951	-146,5	   0,0939903	-146,9
     42,9106	    0,093584	-146,6	   0,0937289	-146,9
     42,9135	   0,0932332	-146,9	   0,0939782	-146,9
     42,9164	   0,0929682	-146,6	   0,0929051	-147,0
     42,9194	   0,0923776	-146,6	   0,0931483	-146,4
     42,9223	   0,0925613	-146,4	   0,0922925	-146,8
     42,9252	   0,0920973	-146,4	    0,092619	-146,4
     42,9282	   0,0920308	-146,2	   0,0924271	-146,2
     42,9311	   0,0915407	-146,2	    0,092302	-146,0
      42,934	   0,0912995	-146,0	   0,0920943	-146,1
      42,937	     0,09122	-145,5	   0,0917599	-146,3
     42,9399	   0,0910081	-146,0	   0,0915913	-145,7
     42,9428	   0,0907486	-145,8	   0,0913659	-145,5
     42,9457	   0,0904158	-145,5	     0,09103	-145,5
     42,9487	   0,0903024	-145,8	   0,0903703	-145,9
     42,9516	   0,0901214	-145,2	   0,0905672	-145,6
     42,9545	   0,0894166	-145,8	   0,0903087	-145,2
     42,9575	   0,0890193	-145,3	   0,0895571	-145,6
     42,9604	   0,0892787	-145,3	   0,0897887	-144,9
     42,9633	   0,0886525	-145,3	   0,0895821	-145,6
     42,9663	   0,0882863	-145,6	   0,0892862	-145,2
     42,9692	   0,0882178	-144,9	   0,0890872	-144,9
     42,9721	   0,0878955	-144,6	   0,0887325	-144,6
     42,9751	   0,0876294	-144,9	   0,0885556	-144,8
      42,978	   0,0877731	-144,8	   0,0881105	-145,4
     42,9809	   0,0873751	-145,0	   0,0879704	-144,4
     42,9839	   0,0870877	-144,1	   0,0877109	-144,5
     42,9868	    0,086735	-144,3	   0,0874792	-144,3
     42,9897	    0,086802	-144,6	   0,0873632	-144,6
     42,9927	   0,0864757	-144,3	   0,0869449	-144,6
     42,9956	   0,0863001	-144,5	   0,0868182	-144,1
     42,9985	   0,0860783	-143,6	   0,0865842	-144,6
     43,0015	    0,085891	-144,0	    0,086245	-144,2
     43,0044	    0,085649	-144,1	   0,0861419	-144,1
     43,0073	   0,0853782	-143,7	   0,0856616	-144,0
     43,0103	   0,0851082	-143,7	   0,0856207	-143,7
     43,0132	   0,0848461	-143,4	   0,0852516	-144,4
     43,0161	   0,0846757	-144,0	   0,0851631	-143,7
     43,0191	   0,0844006	-143,5	   0,0845306	-143,9
      43,022	    0,084241	-142,9	   0,0843396	-143,7
     43,0249	   0,0838751	-143,4	   0,0843609	-143,4
     43,0279	   0,0837624	-143,0	   0,0839648	-143,6
     43,0308	   0,0835645	-143,2	   0,0839235	-143,0
     43,0337	   0,0832917	-142,7	   0,0836867	-143,5
     43,0367	   0,0829185	-142,9	     0,08347	-143,4
     43,0396	   0,0827405	-143,3	   0,0832282	-143,2
     43,0425	   0,0826097	-142,7	   0,0823675	-143,4
     43,0455	   0,0823804	-142,6	   0,0827034	-142,7
     43,0484	   0,0821548	-143,0	   0,0826033	-143,3
     43,0513	   0,0817227	-142,8	    0,082352	-143,0
     43,0543	   0,0815597	-142,9	   0,0819537	-142,6
     43,0572	   0,0814133	-141,9	   0,0818318	-143,0
     43,0601	   0,0811963	-142,4	   0,0815709	-142,3
      43,063	   0,0809726	-142,5	   0,0813402	-142,8
      43,066	   0,0807294	-142,5	    0,081245	-142,2
     43,0689	   0,0804841	-142,0	   0,0809045	-142,4
     43,0718	   0,0802253	-141,8	   0,0806087	-142,7
     43,0748	   0,0800881	-142,2	   0,0804088	-142,1
     43,0777	   0,0798236	-141,9	   0,0803035	-142,1
     43,0806	   0,0795571	-141,5	    0,080045	-142,3
     43,0836	   0,0793422	-142,1	   0,0798235	-142,0
     43,0865	   0,0791156	-141,8	   0,0795567	-142,2
     43,0894	   0,0789564	-141,9	   0,0793307	-141,6
     43,0924	   0,0787783	-141,4	   0,0791617	-141,6
     43,0953	   0,0785328	-141,4	    0,078931	-142,1
     43,0982	   0,0783227	-141,9	   0,0786994	-141,4
     43,1012	   0,0779993	-141,3	   0,0784148	-141,6
     43,1041	   0,0778361	-141,5	   0,0782144	-141,9
      43,107	   0,0776186	-141,4	   0,0780303	-141,5
       43,11	   0,0774497	-141,1	   0,0777984	-141,5
     43,1129	   0,0771941	-141,0	    0,077563	-140,9
     43,1158	   0,0770062	-141,2	   0,0773154	-141,4
     43,1188	   0,0766949	-140,9	   0,0769707	-141,4
     43,1217	   0,0765479	-141,4	   0,0769514	-140,6
     43,1246	   0,0763583	-140,4	    0,076646	-141,1
     43,1276	   0,0761158	-140,9	   0,0764739	-140,9
     43,1305	   0,0758168	-140,9	   0,0762655	-140,5
     43,1334	   0,0756828	-140,4	    0,076108	-140,7
     43,1364	   0,0754894	-140,6	   0,0758542	-140,7
     43,1393	   0,0752934	-140,9	   0,0756422	-140,9
     43,1422	   0,0750662	-140,7	   0,0754341	-140,5
     43,1452	   0,0748862	-140,4	   0,0751994	-140,3
     43,1481	   0,0745696	-140,0	    0,075045	-140,7
      43,151	   0,0744598	-140,1	    0,074752	-140,3
      43,154	   0,0741929	-140,1	   0,0745626	-140,1
     43,1569	    0,073994	-140,0	   0,0744795	-140,3
     43,1598	   0,0738744	-140,0	   0,0741419	-140,2
     43,1628	   0,0735748	-140,1	   0,0739649	-140,4
     43,1657	   0,0734211	-139,6	   0,0737027	-139,9
     43,1686	      0,0732	-139,8	   0,0735298	-140,0
     43,1716	   0,0730504	-139,9	   0,0732656	-140,3
     43,1745	   0,0728864	-139,8	   0,0730779	-139,6
     43,1774	   0,0725861	-139,5	   0,0729105	-139,7
     43,1804	   0,0723547	-139,4	   0,0727986	-140,1
     43,1833	    0,072283	-139,9	    0,072583	-139,4
     43,1862	   0,0719646	-139,4	   0,0723347	-139,6
     43,1891	    0,071725	-139,1	   0,0720701	-139,5
     43,1921	    0,071631	-139,6	   0,0718854	-139,3
      43,195	   0,0714318	-139,3	   0,0717362	-139,5
     43,1979	   0,0711839	-138,6	   0,0715673	-139,0
     43,2009	   0,0710688	-139,3	    0,071318	-139,4
     43,2038	   0,0708479	-139,3	   0,0710632	-139,4
     43,2067	   0,0706012	-139,2	   0,0709321	-139,4
     43,2097	   0,0704191	-138,9	   0,0706091	-139,2
     43,2126	   0,0702528	-138,7	   0,0705655	-139,3
     43,2155	   0,0699819	-138,7	   0,0703259	-138,7
     43,2185	   0,0698535	-138,6	   0,0701194	-139,0
     43,2214	   0,0696226	-138,7	   0,0700152	-139,1
     43,2243	   0,0694892	-139,3	   0,0697733	-138,8
     43,2273	   0,0692388	-138,5	    0,069497	-138,8
     43,2302	   0,0690537	-138,2	   0,0693652	-139,0
     43,2331	   0,0689148	-138,9	   0,0691972	-138,4
     43,2361	   0,0687275	-138,3	   0,0690402	-138,4
      43,239	   0,0685723	-138,1	   0,0686761	-138,3
     43,2419	   0,0682448	-138,3	   0,0684617	-138,6
     43,2449	   0,0679754	-138,4	   0,0684097	-138,1
     43,2478	   0,0678964	-137,8	   0,0682888	-138,5
     43,2507	     0,06782	-138,5	   0,0680202	-138,5
     43,2537	   0,0676561	-138,0	   0,0677932	-138,4
     43,2566	   0,0674416	-138,3	   0,0675881	-137,9
     43,2595	   0,0672115	-137,7	   0,0674705	-138,3
     43,2625	   0,0669351	-137,7	   0,0672574	-138,3
     43,2654	   0,0668676	-137,9	   0,0670378	-137,7
     43,2683	   0,0667441	-138,0	   0,0668926	-137,9
     43,2713	   0,0664469	-137,5	   0,0667629	-138,3
     43,2742	   0,0663167	-138,0	   0,0666046	-137,7
     43,2771	   0,0661414	-137,4	   0,0663144	-137,6
     43,2801	   0,0659185	-137,3	   0,0661947	-138,3
      43,283	   0,0657612	-138,1	   0,0660091	-137,4
     43,2859	   0,0656258	-137,3	   0,0656766	-137,6
     43,2889	   0,0654055	-137,3	   0,0656902	-137,8
     43,2918	   0,0652692	-137,7	   0,0654862	-137,2
     43,2947	   0,0649859	-137,1	   0,0652056	-137,5
     43,2977	   0,0646971	-137,3	   0,0650558	-137,8
     43,3006	   0,0646879	-137,8	   0,0648524	-137,1
     43,3035	   0,0645374	-137,2	   0,0647733	-137,0
     43,3064	   0,0643992	-137,1	   0,0646328	-137,6
     43,3094	   0,0641838	-137,3	   0,0643387	-136,9
     43,3123	   0,0640408	-137,1	   0,0641773	-137,0
     43,3153	   0,0638766	-136,8	   0,0640228	-137,1
     43,3182	   0,0636133	-137,2	    0,063897	-136,9
     43,3211	   0,0634677	-137,0	   0,0637123	-136,6
      43,324	   0,0633348	-136,7	   0,0634949	-137,4
      43,327	   0,0631463	-136,6	   0,0631703	-137,0
     43,3299	   0,0629726	-136,5	   0,0631142	-136,7
     43,3328	   0,0627877	-136,5	   0,0630467	-137,1
     43,3358	   0,0626389	-136,9	   0,0627066	-136,8
     43,3387	   0,0624436	-136,3	   0,0625748	-136,7
     43,3416	    0,062254	-136,3	   0,0625355	-136,6
     43,3446	   0,0621296	-136,5	    0,062299	-136,4
     43,3475	   0,0619134	-136,5	   0,0620373	-136,0
     43,3504	   0,0617576	-136,0	   0,0619622	-136,4
     43,3534	   0,0615672	-136,4	   0,0618166	-136,5
     43,3563	    0,061457	-136,2	   0,0615207	-136,3
     43,3592	   0,0612539	-136,1	   0,0614191	-136,5
     43,3622	   0,0610838	-136,2	   0,0613863	-136,2
     43,3651	   0,0609632	-135,9	    0,061154	-136,1
      43,368	   0,0607406	-136,1	   0,0609769	-136,5
      43,371	   0,0605428	-136,1	   0,0607063	-136,4
     43,3739	   0,0605008	-136,1	   0,0605027	-136,0
     43,3768	   0,0603806	-135,5	   0,0604843	-136,0
     43,3798	   0,0600908	-135,9	   0,0603104	-136,1
     43,3827	   0,0598805	-135,8	    0,060072	-135,8
     43,3856	   0,0598708	-135,8	   0,0599177	-136,2
     43,3886	     0,05972	-135,7	   0,0598454	-135,8
     43,3915	   0,0595014	-136,0	   0,0597433	-135,6
     43,3944	   0,0592885	-135,4	   0,0594807	-135,8
     43,3974	   0,0592329	-135,7	   0,0592919	-136,1
     43,4003	    0,059036	-135,8	   0,0591656	-135,3
     43,4032	   0,0589455	-135,0	   0,0590211	-135,6
     43,4062	   0,0587619	-135,1	   0,0588357	-136,0
     43,4091	    0,058473	-135,3	   0,0586152	-135,2
      43,412	   0,0583527	-135,4	   0,0585723	-135,3
      43,415	   0,0583268	-134,9	   0,0583913	-135,9
     43,4179	   0,0580524	-135,7	   0,0581281	-135,2
     43,4208	     0,05781	-135,3	   0,0580598	-135,2
     43,4238	   0,0578445	-135,2	   0,0578592	-135,6
     43,4267	   0,0578349	-135,7	   0,0577372	-135,3
     43,4296	   0,0575428	-135,0	   0,0576133	-135,5
     43,4326	   0,0572481	-134,6	   0,0574498	-135,5
     43,4355	    0,057201	-135,2	   0,0573041	-135,0
     43,4384	   0,0570998	-135,1	     0,05711	-135,2
     43,4413	   0,0569208	-134,3	   0,0569286	-134,8
     43,4443	   0,0566833	-135,0	   0,0568393	-135,1
     43,4472	    0,056547	-135,0	   0,0566814	-135,1
     43,4501	   0,0564168	-134,5	   0,0565402	-134,9
     43,4531	   0,0562352	-135,0	   0,0563746	-135,1
      43,456	   0,0561518	-134,6	   0,0562716	-135,3
     43,4589	   0,0560443	-134,8	   0,0559341	-134,9
     43,4619	    0,055887	-134,7	   0,0559525	-134,5
     43,4648	   0,0557119	-134,5	   0,0557814	-135,4
     43,4677	   0,0555328	-134,7	   0,0556173	-134,3
     43,4707	   0,0553591	-134,4	   0,0553792	-134,5
     43,4736	   0,0553391	-134,4	   0,0553183	-134,9
     43,4765	   0,0550948	-134,8	   0,0552557	-134,4
     43,4795	   0,0549736	-134,1	   0,0549846	-134,5
     43,4824	   0,0548939	-134,1	   0,0549479	-134,5
     43,4853	   0,0546353	-134,6	   0,0547986	-134,3
     43,4883	   0,0545974	-134,3	   0,0545256	-134,4
     43,4912	   0,0544444	-133,9	   0,0544152	-134,1
     43,4941	   0,0543106	-134,4	   0,0542709	-134,3
     43,4971	   0,0541514	-134,1	   0,0540795	-133,8
        43,5	   0,0541486	-133,8	   0,0540692	-133,9

